'Start Wavelength	183.907
'End Wavelength	1046.922
'Gate Delay	5.000
'Gate Width (ms)	1.050
'Laser Output Level	0.000
'X Position	0.000
'Y Position	0.000
'Z Position	0.000
'Grid Point Number	1.000
'Shot Number	100.000
183.907	739.000
183.977	-204.000
184.047	-601
184.116	-470
184.186	-363
184.256	-71
184.325	765
184.395	-863
184.465	427
184.534	-394
184.604	-175
184.674	-246
184.743	311
184.813	254
184.883	25
184.952	202
185.022	318
185.092	490
185.161	35
185.231	388
185.301	-154
185.370	405
185.440	28
185.509	-650
185.579	532
185.649	-95
185.718	333
185.788	484
185.857	-381
185.927	-348
185.996	-198
186.066	-169
186.136	-282
186.205	-487
186.275	-23
186.344	141
186.414	-221
186.483	-475
186.553	558
186.622	671
186.692	-287
186.761	152
186.831	-38
186.900	-314
186.970	824
187.039	-704
187.109	161
187.178	369
187.248	-335
187.317	788
187.387	-560
187.456	-443
187.526	458
187.595	144
187.664	-688
187.734	361
187.803	-510
187.873	31
187.942	852
188.012	-30
188.081	-333
188.150	-368
188.220	-154
188.289	486
188.358	267
188.428	549
188.497	-510
188.567	310
188.636	483
188.705	-351
188.775	-243
188.844	-751
188.913	467
188.983	-408
189.052	-1524
189.121	20
189.191	63
189.260	597
189.329	-248
189.399	163
189.468	-409
189.537	-292
189.606	82
189.676	18
189.745	254
189.814	135
189.883	387
189.953	-563
190.022	-530
190.091	-179
190.161	296
190.230	319
190.299	-287
190.368	-380
190.437	-642
190.507	-391
190.576	-227
190.645	241
190.714	-143
190.783	-727
190.853	-664
190.922	356
190.991	244
191.060	578
191.129	-587
191.198	-911
191.268	30
191.337	167
191.406	629
191.475	-139
191.544	149
191.613	450
191.682	-1113
191.752	-257
191.821	-914
191.890	-498
191.959	-771
192.028	-64
192.097	-55
192.166	-511
192.235	-1164
192.304	786
192.373	-495
192.442	149
192.511	-83
192.580	718
192.650	-327
192.719	-297
192.788	106
192.857	800
192.926	442
192.995	-651
193.064	-510
193.133	475
193.202	-430
193.271	280
193.340	656
193.409	425
193.478	34
193.547	388
193.615	-293
193.684	322
193.753	-268
193.822	231
193.891	-388
193.960	-241
194.029	-783
194.098	-173
194.167	-190
194.236	742
194.305	-136
194.374	-697
194.443	17
194.512	9
194.580	-324
194.649	57
194.718	-397
194.787	108
194.856	-623
194.925	-175
194.994	-1096
195.062	-2
195.131	-798
195.200	-686
195.269	-200
195.338	-22
195.407	98
195.475	9
195.544	-376
195.613	-185
195.682	391
195.751	-61
195.819	-791
195.888	285
195.957	567
196.026	597
196.094	781
196.163	-332
196.232	-28
196.301	-388
196.369	-200
196.438	266
196.507	72
196.576	-515
196.644	-473
196.713	-584
196.782	-286
196.850	-10
196.919	-768
196.988	-635
197.056	78
197.125	-7
197.194	554
197.262	401
197.331	-120
197.400	-558
197.468	-522
197.537	-568
197.606	-72
197.674	-321
197.743	-609
197.812	-523
197.880	-302
197.949	-874
198.017	258
198.086	39
198.155	-99
198.223	296
198.292	147
198.360	-415
198.429	112
198.497	-593
198.566	-2
198.635	125
198.703	369
198.772	-35
198.840	-139
198.909	-238
198.977	143
199.046	-288
199.114	-572
199.183	-53
199.251	-311
199.320	-1
199.388	-481
199.457	-421
199.525	-349
199.594	-203
199.662	-311
199.731	-402
199.799	-486
199.867	82
199.936	-1114
200.004	422
200.073	199
200.141	-169
200.210	-406
200.278	-549
200.346	-188
200.415	-1443
200.483	-226
200.552	99
200.620	-76
200.688	-396
200.757	-175
200.825	-459
200.893	-1036
200.962	-412
201.030	-542
201.098	-14
201.167	-204
201.235	75
201.303	-759
201.372	381
201.440	-346
201.508	-402
201.577	-319
201.645	-671
201.713	18
201.781	-552
201.850	-287
201.918	689
201.986	-503
202.055	467
202.123	-287
202.191	-64
202.259	-540
202.327	-363
202.396	-20
202.464	-1079
202.532	687
202.600	824
202.669	364
202.737	-167
202.805	25
202.873	-523
202.941	-439
203.009	-255
203.078	244
203.146	-677
203.214	-126
203.282	-507
203.350	-474
203.418	-513
203.487	179
203.555	34
203.623	68
203.691	-237
203.759	-587
203.827	236
203.895	-94
203.963	-911
204.031	-388
204.099	-30
204.168	-389
204.236	284
204.304	-333
204.372	113
204.440	-546
204.508	-182
204.576	-693
204.644	-292
204.712	-329
204.780	81
204.848	-5
204.916	-803
204.984	-666
205.052	70
205.120	-527
205.188	336
205.256	-873
205.324	-712
205.392	-1265
205.460	570
205.528	-644
205.596	-680
205.664	-322
205.732	-122
205.799	21
205.867	-234
205.935	-208
206.003	87
206.071	-562
206.139	-518
206.207	-539
206.275	-16
206.343	-317
206.411	386
206.478	-1065
206.546	-835
206.614	-554
206.682	-300
206.750	-9
206.818	-357
206.885	-445
206.953	-1235
207.021	534
207.089	-513
207.157	-922
207.225	160
207.292	-699
207.360	-944
207.428	-1222
207.496	-872
207.563	276
207.631	-64
207.699	-728
207.767	-600
207.834	-375
207.902	-525
207.970	-595
208.038	-592
208.105	-594
208.173	-547
208.241	-566
208.309	9
208.376	-929
208.444	-210
208.512	-1335
208.579	-838
208.647	445
208.715	410
208.782	-1332
208.850	368
208.918	-1024
208.985	-961
209.053	122
209.120	20
209.188	-572
209.256	-462
209.323	-801
209.391	-455
209.459	995
209.526	-255
209.594	-821
209.661	-262
209.729	-782
209.796	-657
209.864	-18
209.932	-1666
209.999	350
210.067	-415
210.134	-1207
210.202	-141
210.269	-224
210.337	811
210.404	-232
210.472	-465
210.539	-636
210.607	-772
210.674	-175
210.742	-268
210.809	-555
210.877	-739
210.944	-399
211.012	-1452
211.079	1066
211.146	-269
211.214	-375
211.281	30
211.349	-106
211.416	-734
211.484	-73
211.551	-451
211.618	-51
211.686	-661
211.753	-789
211.821	230
211.888	-803
211.955	-705
212.023	-571
212.090	-584
212.157	-208
212.225	-470
212.292	-49
212.359	-34
212.427	-651
212.494	337
212.561	-351
212.629	44
212.696	-837
212.763	-422
212.831	-557
212.898	-281
212.965	-863
213.032	-317
213.100	-699
213.167	-816
213.234	332
213.301	-37
213.369	-632
213.436	-194
213.503	-845
213.570	-739
213.638	-425
213.705	-903
213.772	-1399
213.839	-808
213.906	-213
213.973	-478
214.041	-1291
214.108	-153
214.175	-664
214.242	-323
214.309	-773
214.376	-1058
214.444	-889
214.511	-376
214.578	-778
214.645	203
214.712	-449
214.779	-740
214.846	-1158
214.913	-748
214.980	-692
215.048	9
215.115	105
215.182	-208
215.249	-442
215.316	-407
215.383	-216
215.450	-575
215.517	-1353
215.584	-416
215.651	-822
215.718	50
215.785	-604
215.852	-402
215.919	242
215.986	-931
216.053	-44
216.120	-908
216.187	-437
216.254	-32
216.321	-1269
216.388	-977
216.455	-326
216.522	-501
216.589	-369
216.656	-964
216.722	-713
216.789	-1218
216.856	50
216.923	-653
216.990	-570
217.057	56
217.124	-791
217.191	-831
217.258	-122
217.324	-610
217.391	-178
217.458	-699
217.525	156
217.592	-916
217.659	-1526
217.725	26
217.792	-843
217.859	442
217.926	-1418
217.993	-56
218.059	306
218.126	-68
218.193	-150
218.260	9
218.327	-322
218.393	-622
218.460	-634
218.527	-634
218.594	-606
218.660	-677
218.727	-244
218.794	-451
218.860	-491
218.927	-421
218.994	-202
219.061	-766
219.127	-1061
219.194	4
219.261	307
219.327	-300
219.394	266
219.461	-1057
219.527	-728
219.594	-470
219.661	-992
219.727	-1421
219.794	-48
219.860	-856
219.927	-443
219.994	-914
220.060	-192
220.127	999
220.193	356
220.260	19
220.326	-558
220.393	69
220.460	-919
220.526	-887
220.593	-448
220.659	850
220.726	-489
220.792	-639
220.859	-274
220.925	-344
220.992	-120
221.058	188
221.125	-413
221.191	-761
221.258	-808
221.324	-358
221.391	-1018
221.457	-598
221.524	-300
221.590	738
221.657	-692
221.723	-299
221.789	-37
221.856	-207
221.922	-1554
221.989	5
222.055	-211
222.121	-1817
222.188	566
222.254	-699
222.321	-20
222.387	-607
222.453	25
222.520	-794
222.586	-499
222.652	65
222.719	-866
222.785	-417
222.851	-569
222.918	440
222.984	-578
223.050	-414
223.116	-1232
223.183	207
223.249	-939
223.315	-851
223.382	-837
223.448	-148
223.514	-1002
223.580	-533
223.647	-397
223.713	-1266
223.779	-961
223.845	-625
223.911	-536
223.978	-1028
224.044	50
224.110	-980
224.176	-316
224.242	-574
224.309	-1390
224.375	-296
224.441	-649
224.507	83
224.573	-1716
224.639	739
224.705	-1239
224.772	-121
224.838	-1320
224.904	-161
224.970	-229
225.036	-808
225.102	-1251
225.168	316
225.234	-474
225.300	-892
225.366	-322
225.432	9
225.499	-463
225.565	200
225.631	-836
225.697	-542
225.763	-872
225.829	-620
225.895	-441
225.961	-463
226.027	-592
226.093	-1254
226.159	402
226.225	-9
226.291	-133
226.357	-424
226.423	-940
226.489	-646
226.554	-682
226.620	-1027
226.686	-696
226.752	-773
226.818	-1166
226.884	535
226.950	67
227.016	-304
227.082	189
227.148	-837
227.214	56
227.279	-886
227.345	-963
227.411	-743
227.477	-748
227.543	899
227.609	411
227.674	173
227.740	-1393
227.806	-730
227.872	-1329
227.938	-359
228.003	-1052
228.069	-1201
228.135	-1276
228.201	235
228.267	-1291
228.332	-469
228.398	-1996
228.464	-496
228.530	-736
228.595	636
228.661	-1806
228.727	-1477
228.792	-84
228.858	-1017
228.924	-1910
228.990	464
229.055	-1956
229.121	69
229.187	-872
229.252	-1073
229.318	-224
229.384	-538
229.449	-592
229.515	-1658
229.581	-1863
229.646	1877
229.712	-258
229.777	-269
229.843	-1223
229.909	-559
229.974	-449
230.040	-414
230.105	-1162
230.171	-1101
230.236	600
230.302	-353
230.368	-1189
230.433	-1074
230.499	-237
230.564	-263
230.630	-1570
230.695	-475
230.761	321
230.826	-1786
230.892	971
230.957	-1294
231.023	-1039
231.088	-865
231.154	4
231.219	92
231.284	-1128
231.350	-551
231.415	-2028
231.481	-107
231.546	-611
231.612	262
231.677	-1506
231.742	-1657
231.808	-452
231.873	-862
231.939	-1898
232.004	840
232.069	502
232.135	-568
232.200	-1066
232.265	-66
232.331	-1596
232.396	-1189
232.461	-1103
232.527	-1492
232.592	-386
232.657	-531
232.723	-649
232.788	-959
232.853	-184
232.918	-329
232.984	-1162
233.049	-510
233.114	-1365
233.179	-530
233.245	-326
233.310	258
233.375	-1253
233.440	-98
233.506	-958
233.571	-866
233.636	-344
233.701	-898
233.766	-874
233.832	-825
233.897	-1121
233.962	-1974
234.027	787
234.092	-168
234.157	-709
234.222	-1635
234.288	-769
234.353	-438
234.418	-25
234.483	674
234.548	2
234.613	-744
234.678	-1152
234.743	-1641
234.808	-229
234.873	-2074
234.938	770
235.004	-1111
235.069	-862
235.134	-1280
235.199	-578
235.264	125
235.329	-1559
235.394	-622
235.459	-46
235.524	-2157
235.589	313
235.654	-726
235.719	-1089
235.784	-155
235.849	-1252
235.913	-1431
235.978	-878
236.043	-1271
236.108	184
236.173	-1091
236.238	11
236.303	-1938
236.368	-1149
236.433	-318
236.498	-908
236.563	-988
236.627	-391
236.692	99
236.757	349
236.822	-420
236.887	-1693
236.952	32
237.017	-2161
237.081	-70
237.146	-1736
237.211	-54
237.276	-654
237.341	848
237.405	-1667
237.470	141
237.535	-585
237.600	-449
237.664	-442
237.729	-920
237.794	-1960
237.859	-7
237.923	-990
237.988	-663
238.053	-281
238.118	-713
238.182	-1345
238.247	515
238.312	-2484
238.376	-457
238.441	-2543
238.506	239
238.570	-1878
238.635	363
238.700	-898
238.764	-388
238.829	-85
238.893	-1329
238.958	49
239.023	-508
239.087	-753
239.152	-331
239.216	-1061
239.281	-695
239.346	-698
239.410	-1293
239.475	-1578
239.539	265
239.604	-2260
239.668	-462
239.733	-209
239.797	1106
239.862	3034
239.926	1323
239.991	213
240.055	46
240.120	-933
240.184	670
240.249	-1470
240.313	-835
240.378	-137
240.442	-437
240.507	-850
240.571	-318
240.635	-1305
240.700	-800
240.764	-647
240.829	-896
240.893	-1523
240.957	-375
241.022	-723
241.086	-42
241.151	-2266
241.215	-1286
241.279	-202
241.344	-2112
241.408	-43
241.472	-336
241.537	658
241.601	-183
241.665	-1382
241.730	-1524
241.794	419
241.858	-979
241.922	-477
241.987	-1323
242.051	-1510
242.115	-1784
242.179	-213
242.244	-1427
242.308	427
242.372	-244
242.436	-2097
242.501	-455
242.565	-903
242.629	-1389
242.693	268
242.757	-1446
242.822	-1035
242.886	-694
242.950	-312
243.014	-1268
243.078	-690
243.142	-502
243.206	-656
243.271	-303
243.335	-851
243.399	-654
243.463	-929
243.527	631
243.591	-1698
243.655	-931
243.719	-875
243.783	-59
243.847	-746
243.911	-224
243.975	-1613
244.040	-2092
244.104	447
244.168	-703
244.232	-1098
244.296	-536
244.360	-100
244.424	-2019
244.488	-1292
244.552	-162
244.615	-2096
244.679	-783
244.743	-1649
244.807	-1980
244.871	-962
244.935	536
244.999	-2208
245.063	-1480
245.127	238
245.191	-585
245.255	-973
245.319	-1135
245.383	-2074
245.446	460
245.510	-1661
245.574	-532
245.638	424
245.702	-1913
245.766	-609
245.829	277
245.893	-1452
245.957	-1326
246.021	-849
246.085	-1715
246.149	-901
246.212	450
246.276	-739
246.340	-1051
246.404	-748
246.467	98
246.531	-3160
246.595	411
246.659	369
246.722	-1577
246.786	-295
246.850	-1341
246.913	-1070
246.977	-1798
247.041	-1010
247.104	-862
247.168	-591
247.232	-943
247.295	-395
247.359	-733
247.423	-562
247.486	-391
247.550	1
247.614	-1199
247.677	-728
247.741	-540
247.804	-604
247.868	389
247.932	-1541
247.995	493
248.059	-943
248.122	-1149
248.186	450
248.249	-1068
248.313	-39
248.376	393
248.440	-1009
248.503	-1152
248.567	-189
248.630	-921
248.694	-1555
248.757	454
248.821	-133
248.884	376
248.948	-1218
249.011	-239
249.075	-755
249.138	391
249.202	-1091
249.265	-1321
249.328	-71
249.392	-1369
249.455	-578
249.519	-1436
249.582	-751
249.645	-679
249.709	-314
249.772	-1189
249.835	-339
249.899	-1277
249.962	-1382
250.025	-496
250.089	-237
250.152	1117
250.215	-892
250.279	-637
250.342	-1748
250.405	-310
250.468	-737
250.532	-1127
250.595	-380
250.658	-264
250.721	1942
250.785	-1264
250.848	949
250.911	-1353
250.974	84
251.038	-1005
251.101	328
251.164	-1132
251.227	-414
251.290	-1319
251.354	-977
251.417	-341
251.480	964
251.543	-65
251.606	2266
251.669	1196
251.732	-61
251.795	-800
251.859	-20
251.922	1047
251.985	904
252.048	617
252.111	-1175
252.174	-1550
252.237	-667
252.300	237
252.363	-740
252.426	2754
252.489	-459
252.552	-950
252.615	-867
252.678	159
252.741	-313
252.804	-591
252.867	3039
252.930	450
252.993	-57
253.056	332
253.119	-1558
253.182	-788
253.245	-352
253.308	-282
253.371	-1412
253.434	-509
253.497	-332
253.559	278
253.622	-472
253.685	-1188
253.748	-968
253.811	-707
253.874	-28
253.937	-1096
254.000	-355
254.062	-598
254.125	-1219
254.188	146
254.251	-1322
254.314	-77
254.376	-1184
254.439	201
254.502	-172
254.565	-325
254.628	810
254.690	-1554
254.753	-480
254.816	-691
254.878	-894
254.941	96
255.004	-465
255.067	-1172
255.129	-756
255.192	-63
255.255	-2172
255.317	-48
255.380	-214
255.443	-996
255.505	-673
255.568	-1497
255.631	-1154
255.693	-966
255.756	-1416
255.819	-241
255.881	-1105
255.944	-471
256.006	-933
256.069	-1264
256.132	-1783
256.194	-691
256.257	-794
256.319	-588
256.382	-1368
256.444	256
256.507	40
256.569	-1112
256.632	-1010
256.694	-1456
256.757	-557
256.819	682
256.882	-1257
256.944	-1081
257.007	-400
257.069	-1483
257.132	-1393
257.194	-745
257.257	-1335
257.319	-1541
257.381	-1298
257.444	-371
257.506	-410
257.569	790
257.631	-746
257.693	-1091
257.756	-473
257.818	-1766
257.880	-1134
257.943	-192
258.005	-1252
258.067	-1204
258.130	-933
258.192	-522
258.254	-1369
258.317	-976
258.379	-710
258.441	-1144
258.503	582
258.566	-671
258.628	-278
258.690	-1638
258.753	-661
258.815	-248
258.877	-543
258.939	-900
259.001	-215
259.064	-187
259.126	-1129
259.188	-890
259.250	-1001
259.312	-1629
259.375	-474
259.437	-622
259.499	-1043
259.561	-1120
259.623	-785
259.685	-1091
259.747	-804
259.809	-651
259.872	-1338
259.934	-579
259.996	-958
260.058	-468
260.120	-1022
260.182	-794
260.244	-851
260.306	-1135
260.368	-419
260.430	-1618
260.492	-489
260.554	337
260.616	-1200
260.678	-1266
260.740	-794
260.802	-1111
260.864	-548
260.926	-1828
260.988	495
261.050	-772
261.112	-1158
261.174	-358
261.236	-807
261.298	-1267
261.359	-955
261.421	-56
261.483	-1751
261.545	-358
261.607	-1203
261.669	-631
261.731	-337
261.793	-569
261.854	-1978
261.916	-594
261.978	-634
262.040	-705
262.102	-477
262.164	-843
262.225	-844
262.287	-846
262.349	-1126
262.411	-124
262.472	404
262.534	-881
262.596	-1377
262.658	229
262.719	-953
262.781	287
262.843	-1662
262.904	-571
262.966	-111
263.028	-892
263.090	-645
263.151	-344
263.213	-395
263.275	-989
263.336	-1299
263.398	75
263.459	-1201
263.521	-689
263.583	-35
263.644	-585
263.706	-797
263.767	-1004
263.829	-628
263.891	-961
263.952	-1115
264.014	-777
264.075	-568
264.137	-960
264.198	51
264.260	-2022
264.321	-686
264.383	-94
264.444	-922
264.506	-1047
264.567	-1371
264.629	322
264.690	-2301
264.752	-554
264.813	-802
264.875	-1236
264.936	-494
264.998	-1698
265.059	-942
265.120	-893
265.182	-931
265.243	-486
265.305	-663
265.366	-363
265.427	-549
265.489	-263
265.550	-1978
265.611	-1076
265.673	-1016
265.734	-1069
265.795	-506
265.857	-1693
265.918	-1611
265.979	-922
266.040	516
266.102	-205
266.163	166
266.224	-521
266.286	-508
266.347	-942
266.408	-1242
266.469	-719
266.530	-919
266.592	-372
266.653	-356
266.714	-600
266.775	-281
266.836	-1040
266.898	-857
266.959	-1357
267.020	-829
267.081	271
267.142	-942
267.203	195
267.264	-964
267.326	-312
267.387	-1231
267.448	-836
267.509	-1304
267.570	-847
267.631	-1421
267.692	-930
267.753	-1109
267.814	-487
267.875	-1521
267.936	-542
267.997	-1145
268.058	-913
268.119	-1267
268.180	-1046
268.241	-1457
268.302	-106
268.363	-1187
268.424	-500
268.485	-859
268.546	-1320
268.607	-719
268.668	-972
268.729	-1580
268.790	-736
268.851	-900
268.912	-892
268.972	-1409
269.033	-1226
269.094	-890
269.155	-1136
269.216	-245
269.277	-315
269.338	-1098
269.398	-312
269.459	-1051
269.520	-1021
269.581	-1070
269.642	-747
269.702	-919
269.763	-1105
269.824	-759
269.885	-1555
269.945	-645
270.006	-393
270.067	-656
270.128	-1347
270.188	-864
270.249	-996
270.310	-1425
270.370	-220
270.431	-1048
270.492	-777
270.553	-869
270.613	-575
270.674	-172
270.734	-1017
270.795	-1188
270.856	-1037
270.916	-580
270.977	-1196
271.038	-838
271.098	-753
271.159	-1464
271.219	-124
271.280	-1562
271.340	-784
271.401	-1209
271.462	-914
271.522	-637
271.583	-586
271.643	-596
271.704	-98
271.764	-702
271.825	-504
271.885	101
271.946	679
272.006	-719
272.066	-134
272.127	-7
272.187	417
272.248	185
272.308	-1112
272.369	-703
272.429	-743
272.489	-448
272.550	-738
272.610	199
272.671	-768
272.731	-721
272.791	-756
272.852	-627
272.912	-1117
272.972	-148
273.033	-303
273.093	-1064
273.153	-488
273.214	201
273.274	-783
273.334	-231
273.394	-225
273.455	-532
273.515	10
273.575	-21
273.635	75
273.696	652
273.756	906
273.816	210
273.876	581
273.936	-306
273.997	558
274.057	-365
274.117	-405
274.177	-119
274.237	-824
274.297	1012
274.358	144
274.418	-1349
274.478	-774
274.538	-964
274.598	-1719
274.658	-29
274.718	-944
274.778	-1017
274.838	-575
274.898	-746
274.958	-695
275.018	730
275.078	-405
275.138	-495
275.198	-1065
275.258	-78
275.318	-714
275.378	-964
275.438	-641
275.498	-627
275.558	-1069
275.618	-247
275.678	-515
275.738	-359
275.798	-1222
275.858	-1240
275.918	-450
275.978	-851
276.038	-1364
276.098	-412
276.157	-1074
276.217	-414
276.277	-266
276.337	-1307
276.397	-675
276.457	-428
276.517	-1083
276.576	-225
276.636	-1377
276.696	-1065
276.756	-295
276.815	-533
276.875	-589
276.935	-590
276.995	-272
277.055	-770
277.114	-551
277.174	-683
277.234	-9
277.293	-759
277.353	-354
277.413	-204
277.472	-857
277.532	-250
277.592	608
277.651	3247
277.711	9199
277.771	1750
277.830	8164
277.890	8238
277.950	4591
278.009	16638
278.069	7926
278.128	5306
278.188	9712
278.248	3985
278.307	10067
278.367	7391
278.426	487
278.486	491
278.545	-131
278.605	494
278.664	-271
278.724	-191
278.783	1064
278.843	1408
278.902	-288
278.962	-532
279.021	383
279.081	1894
279.140	1633
279.199	615
279.259	1089
279.318	2014
279.378	2910
279.437	4921
279.496	11196
279.556	49879
279.615	45907
279.675	12769
279.734	6508
279.793	5754
279.853	6044
279.912	3339
279.971	2422
280.031	2110
280.090	2434
280.149	4119
280.208	6429
280.268	34524
280.327	41121
280.386	10098
280.445	3419
280.505	1752
280.564	2271
280.623	817
280.682	1605
280.742	350
280.801	216
280.860	1085
280.919	-350
280.978	683
281.037	645
281.097	-237
281.156	637
281.215	-9
281.274	104
281.333	-138
281.392	-413
281.451	-385
281.510	209
281.569	-256
281.628	-24
281.688	301
281.747	235
281.806	-221
281.865	29
281.924	-62
281.983	-189
282.042	-111
282.101	-415
282.160	-154
282.219	-172
282.278	-25
282.337	384
282.396	-835
282.454	-406
282.513	-860
282.572	-31
282.631	-737
282.690	-130
282.749	-829
282.808	-375
282.867	-657
282.926	-395
282.985	-32
283.043	-347
283.102	-1041
283.161	44
283.220	255
283.279	-2
283.338	-502
283.396	-685
283.455	77
283.514	567
283.573	168
283.631	710
283.690	757
283.749	-35
283.808	698
283.866	126
283.925	587
283.984	232
284.043	716
284.101	260
284.160	355
284.219	1620
284.277	1351
284.336	1530
284.395	1940
284.453	2260
284.512	2408
284.570	2437
284.629	3456
284.688	4310
284.746	6047
284.805	7257
284.863	9929
284.922	12787
284.981	14916
285.039	19865
285.098	28202
285.156	36941
285.215	40786
285.273	33624
285.332	37052
285.390	33577
285.449	23967
285.507	18854
285.566	13169
285.624	10653
285.683	7566
285.741	6209
285.799	5590
285.858	4495
285.916	3112
285.975	2756
286.033	2588
286.091	2097
286.150	2003
286.208	2222
286.267	1619
286.325	1620
286.383	891
286.442	1645
286.500	943
286.558	418
286.616	907
286.675	477
286.733	277
286.791	-288
286.850	198
286.908	64
286.966	98
287.024	588
287.083	-7
287.141	155
287.199	675
287.257	148
287.315	507
287.374	-137
287.432	-339
287.490	66
287.548	-292
287.606	145
287.664	-601
287.723	-264
287.781	267
287.839	181
287.897	-142
287.955	182
288.013	-453
288.071	-189
288.129	1129
288.187	9079
288.245	4640
288.303	342
288.361	-483
288.419	-217
288.477	-353
288.535	-39
288.593	-288
288.651	982
288.709	-779
288.767	-1147
288.825	-487
288.883	-66
288.941	-107
288.999	-1180
289.057	56
289.115	-484
289.173	-566
289.231	-55
289.289	-772
289.346	-1127
289.404	-1095
289.462	-262
289.520	-685
289.578	-699
289.636	-1660
289.694	-19
289.751	-1149
289.809	-1016
289.867	-251
289.925	-139
289.983	-646
290.040	-219
290.098	-1115
290.156	-231
290.214	-762
290.271	-1081
290.329	68
290.387	-249
290.444	-838
290.502	-583
290.560	-424
290.617	-837
290.675	-788
290.733	-226
290.790	-80
290.848	-494
290.906	-552
290.963	-1148
291.021	-128
291.078	-664
291.136	-1492
291.194	-408
291.251	-186
291.309	-558
291.366	-662
291.424	-1019
291.481	-455
291.539	-8
291.596	313
291.654	-359
291.711	-65
291.769	-67
291.826	-1133
291.884	337
291.941	-167
291.999	-552
292.056	-533
292.114	-414
292.171	-588
292.228	-722
292.286	-110
292.343	-1130
292.401	-946
292.458	-294
292.515	-836
292.573	-332
292.630	-628
292.687	147
292.745	-759
292.802	-946
292.859	-308
292.917	856
292.974	-49
293.031	-324
293.089	-640
293.146	-572
293.203	-520
293.260	-1309
293.318	-922
293.375	-677
293.432	-636
293.489	285
293.546	230
293.604	-700
293.661	864
293.718	2858
293.775	-58
293.832	482
293.889	1726
293.947	1021
294.004	-931
294.061	96
294.118	473
294.175	719
294.232	2265
294.289	1202
294.346	-54
294.403	-421
294.460	-1012
294.517	-325
294.574	-252
294.631	-687
294.688	-983
294.745	-841
294.802	1065
294.859	264
294.916	-145
294.973	-574
295.030	-1274
295.087	-284
295.144	-998
295.201	-17
295.258	-813
295.315	-982
295.372	-950
295.429	478
295.486	-509
295.542	-313
295.599	-1153
295.656	-182
295.713	-884
295.770	225
295.827	-275
295.883	-1093
295.940	-1348
295.997	-1459
296.054	-1306
296.111	-529
296.167	-224
296.224	25
296.281	-788
296.338	-67
296.394	-428
296.451	-563
296.508	-533
296.564	-120
296.621	249
296.678	91
296.734	2115
296.791	267
296.848	-561
296.904	-601
296.961	-65
297.018	456
297.074	-625
297.131	145
297.187	-499
297.244	144
297.301	-383
297.357	1725
297.414	-525
297.470	189
297.527	-365
297.583	-1675
297.640	-983
297.696	-889
297.753	-964
297.809	-582
297.866	-850
297.922	-682
297.979	-831
298.035	-774
298.092	-1276
298.148	-764
298.204	-260
298.261	-225
298.317	-200
298.374	1070
298.430	141
298.486	-491
298.543	-1120
298.599	-558
298.656	-751
298.712	82
298.768	-386
298.824	42
298.881	-1032
298.937	-184
298.993	-955
299.050	-1567
299.106	-293
299.162	-716
299.218	121
299.275	-22
299.331	-706
299.387	155
299.443	1140
299.500	5645
299.556	5712
299.612	1476
299.668	766
299.724	4261
299.780	7598
299.837	2549
299.893	1102
299.949	2824
300.005	7170
300.061	4653
300.117	8604
300.173	4906
300.229	1263
300.285	353
300.341	661
300.397	-399
300.453	-478
300.510	-5
300.566	142
300.622	1740
300.678	7070
300.734	13751
300.790	5371
300.845	3536
300.901	4219
300.957	7887
301.013	3874
301.069	869
301.125	51
301.181	-56
301.237	547
301.293	-347
301.349	474
301.405	-810
301.461	-958
301.516	-213
301.572	-1013
301.628	-984
301.684	-935
301.740	-932
301.796	-279
301.851	-744
301.907	-795
301.963	-345
302.019	13
302.074	4144
302.130	4886
302.186	2232
302.242	622
302.297	310
302.353	-432
302.409	-306
302.464	242
302.520	184
302.576	-308
302.631	701
302.687	-281
302.743	-1033
302.798	-1103
302.854	-896
302.910	-186
302.965	-1187
303.021	-821
303.076	-637
303.132	-853
303.187	-480
303.243	-1399
303.299	-111
303.354	-291
303.410	-1001
303.465	-1366
303.521	-804
303.576	-1388
303.632	-588
303.687	-190
303.743	378
303.798	682
303.853	-261
303.909	-995
303.964	-1021
304.020	-150
304.075	-697
304.130	-483
304.186	-788
304.241	-23
304.297	-77
304.352	-618
304.358	-611
304.407	-555
304.449	-114
304.463	37
304.518	-1128
304.539	-987
304.573	-780
304.629	48
304.630	41
304.684	-244
304.720	-327
304.739	-371
304.794	912
304.811	740
304.850	318
304.902	393
304.905	400
304.960	411
304.992	-276
305.015	-797
305.071	-868
305.083	-754
305.126	-321
305.173	-240
305.181	-224
305.236	-976
305.264	-752
305.292	-563
305.347	-488
305.354	-521
305.402	-690
305.445	-176
305.457	-18
305.512	-340
305.535	-284
305.567	-271
305.622	-748
305.626	-768
305.678	-991
305.716	-193
305.733	138
305.788	457
305.807	267
305.843	-48
305.897	311
305.898	315
305.953	1044
305.988	218
306.008	-291
306.063	125
306.078	38
306.118	-37
306.168	-335
306.173	-389
306.228	-631
306.259	-804
306.283	-816
306.338	-608
306.349	-644
306.393	-899
306.440	-390
306.448	-298
306.503	-14
306.530	-516
306.558	-889
306.613	-487
306.620	-379
306.668	57
306.711	-81
306.723	-118
306.778	-81
306.801	-44
306.833	172
306.888	120
306.892	111
306.943	-367
306.982	-528
306.997	-549
307.052	-96
307.072	-199
307.107	-259
307.162	-389
307.163	-390
307.217	-578
307.253	-193
307.272	73
307.327	-55
307.343	-127
307.381	-420
307.434	-636
307.436	-634
307.491	412
307.524	302
307.546	68
307.600	263
307.614	102
307.655	-88
307.704	-68
307.710	-74
307.765	117
307.795	-78
307.819	-146
307.874	285
307.885	368
307.929	355
307.975	116
307.984	153
308.038	776
308.065	1008
308.093	1391
308.148	2496
308.156	3005
308.202	5753
308.246	8507
308.257	8822
308.312	4367
308.336	2750
308.366	1455
308.421	652
308.426	666
308.475	869
308.517	526
308.530	459
308.585	885
308.607	878
308.639	628
308.694	566
308.697	573
308.748	1104
308.787	1158
308.803	1037
308.857	626
308.877	591
308.912	965
308.967	1972
308.967	1993
309.021	3427
309.058	4540
309.076	5128
309.130	8123
309.148	8870
309.185	11955
309.238	17493
309.239	17534
309.293	24169
309.328	24901
309.348	23343
309.402	14588
309.418	12195
309.457	9224
309.508	6775
309.511	6697
309.566	8165
309.598	9301
309.620	11124
309.674	18708
309.688	20875
309.729	21196
309.778	17453
309.783	17078
309.837	10766
309.868	7868
309.892	6495
309.946	4066
309.959	3855
310.001	3216
310.049	2414
310.055	2277
310.109	1740
310.139	1293
310.163	1027
310.218	638
310.229	619
310.272	521
310.319	354
310.326	313
310.381	173
310.409	-79
310.435	-112
310.489	103
310.499	165
310.543	369
310.589	513
310.598	487
310.652	312
310.679	116
310.706	54
310.760	326
310.769	334
310.814	430
310.859	584
310.868	581
310.923	366
310.948	342
310.977	462
311.031	753
311.038	781
311.085	330
311.128	-111
311.139	-66
311.193	220
311.218	247
311.247	229
311.301	516
311.308	534
311.356	418
311.398	319
311.410	269
311.464	-18
311.488	-127
311.518	-77
311.572	-9
311.578	7
311.626	342
311.668	564
311.680	496
311.734	208
311.758	73
311.788	4
311.842	-99
311.847	-106
311.896	-41
311.937	1
311.950	45
312.004	260
312.027	358
312.058	299
312.112	201
312.117	195
312.165	528
312.207	824
312.297	332
312.386	76
312.476	415
312.566	-24
312.656	-257
312.745	40
312.835	185
312.925	673
313.015	-86
313.104	53
313.194	-18
313.284	36
313.374	-216
313.463	237
313.553	278
313.643	-295
313.732	-245
313.822	116
313.912	209
314.001	615
314.091	135
314.180	6
314.270	1168
314.360	-58
314.449	338
314.539	73
314.628	374
314.718	116
314.808	604
314.897	735
314.987	621
315.076	1147
315.166	458
315.255	621
315.345	812
315.434	852
315.524	993
315.613	642
315.703	1157
315.792	3229
315.881	10569
315.971	2957
316.060	804
316.150	638
316.239	190
316.328	468
316.418	557
316.507	522
316.597	1091
316.686	1339
316.775	268
316.865	1398
316.954	498
317.043	318
317.133	512
317.222	437
317.311	324
317.400	-461
317.490	1355
317.579	465
317.668	760
317.757	2315
317.847	6094
317.936	17589
318.025	4712
318.114	3426
318.203	1436
318.293	271
318.382	910
318.471	1069
318.560	1234
318.649	991
318.738	37
318.828	466
318.917	-362
319.006	99
319.095	-277
319.184	792
319.273	351
319.362	416
319.451	399
319.540	464
319.629	196
319.718	133
319.807	830
319.896	492
319.985	1384
320.074	1003
320.163	-360
320.252	34
320.341	413
320.430	676
320.519	398
320.608	1160
320.697	553
320.786	681
320.875	520
320.964	1113
321.053	558
321.142	1235
321.230	1887
321.319	2000
321.408	1454
321.497	2616
321.586	1119
321.675	481
321.764	1061
321.852	1247
321.941	824
322.030	494
322.119	319
322.207	1625
322.296	2237
322.385	2145
322.474	2207
322.562	2914
322.651	1828
322.740	1298
322.829	997
322.917	1157
323.006	862
323.095	-392
323.183	-25
323.272	889
323.361	740
323.449	1240
323.538	-214
323.626	-60
323.715	618
323.804	-53
323.892	-118
323.981	818
324.069	479
324.158	680
324.246	72
324.335	235
324.424	303
324.512	530
324.601	16
324.689	-242
324.778	-246
324.866	374
324.954	689
325.043	392
325.131	-473
325.220	1436
325.308	-863
325.397	-2
325.485	30
325.574	-63
325.662	141
325.750	194
325.839	1353
325.927	-7
326.015	-255
326.104	-587
326.192	505
326.280	677
326.369	-408
326.457	413
326.545	-288
326.634	-312
326.722	-317
326.810	-209
326.898	268
326.987	-113
327.075	-612
327.163	1398
327.251	108
327.340	452
327.428	1037
327.516	417
327.604	-288
327.692	-41
327.781	-121
327.869	-585
327.957	-418
328.045	7
328.133	469
328.221	81
328.309	78
328.397	209
328.485	308
328.574	713
328.662	1541
328.750	536
328.838	533
328.926	579
329.014	-272
329.102	-61
329.190	-296
329.278	437
329.366	-164
329.454	-164
329.542	-291
329.630	-497
329.718	-423
329.806	-558
329.893	992
329.981	-675
330.069	643
330.157	398
330.245	-180
330.333	765
330.421	-226
330.509	644
330.597	-1073
330.684	-165
330.772	741
330.860	-259
330.948	201
331.036	-19
331.123	-54
331.211	-218
331.299	-248
331.387	15
331.475	-197
331.562	-164
331.650	-104
331.738	234
331.825	-86
331.913	305
332.001	236
332.089	-523
332.176	760
332.264	-533
332.352	-269
332.439	821
332.527	-463
332.614	228
332.702	278
332.790	245
332.877	249
332.965	1537
333.052	872
333.140	1358
333.228	3292
333.315	230
333.403	208
333.490	817
333.578	1298
333.665	6462
333.753	2379
333.840	578
333.928	119
334.015	1596
334.103	1084
334.190	1866
334.278	1937
334.365	2240
334.452	3237
334.540	1238
334.627	1086
334.715	1501
334.802	2966
334.889	5140
334.977	8944
335.064	6804
335.151	854
335.239	1867
335.326	679
335.413	1400
335.501	1505
335.588	1023
335.675	735
335.762	1659
335.850	1490
335.937	2878
336.024	5715
336.111	12046
336.199	12440
336.286	4381
336.373	1444
336.460	274
336.547	767
336.635	1259
336.722	1085
336.809	-5
336.896	-548
336.983	641
337.070	1267
337.157	968
337.245	-338
337.332	385
337.419	215
337.506	363
337.593	190
337.680	539
337.767	636
337.854	838
337.941	161
338.028	29
338.115	-757
338.202	1355
338.289	-41
338.376	-471
338.463	15
338.550	-446
338.637	-10
338.724	83
338.811	284
338.898	371
338.984	-383
339.071	911
339.158	-532
339.245	-25
339.332	130
339.419	-328
339.506	756
339.593	-997
339.679	274
339.766	-651
339.853	-569
339.940	-14
340.027	638
340.113	-19
340.200	645
340.287	491
340.374	-241
340.460	800
340.547	-1302
340.634	-21
340.720	-77
340.807	138
340.894	-7
340.980	-74
341.067	-596
341.154	865
341.240	278
341.327	95
341.414	-74
341.500	-722
341.587	139
341.674	660
341.760	11
341.847	-383
341.933	216
342.020	-887
342.106	-246
342.193	18
342.279	-305
342.366	-564
342.452	572
342.539	-621
342.625	-1188
342.712	-357
342.798	-119
342.885	-220
342.971	-635
343.058	-9
343.144	-285
343.230	446
343.317	-4
343.403	-785
343.490	177
343.576	-483
343.662	94
343.749	-357
343.835	-459
343.921	173
344.008	1176
344.094	2149
344.180	741
344.267	-299
344.353	-225
344.439	669
344.525	-777
344.612	152
344.698	-865
344.784	-241
344.870	281
344.957	85
345.043	236
345.129	-556
345.215	554
345.301	-595
345.387	-590
345.474	-256
345.560	-734
345.646	-705
345.732	-131
345.818	-384
345.904	-502
345.990	49
346.076	-163
346.162	-76
346.249	301
346.335	147
346.421	-23
346.507	-378
346.593	65
346.679	-865
346.765	664
346.851	701
346.937	-174
347.023	894
347.108	418
347.194	296
347.280	-233
347.366	151
347.452	1838
347.538	946
347.624	2146
347.710	593
347.796	432
347.882	-183
347.967	724
348.053	-777
348.139	-205
348.225	-75
348.311	-988
348.397	76
348.482	733
348.568	491
348.654	623
348.740	3199
348.825	454
348.911	1813
348.997	628
349.083	549
349.168	-328
349.254	-156
349.340	-1145
349.425	232
349.511	-532
349.597	-740
349.682	-699
349.768	446
349.854	-280
349.939	16
350.025	-523
350.110	-152
350.196	-784
350.282	-914
350.367	195
350.453	-10
350.538	-350
350.624	-1079
350.709	348
350.795	-757
350.880	-716
350.966	830
351.051	-178
351.137	397
351.222	-289
351.308	-63
351.393	-439
351.479	-46
351.564	-1186
351.649	-439
351.735	409
351.820	-740
351.906	-942
351.991	-1127
352.076	-929
352.162	716
352.247	-550
352.332	409
352.418	-1453
352.503	-819
352.588	581
352.673	-590
352.759	-194
352.844	-685
352.929	-708
353.014	-834
353.100	514
353.185	-458
353.270	-1077
353.355	198
353.441	434
353.526	-415
353.611	-78
353.696	-811
353.781	452
353.866	-1137
353.952	168
354.037	-419
354.122	284
354.207	-353
354.292	-124
354.377	-224
354.462	-565
354.547	-784
354.632	-508
354.717	-525
354.802	-1679
354.887	-67
354.972	-488
355.057	-283
355.142	-1478
355.227	-29
355.312	-557
355.397	-659
355.482	235
355.567	-214
355.652	-434
355.737	248
355.822	426
355.907	-1168
355.991	384
356.076	-710
356.161	-58
356.246	407
356.331	327
356.416	-751
356.501	1823
356.585	247
356.670	-1238
356.755	1904
356.840	-234
356.924	71
357.009	1720
357.094	1068
357.179	-533
357.263	148
357.348	469
357.433	316
357.517	-1320
357.602	-428
357.687	-421
357.771	221
357.856	-1097
357.941	-463
358.025	-17
358.110	3388
358.195	772
358.279	-626
358.364	77
358.448	299
358.533	408
358.617	78
358.702	494
358.787	-410
358.871	-653
358.956	249
359.040	-421
359.125	-275
359.209	-42
359.294	-456
359.378	219
359.462	-190
359.547	-358
359.631	-176
359.716	-1248
359.800	365
359.885	379
359.969	-652
360.053	182
360.138	-742
360.222	-410
360.306	-1238
360.391	-53
360.475	-242
360.559	-690
360.644	-291
360.728	-1730
360.812	1250
360.896	1108
360.981	-205
361.065	-854
361.149	810
361.233	-283
361.318	-839
361.402	379
361.486	1086
361.570	-1445
361.654	-424
361.739	-780
361.823	651
361.907	1182
361.991	180
362.075	-335
362.159	-1045
362.243	2834
362.327	6731
362.411	13963
362.495	3533
362.580	297
362.664	1087
362.748	168
362.832	1932
362.916	4475
363.000	22929
363.084	33129
363.168	10230
363.252	2264
363.336	1480
363.420	1091
363.503	-190
363.587	-103
363.671	593
363.755	-859
363.839	1811
363.923	-565
364.007	820
364.091	579
364.175	1797
364.258	9209
364.342	22726
364.426	50529
364.510	22095
364.594	6166
364.677	2626
364.761	583
364.845	1258
364.929	352
365.013	-92
365.096	-318
365.180	-1538
365.264	502
365.347	1611
365.431	174
365.515	-929
365.598	-1374
365.682	1231
365.766	-679
365.849	430
365.933	-903
366.017	841
366.100	-1622
366.184	-734
366.267	851
366.351	-47
366.435	-889
366.518	-44
366.602	-471
366.685	629
366.769	-605
366.852	-486
366.936	223
367.019	-421
367.103	-1467
367.186	674
367.270	-23
367.353	-382
367.436	456
367.520	-612
367.603	543
367.687	-1581
367.770	-765
367.853	1477
367.937	819
368.020	448
368.104	-1281
368.187	-122
368.270	-724
368.353	-606
368.437	-309
368.520	87
368.603	-256
368.687	-1366
368.770	-109
368.853	-509
368.936	708
369.020	-110
369.103	-989
369.186	-328
369.269	-1641
369.352	-490
369.436	-568
369.519	-274
369.602	-1572
369.685	1003
369.768	-1265
369.851	366
369.934	-829
370.018	-720
370.101	-1365
370.184	1906
370.267	316
370.350	-388
370.433	-221
370.516	1870
370.599	4929
370.682	-164
370.765	455
370.848	1626
370.931	-459
371.014	1033
371.097	-1640
371.180	1150
371.263	27
371.346	-1466
371.429	849
371.511	-1046
371.594	-540
371.677	473
371.760	43
371.843	-744
371.926	1298
372.009	3302
372.091	3813
372.174	268
372.257	628
372.340	277
372.423	734
372.505	990
372.588	-552
372.671	1304
372.754	-710
372.836	259
372.919	499
373.002	1654
373.085	-795
373.167	1477
373.250	-502
373.332	544
373.415	2833
373.498	2357
373.580	3500
373.663	9331
373.746	6414
373.828	6
373.911	1218
373.993	-843
374.076	253
374.159	-327
374.241	-71
374.324	523
374.406	604
374.489	745
374.571	2543
374.654	52
374.736	250
374.819	821
374.901	3299
374.983	1829
375.066	689
375.148	128
375.231	13
375.313	736
375.395	-331
375.478	-285
375.560	768
375.643	-129
375.725	852
375.807	-166
375.890	1534
375.972	-850
376.054	1003
376.136	-143
376.219	-950
376.301	861
376.383	-1217
376.465	-283
376.548	-504
376.630	-5
376.712	336
376.794	78
376.877	279
376.959	-1138
377.041	-33
377.123	-692
377.205	-484
377.287	-801
377.369	851
377.452	-133
377.534	-346
377.616	-397
377.698	-624
377.780	-1931
377.862	-752
377.944	284
378.026	-439
378.108	343
378.190	-823
378.272	782
378.354	-316
378.436	-285
378.518	-1460
378.600	-301
378.682	129
378.764	-1091
378.846	-146
378.928	-364
379.010	-2005
379.091	591
379.173	-876
379.255	-1142
379.337	-658
379.419	-1023
379.501	744
379.583	-264
379.664	-590
379.746	-2039
379.828	551
379.910	-206
379.991	76
380.073	-688
380.155	-410
380.237	-871
380.318	97
380.400	-618
380.482	117
380.564	-434
380.645	-744
380.727	-412
380.809	21
380.890	-696
380.972	-865
381.053	-768
381.135	462
381.217	-978
381.298	1097
381.380	-337
381.461	-296
381.543	198
381.624	410
381.706	681
381.787	-336
381.869	236
381.951	317
382.032	1210
382.113	3272
382.195	-225
382.276	2479
382.358	-12
382.439	249
382.521	2410
382.602	3344
382.684	3493
382.765	6078
382.846	21976
382.928	52921
383.009	24830
383.090	21198
383.172	72204
383.253	92411
383.334	23740
383.416	7350
383.497	5476
383.578	6845
383.659	16633
383.741	61825
383.822	130815
383.903	58627
383.984	11795
384.066	6490
384.147	3069
384.228	2047
384.309	2338
384.390	989
384.471	1035
384.553	919
384.634	629
384.715	1401
384.796	135
384.877	-505
384.958	850
385.039	-214
385.120	459
385.201	951
385.282	192
385.363	1302
385.444	734
385.525	1058
385.606	659
385.687	835
385.768	641
385.849	-616
385.930	1931
386.011	3281
386.092	-617
386.173	439
386.254	879
386.335	830
386.416	197
386.496	711
386.577	441
386.658	379
386.739	-194
386.820	434
386.901	-467
386.981	78
387.062	321
387.143	432
387.224	1280
387.304	1401
387.385	2508
387.466	-508
387.547	2790
387.627	1506
387.708	1865
387.789	1505
387.869	694
387.950	1199
388.031	127
388.111	-1758
388.192	1097
388.273	1691
388.353	-348
388.434	-275
388.514	240
388.595	1234
388.676	535
388.756	295
388.837	712
388.917	-364
388.998	-1849
389.078	535
389.159	495
389.239	-1471
389.320	1828
389.400	-2293
389.480	72
389.561	-446
389.641	811
389.722	-505
389.802	-1195
389.883	-111
389.963	1107
390.043	-449
390.124	-1275
390.204	-17
390.284	22
390.365	-335
390.445	681
390.525	-540
390.605	-267
390.686	-1140
390.766	409
390.846	704
390.927	-292
391.007	-1721
391.087	872
391.167	-481
391.247	-600
391.328	463
391.408	507
391.488	-126
391.568	-1092
391.648	301
391.728	859
391.808	1191
391.888	57
391.969	347
392.049	-220
392.129	755
392.209	995
392.289	1745
392.369	1219
392.449	1372
392.529	1368
392.609	2670
392.689	2349
392.769	1773
392.849	3673
392.929	6972
393.009	6900
393.089	11402
393.169	25897
393.248	72037
393.328	181538
393.408	168215
393.488	60632
393.568	20874
393.648	10275
393.728	5451
393.807	4484
393.887	4395
393.967	2701
394.047	1332
394.127	603
394.206	842
394.286	2072
394.366	10042
394.446	10520
394.525	1316
394.605	252
394.685	744
394.764	1788
394.844	2468
394.924	2998
395.003	108
395.083	113
395.163	117
395.242	-334
395.322	-267
395.402	-823
395.481	1944
395.561	-291
395.640	4977
395.720	9561
395.799	3091
395.879	249
395.958	222
396.038	3845
396.117	16964
396.197	14521
396.276	3685
396.356	1035
396.435	2109
396.515	5113
396.594	7161
396.673	20297
396.753	70863
396.832	157104
396.912	100854
396.991	24135
397.070	10593
397.150	4385
397.229	5885
397.308	9633
397.388	16689
397.467	7012
397.546	2129
397.625	-1543
397.705	1686
397.784	763
397.863	-368
397.942	280
398.022	-131
398.101	-554
398.180	245
398.259	-7
398.338	363
398.417	-771
398.497	-1479
398.576	662
398.655	-2036
398.734	299
398.813	-738
398.892	-946
398.971	95
399.050	-699
399.129	-665
399.208	630
399.287	-129
399.366	-847
399.445	-29
399.524	155
399.603	-2826
399.682	-241
399.761	-823
399.840	101
399.919	260
399.998	-557
400.077	-644
400.156	-1503
400.235	655
400.313	-1418
400.392	-1776
400.471	71
400.550	201
400.629	-1251
400.708	239
400.786	-1426
400.865	-1556
400.944	-2196
401.023	1745
401.102	-1343
401.180	-932
401.259	-193
401.338	-1014
401.416	-711
401.495	-1689
401.574	-240
401.652	-1888
401.731	-313
401.810	-2202
401.888	-1570
401.967	-1373
402.046	-639
402.124	-186
402.203	-1077
402.281	-606
402.360	-1644
402.438	173
402.517	-1640
402.596	-580
402.674	-1064
402.753	-962
402.831	-306
402.910	-319
402.988	-333
403.066	-1624
403.145	-138
403.223	-235
403.302	-1123
403.380	164
403.459	-953
403.537	-1089
403.615	-345
403.694	-1595
403.772	658
403.850	-343
403.929	-1517
404.007	-1278
404.085	441
404.164	-1895
404.242	-247
404.320	459
404.398	276
404.477	-1189
404.555	139
404.633	144
404.711	-800
404.789	-483
404.868	-1474
404.946	-1213
405.024	-1266
405.102	-731
405.180	-1307
405.258	-2915
405.336	-536
405.415	-1829
405.493	-526
405.571	-635
405.649	-923
405.727	-2133
405.805	101
405.883	-325
405.961	204
406.039	-2053
406.117	-2116
406.195	-1021
406.273	-1601
406.351	37
406.429	-280
406.507	-1705
406.585	-1307
406.663	-878
406.740	-1162
406.818	-2456
406.896	-1999
406.974	-142
407.052	-2038
407.130	-983
407.208	-126
407.285	104
407.363	-1549
407.441	-992
407.519	-1389
407.596	-903
407.674	-906
407.752	729
407.830	112
407.907	-124
407.985	-1117
408.063	-856
408.141	-804
408.218	183
408.296	-1819
408.373	-1243
408.451	-568
408.529	-940
408.606	-918
408.684	-835
408.762	-571
408.839	-475
408.917	-1191
408.994	-459
409.072	-1573
409.149	-221
409.227	1550
409.304	2059
409.382	1807
409.459	1903
409.537	5494
409.614	2321
409.692	1041
409.769	1241
409.846	4269
409.924	5801
410.001	632
410.079	512
410.156	704
410.233	720
410.311	-888
410.388	-1018
410.465	-400
410.543	-618
410.620	-31
410.697	-557
410.775	-657
410.852	-1343
410.929	1144
411.006	385
411.083	-915
411.161	-642
411.238	-1042
411.315	-675
411.392	-437
411.469	-106
411.547	-191
411.624	-2765
411.701	-474
411.778	-754
411.855	-1856
411.932	-1895
412.009	-1345
412.086	-605
412.163	-893
412.240	-1729
412.317	-78
412.394	-1024
412.471	-538
412.548	-1523
412.625	-1372
412.702	-1037
412.779	-1091
412.856	-647
412.933	-714
413.010	-1063
413.087	-568
413.164	-1699
413.241	-751
413.318	-1881
413.395	-393
413.471	-1818
413.548	-496
413.625	-312
413.702	-1790
413.779	-418
413.855	-913
413.932	-1817
414.009	-1200
414.086	-652
414.162	-1546
414.239	-400
414.316	-861
414.393	6
414.469	-1455
414.546	-1616
414.623	-1752
414.699	-1389
414.776	-1526
414.853	-1526
414.929	-917
415.006	-1222
415.082	-599
415.159	-1428
415.236	-646
415.312	-912
415.389	-1061
415.465	-1823
415.542	-1676
415.618	-1652
415.695	-623
415.771	-1710
415.848	-1592
415.924	-681
416.000	-1350
416.077	-247
416.153	-2288
416.230	-1724
416.306	-1741
416.383	-1507
416.459	-985
416.535	-569
416.612	-1571
416.688	-881
416.764	-714
416.841	-1380
416.917	-1423
416.993	-828
417.069	-544
417.146	-2242
417.222	-1441
417.298	-1670
417.374	-1007
417.451	-1389
417.527	-1245
417.603	-2323
417.679	-951
417.755	-730
417.831	-1522
417.908	-995
417.984	-1033
418.060	-2258
418.136	-574
418.212	-1403
418.288	-845
418.364	-1141
418.440	-1650
418.516	-768
418.592	-881
418.668	-1671
418.744	-1611
418.820	-1158
418.896	-792
418.972	-1743
419.048	-1188
419.124	233
419.200	-1630
419.276	-569
419.352	-979
419.428	-676
419.504	-1540
419.579	-1447
419.655	-1288
419.731	-1461
419.807	-1220
419.883	-1295
419.959	-418
420.034	-870
420.110	-1006
420.186	-1546
420.262	-677
420.337	-1514
420.413	-1058
420.489	-958
420.565	-64
420.640	-1155
420.716	-387
420.792	-1508
420.867	586
420.943	-1108
421.019	-885
421.094	-747
421.170	-426
421.245	-573
421.321	-119
421.397	-542
421.472	1080
421.548	514
421.623	1034
421.699	493
421.774	1584
421.850	1227
421.925	2836
422.001	2663
422.076	3439
422.152	3824
422.227	6975
422.302	11304
422.378	15930
422.453	27709
422.529	57024
422.604	96854
422.679	108392
422.755	88560
422.830	52535
422.905	28083
422.981	16665
423.056	11513
423.131	9024
423.207	5054
423.282	3511
423.357	3618
423.432	1649
423.508	1482
423.583	566
423.658	1536
423.733	463
423.808	1171
423.883	1825
423.959	1560
424.034	1273
424.109	1669
424.184	-273
424.259	35
424.334	-474
424.409	-995
424.484	-154
424.559	-520
424.634	-348
424.709	-365
424.784	-140
424.859	-1228
424.934	-757
425.009	-957
425.084	-612
425.159	-1524
425.234	-257
425.309	-1502
425.384	-434
425.459	-1802
425.534	-644
425.609	-1708
425.683	-1005
425.758	-531
425.833	-1414
425.908	-665
425.983	-714
426.058	573
426.132	-964
426.207	-1101
426.282	174
426.357	-1142
426.431	-1197
426.506	-589
426.581	-1243
426.655	-1034
426.730	-1521
426.805	-1602
426.879	-567
426.954	-1187
427.029	-1033
427.103	-960
427.178	-595
427.253	-893
427.327	-1186
427.402	-1070
427.476	-1317
427.551	-1545
427.625	-662
427.700	-776
427.774	-1252
427.849	-696
427.923	-604
427.998	-1093
428.072	-1505
428.147	1232
428.221	8974
428.296	30290
428.370	13033
428.444	808
428.519	-446
428.593	-1417
428.667	-620
428.742	-1032
428.816	2223
428.890	17729
428.965	25405
429.039	4578
429.113	-145
429.188	-744
429.262	-579
429.336	-810
429.410	-1066
429.485	-889
429.559	-517
429.633	-982
429.707	-54
429.781	2305
429.855	17184
429.930	20818
430.004	3892
430.078	1747
430.152	9781
430.226	41015
430.300	35073
430.374	5079
430.448	1285
430.522	-518
430.596	-294
430.670	5172
430.744	23423
430.818	20492
430.892	2076
430.966	-1322
431.040	-589
431.114	-1553
431.188	-732
431.262	-1039
431.336	-1488
431.410	-201
431.484	-1873
431.557	-733
431.631	-620
431.705	-508
431.779	7196
431.853	29968
431.927	16421
432.000	833
432.074	-249
432.148	-1238
432.222	-2068
432.295	-1412
432.369	-1374
432.443	-1323
432.516	-1003
432.590	-310
432.664	-578
432.737	-1152
432.811	-1309
432.885	-1115
432.958	-998
433.032	-2116
433.106	-1109
433.179	-1380
433.253	-776
433.326	-1876
433.400	-858
433.473	-1063
433.547	-2042
433.620	-1590
433.694	-1190
433.767	-980
433.841	-1332
433.914	-1212
433.988	-2195
434.061	-898
434.134	-1554
434.208	-1785
434.281	-1700
434.355	-1940
434.428	-568
434.501	-1742
434.575	-975
434.648	-1372
434.721	-829
434.795	-1619
434.868	-1567
434.941	-1558
435.014	-255
435.088	-1202
435.161	-635
435.234	-629
435.307	-960
435.381	-423
435.454	1611
435.527	1393
435.600	2070
435.673	1051
435.746	-31
435.819	-985
435.892	-749
435.966	-895
436.039	-520
436.112	-971
436.185	-1294
436.258	-913
436.331	-1912
436.404	-1489
436.477	-1614
436.550	-1238
436.623	-917
436.696	-836
436.769	-1010
436.842	-1521
436.915	-1341
436.987	-1179
437.060	-583
437.133	-1522
437.206	-1620
437.279	-1413
437.352	-1383
437.425	-1898
437.498	-1435
437.570	-1817
437.643	-1382
437.716	-1455
437.789	-1260
437.861	-722
437.934	-1272
438.007	-1772
438.080	-1328
438.152	-1757
438.225	-1083
438.298	-1391
438.370	-319
438.443	-1157
438.516	-1382
438.588	-1698
438.661	-1851
438.734	-2238
438.806	-1722
438.879	-1215
438.951	-1432
439.024	-1439
439.096	-1933
439.169	-1071
439.241	-1659
439.314	-1763
439.386	-1726
439.459	-1129
439.531	-1414
439.604	-1567
439.676	-203
439.749	-1056
439.821	-1710
439.893	-1486
439.966	-1581
440.038	-1911
440.110	-1300
440.183	-1480
440.255	-1929
440.327	-909
440.400	-557
440.472	-1423
440.544	-1613
440.617	-1354
440.689	-575
440.761	-978
440.833	-861
440.905	-1183
440.978	-2090
441.050	-1189
441.122	-664
441.194	-1856
441.266	-2145
441.338	-807
441.411	-604
441.483	-1024
441.555	-966
441.627	-774
441.699	-1035
441.771	-1582
441.843	-1055
441.915	-1068
441.987	-680
442.059	-991
442.131	-1263
442.203	-1048
442.275	-319
442.347	1644
442.419	3424
442.491	22903
442.563	45215
442.635	15533
442.706	2076
442.778	-407
442.850	-167
442.922	-748
442.994	-217
443.066	-574
443.137	402
443.209	-47
443.281	1566
443.353	5081
443.425	26862
443.496	76296
443.568	72179
443.640	28349
443.711	4842
443.783	1361
443.855	525
443.926	348
443.998	-847
444.070	-513
444.141	-446
444.213	-202
444.285	-972
444.356	-1373
444.428	-1391
444.499	-441
444.571	-1279
444.642	-982
444.714	-831
444.785	-845
444.857	-1
444.928	28
445.000	-40
445.071	99
445.143	-145
445.214	1050
445.285	3495
445.357	13007
445.428	54097
445.500	93495
445.571	66937
445.642	42757
445.714	13055
445.785	3874
445.856	186
445.928	-184
445.999	-394
446.070	-1052
446.141	-111
446.213	-456
446.284	-555
446.355	-661
446.426	-1514
446.497	-910
446.569	-646
446.640	-1471
446.711	-1260
446.782	-785
446.853	-943
446.924	-1027
446.995	-1420
447.066	-889
447.138	-1139
447.209	-809
447.280	-1499
447.351	-1632
447.422	-1154
447.493	-1138
447.564	-1341
447.635	-1357
447.706	-1366
447.777	-1441
447.847	-1114
447.918	-1885
447.989	-743
448.060	-640
448.131	-1180
448.202	-2000
448.273	-1895
448.344	-786
448.414	-603
448.485	-1730
448.556	-1336
448.627	-1813
448.698	-79
448.768	-1418
448.839	-1755
448.910	-1994
448.981	-1206
449.051	-1298
449.122	-1430
449.193	-1638
449.263	-971
449.334	-1781
449.405	-1304
449.475	-1130
449.546	-1151
449.616	-1415
449.687	-840
449.758	-2120
449.828	-1372
449.899	-1413
449.969	-1706
450.040	-1254
450.110	-1567
450.181	-713
450.251	-1268
450.322	-1327
450.392	-963
450.463	-1868
450.533	-1883
450.604	-1522
450.674	-1719
450.744	-949
450.815	-1746
450.885	-1352
450.955	-709
451.026	-1212
451.096	-991
451.166	-1716
451.237	-615
451.307	-668
451.377	-1290
451.447	-1202
451.518	-861
451.588	-2619
451.658	-1379
451.728	-1320
451.799	-1601
451.869	-997
451.939	-921
452.009	-1913
452.079	-1485
452.149	-1070
452.219	-1776
452.289	-1689
452.360	-963
452.430	-1392
452.500	-701
452.570	465
452.640	2126
452.710	6630
452.780	7928
452.850	3610
452.920	761
452.990	-722
453.060	-724
453.129	-1424
453.199	-1274
453.269	-992
453.339	-626
453.409	-273
453.479	-972
453.549	-201
453.619	-499
453.688	-1328
453.758	-766
453.828	-1943
453.898	-2004
453.968	-1125
454.037	-1043
454.087	-1509
454.107	-1718
454.168	-1758
454.177	-1792
454.247	-1765
454.249	-1727
454.316	-1421
454.330	-1415
454.386	-1456
454.411	-1376
454.456	-1362
454.492	-1398
454.525	-1453
454.574	-505
454.595	-107
454.655	-1593
454.665	-1872
454.734	-1302
454.736	-1279
454.804	-1291
454.817	-1098
454.873	-470
454.898	-464
454.943	-480
454.979	-616
455.013	-756
455.060	-855
455.082	-957
455.141	-563
455.152	-495
455.221	-206
455.222	-183
455.291	-646
455.303	-595
455.360	-579
455.384	-126
455.430	237
455.465	-154
455.499	-475
455.546	-379
455.569	-312
455.627	-71
455.638	-51
455.707	12
455.708	31
455.777	-455
455.789	-356
455.846	136
455.869	-15
455.916	-464
455.950	-279
455.985	-129
456.031	-558
456.054	-809
456.112	175
456.124	372
456.193	-398
456.193	-425
456.262	-247
456.274	-136
456.332	118
456.355	235
456.401	529
456.436	615
456.470	482
456.516	466
456.540	581
456.597	-97
456.609	-274
456.678	645
456.678	621
456.747	-39
456.759	-30
456.817	252
456.840	402
456.886	428
456.920	862
456.955	1417
457.001	859
457.024	472
457.082	1653
457.093	1850
457.162	1661
457.163	1688
457.232	1172
457.243	1258
457.301	1866
457.324	1848
457.370	1737
457.405	1915
457.439	2118
457.485	2528
457.508	2871
457.566	3796
457.577	4213
457.646	7488
457.647	7570
457.715	21567
457.727	24566
457.784	45306
457.808	55804
457.853	60791
457.889	65388
457.922	56562
457.969	37562
457.991	44348
458.050	65935
458.060	70203
458.129	110547
458.130	111919
458.198	76403
458.211	66865
458.267	35344
458.292	21956
458.336	19130
458.372	19624
458.405	32936
458.453	54505
458.474	71375
458.533	124673
458.543	126585
458.611	153970
458.614	155016
458.680	70125
458.694	50006
458.749	25105
458.775	16069
458.818	10623
458.855	8284
458.887	7292
458.936	5790
458.955	5376
459.016	4683
459.024	4650
459.093	4704
459.097	4716
459.162	3706
459.177	3565
459.230	3683
459.257	3775
459.299	3714
459.338	3408
459.368	3340
459.418	3906
459.437	3851
459.499	2979
459.505	2971
459.574	3549
459.579	3581
459.643	3213
459.659	3154
459.711	3419
459.740	3432
459.780	3294
459.820	3711
459.849	3956
459.900	3897
459.917	3712
459.981	3030
459.986	3025
460.054	3101
460.061	3160
460.123	3602
460.141	3554
460.191	3266
460.222	3318
460.260	3292
460.302	3256
460.328	3352
460.382	3988
460.397	4141
460.462	4254
460.465	4302
460.534	5524
460.543	5697
460.602	12883
460.623	15759
460.671	24372
460.703	30257
460.739	23703
460.783	15455
460.808	12784
460.864	4709
460.876	4410
460.944	3998
460.945	3983
461.013	3465
461.024	3443
461.081	3311
461.104	3344
461.150	3781
461.184	4085
461.218	4506
461.264	4201
461.286	3804
461.345	3936
461.355	4001
461.423	4436
461.425	4424
461.491	3326
461.505	3326
461.559	4164
461.585	4358
461.628	4584
461.665	4850
461.696	4706
461.745	4451
461.764	4470
461.825	4175
461.832	4163
461.901	4546
461.905	4573
461.969	4013
461.985	3883
462.037	4856
462.065	5112
462.105	4240
462.145	3848
462.173	4050
462.225	4008
462.241	3961
462.305	4155
462.310	4216
462.378	5097
462.385	5200
462.446	5150
462.465	5026
462.514	4708
462.545	4584
462.582	4408
462.625	4172
462.650	4099
462.705	3772
462.718	3815
462.785	4353
462.786	4357
462.854	4117
462.865	4132
462.922	4233
462.945	4302
462.990	4620
463.025	4498
463.058	4505
463.104	5081
463.126	5042
463.184	4499
463.194	4532
463.262	4638
463.264	4646
463.330	4626
463.344	4622
463.398	5060
463.424	5125
463.466	4665
463.504	4511
463.533	4816
463.583	5071
463.601	5092
463.663	5273
463.669	5226
463.737	4532
463.743	4468
463.805	4628
463.823	4656
463.873	5206
463.903	5632
463.940	5634
463.982	5341
464.008	5265
464.062	5382
464.076	5379
464.142	5201
464.144	5203
464.211	4787
464.221	4718
464.279	4797
464.301	4933
464.347	5259
464.381	5397
464.414	5130
464.461	4699
464.482	4705
464.540	4708
464.550	4796
464.617	5405
464.620	5419
464.685	5618
464.699	5609
464.753	5806
464.779	5865
464.820	5782
464.859	5824
464.888	5758
464.938	5535
464.956	5764
465.018	6425
465.023	6414
465.091	6252
465.098	6224
465.158	6260
465.177	6220
465.226	5669
465.257	5364
465.293	5424
465.336	5356
465.361	5464
465.416	5738
465.428	5724
465.495	5626
465.496	5640
465.563	5803
465.575	5829
465.631	6406
465.654	6726
465.698	6044
465.734	5305
465.765	5648
465.813	6098
465.833	6104
465.893	6190
465.900	6175
465.968	5840
465.972	5807
466.035	5888
466.052	5882
466.102	5664
466.131	5532
466.170	5715
466.210	5843
466.237	6175
466.290	6827
466.304	6604
466.369	5480
466.372	5525
466.439	6513
466.449	6639
466.506	6043
466.528	5792
466.573	6574
466.607	7128
466.641	7219
466.687	7346
466.708	7445
466.766	7592
466.775	7576
466.842	7354
466.845	7326
466.909	7129
466.925	7053
466.977	7430
467.004	7623
467.044	7640
467.083	7607
467.111	7744
467.163	7946
467.178	7851
467.242	7368
467.245	7381
467.312	7308
467.321	7283
467.379	8254
467.400	8579
467.446	8201
467.480	7894
467.559	8417
467.638	7989
467.717	8173
467.796	9527
467.875	9684
467.955	9033
468.034	11150
468.113	13044
468.192	16774
468.271	19569
468.350	28917
468.429	41897
468.508	43541
468.588	26176
468.667	15943
468.746	12208
468.825	11109
468.904	9254
468.983	8125
469.062	8570
469.141	9320
469.220	8397
469.299	8387
469.378	7957
469.456	8661
469.535	8899
469.614	8245
469.693	7337
469.772	9783
469.851	8453
469.930	9751
470.009	9736
470.088	12471
470.166	19424
470.245	34496
470.324	44762
470.403	27742
470.482	15466
470.560	12485
470.639	9534
470.718	9907
470.797	8784
470.875	8512
470.954	7401
471.033	7637
471.111	7110
471.190	8660
471.269	7159
471.347	8930
471.426	8271
471.505	7924
471.583	7465
471.662	7204
471.740	7688
471.819	7932
471.898	7864
471.976	8082
472.055	7162
472.133	7090
472.212	7857
472.290	7319
472.369	6681
472.447	7323
472.526	7560
472.604	7788
472.683	8715
472.761	7377
472.839	7851
472.918	8029
472.996	8259
473.075	8974
473.153	7952
473.231	7921
473.310	8106
473.388	8589
473.466	7775
473.545	7963
473.623	7793
473.701	8598
473.780	8185
473.858	6752
473.936	9802
474.014	8155
474.093	8378
474.171	8856
474.249	9082
474.327	7795
474.405	8105
474.484	8419
474.562	7088
474.640	7286
474.718	8369
474.796	7551
474.874	7848
474.952	8124
475.030	7075
475.108	7365
475.187	7047
475.265	9027
475.343	8291
475.421	8293
475.499	7573
475.577	7337
475.655	9041
475.733	7334
475.811	8001
475.889	7570
475.966	8308
476.044	6929
476.122	7444
476.200	7741
476.278	7760
476.356	7363
476.434	6619
476.512	8493
476.590	8731
476.667	7751
476.745	6913
476.823	7299
476.901	7590
476.979	8332
477.056	7549
477.134	7426
477.212	6697
477.290	7398
477.367	6873
477.445	7391
477.523	6961
477.601	6085
477.678	6975
477.756	7704
477.834	7165
477.911	7825
477.989	6920
478.066	6733
478.144	7341
478.222	6747
478.299	8175
478.377	7498
478.454	7161
478.532	7698
478.609	7224
478.687	7389
478.764	7201
478.842	7292
478.919	6944
478.997	7099
479.074	7394
479.152	6840
479.229	6900
479.307	6498
479.384	6429
479.461	7267
479.539	7733
479.616	6458
479.694	7221
479.771	7456
479.848	6229
479.926	6587
480.003	8233
480.080	7137
480.157	6843
480.235	7203
480.312	7283
480.389	7512
480.467	7536
480.544	8382
480.621	8760
480.698	8910
480.775	8573
480.853	7900
480.930	8490
481.007	7980
481.084	7170
481.161	8129
481.238	7800
481.315	7683
481.392	7851
481.470	8345
481.547	8728
481.624	6544
481.701	7636
481.778	8114
481.855	7727
481.932	9320
482.009	10071
482.086	10905
482.163	12310
482.240	15167
482.317	14387
482.393	12684
482.470	11186
482.547	10604
482.624	9315
482.701	9769
482.778	8889
482.855	9757
482.932	9197
483.009	10583
483.085	12011
483.162	14327
483.239	15178
483.316	14991
483.393	16040
483.469	12602
483.546	11012
483.623	9662
483.699	8472
483.776	8286
483.853	8059
483.930	8552
484.006	8121
484.083	10270
484.160	9582
484.236	11083
484.313	9890
484.389	10443
484.466	13258
484.543	15558
484.619	20101
484.696	23046
484.772	14361
484.849	11648
484.925	8870
485.002	9810
485.078	9220
485.155	8132
485.231	7928
485.308	7122
485.384	7559
485.461	7778
485.537	6736
485.614	8684
485.690	6972
485.766	8181
485.843	6965
485.919	6786
485.995	7505
486.072	8085
486.148	6494
486.224	7860
486.301	7669
486.377	7838
486.453	6504
486.530	8147
486.606	8431
486.682	8801
486.758	8781
486.835	8598
486.911	8177
486.987	10584
487.063	11768
487.139	12940
487.215	15147
487.292	18589
487.368	20469
487.444	26947
487.520	37386
487.596	56154
487.672	142111
487.748	447468
487.824	622867
487.900	171801
487.976	47231
488.052	26788
488.128	19981
488.204	14230
488.280	13180
488.356	11641
488.432	11583
488.508	11135
488.584	9829
488.660	9647
488.736	8825
488.812	7821
488.888	9454
488.964	8347
489.039	9298
489.115	9944
489.191	8912
489.267	8019
489.343	7719
489.418	7998
489.494	7394
489.570	6204
489.646	8306
489.722	8113
489.797	8195
489.873	8459
489.949	8905
490.024	8760
490.100	8674
490.176	7541
490.251	7823
490.327	8628
490.403	7711
490.478	8830
490.554	7810
490.629	8174
490.705	7644
490.781	7798
490.856	7368
490.932	7615
491.007	7712
491.083	7402
491.158	6514
491.234	7599
491.309	7927
491.385	6849
491.460	6150
491.536	7857
491.611	6525
491.686	7925
491.762	6826
491.837	7016
491.913	8878
491.988	8810
492.063	8679
492.139	7907
492.214	7063
492.289	7815
492.365	6179
492.440	7752
492.515	7009
492.590	6983
492.666	6157
492.741	7012
492.816	7030
492.891	6333
492.967	7864
493.042	6631
493.117	6640
493.192	7728
493.267	8885
493.342	12381
493.418	14254
493.493	7611
493.568	6804
493.643	7224
493.718	6904
493.793	6971
493.868	7136
493.943	7878
494.018	6823
494.093	7407
494.168	7827
494.243	7208
494.318	8128
494.393	8369
494.468	7020
494.543	7434
494.618	7803
494.693	7175
494.768	8098
494.842	7282
494.917	8387
494.992	7527
495.067	7319
495.142	7202
495.217	7138
495.292	7954
495.366	6684
495.441	6231
495.516	8433
495.591	8174
495.665	10649
495.740	12759
495.815	9046
495.890	8219
495.964	6976
496.039	10214
496.114	9175
496.188	10026
496.263	9299
496.338	7819
496.412	6685
496.487	8433
496.561	7513
496.636	8545
496.710	8168
496.785	7781
496.860	7290
496.934	7307
497.009	8431
497.083	7991
497.158	8028
497.232	9420
497.307	10669
497.381	11546
497.455	11259
497.530	7818
497.604	7632
497.679	8268
497.753	8149
497.827	7494
497.902	7602
497.976	9784
498.050	10086
498.125	18770
498.199	15875
498.273	9654
498.348	8884
498.422	10832
498.496	11492
498.570	13791
498.645	6753
498.719	6045
498.793	7708
498.867	8527
498.941	7963
499.016	10416
499.090	16190
499.164	10109
499.238	9849
499.312	9791
499.386	9440
499.460	9994
499.534	12733
499.609	15775
499.683	9871
499.757	6420
499.831	6612
499.905	11740
499.979	10283
500.053	7327
500.127	8115
500.201	8029
500.275	9138
500.349	8503
500.422	9188
500.496	11250
500.570	13973
500.644	19904
500.718	18340
500.792	6446
500.866	5482
500.940	6003
501.013	6268
501.087	5647
501.161	5875
501.235	3685
501.309	9020
501.382	9569
501.456	10388
501.530	5377
501.603	5312
501.677	5595
501.751	4150
501.825	6656
501.898	6414
501.972	6914
502.046	5434
502.119	3828
502.193	5507
502.266	6056
502.340	5957
502.413	6411
502.487	5779
502.561	5021
502.634	5747
502.708	5341
502.781	4825
502.855	6035
502.928	3932
503.002	5386
503.075	4234
503.149	5319
503.222	5588
503.295	5453
503.369	6208
503.442	6754
503.516	9214
503.589	11982
503.662	11347
503.736	13600
503.809	19518
503.882	23190
503.956	36384
504.029	81892
504.102	242462
504.175	317098
504.249	100181
504.322	36830
504.395	20093
504.468	14688
504.542	9810
504.615	7421
504.688	7956
504.761	5281
504.834	7889
504.907	6043
504.980	5682
505.053	4584
505.127	3738
505.200	7456
505.273	4578
505.346	4852
505.419	4193
505.492	5619
505.565	4561
505.638	4908
505.711	3515
505.784	3454
505.857	3338
505.930	5534
506.003	2716
506.076	6309
506.149	3711
506.221	2222
506.294	5731
506.367	3067
506.440	5863
506.513	4727
506.586	4014
506.659	3481
506.731	3864
506.804	3534
506.877	2213
506.950	3482
507.022	4638
507.095	2315
507.168	4732
507.241	4347
507.313	3595
507.386	2189
507.459	4571
507.531	2595
507.604	2751
507.677	4307
507.749	2042
507.822	4802
507.894	3733
507.967	4848
508.040	2888
508.112	4764
508.185	4526
508.257	2250
508.330	4882
508.402	3052
508.475	3255
508.547	3956
508.620	3287
508.692	3376
508.765	4493
508.837	2815
508.909	3253
508.982	3637
509.054	3761
509.127	3302
509.199	4125
509.271	2098
509.344	2880
509.416	4511
509.488	3031
509.560	3736
509.633	2133
509.705	4081
509.777	3681
509.849	4040
509.922	1849
509.994	2962
510.066	4154
510.138	1602
510.210	5400
510.283	3033
510.355	3714
510.427	4298
510.499	3508
510.571	3142
510.643	2943
510.715	4719
510.787	1089
510.859	5395
510.931	3271
511.003	4444
511.076	4880
511.148	3006
511.219	2695
511.291	3730
511.363	4210
511.435	3981
511.507	2505
511.579	4437
511.651	4117
511.723	4145
511.795	3467
511.867	2349
511.939	3695
512.010	3010
512.082	4080
512.154	1752
512.226	3212
512.298	5173
512.369	3726
512.441	4324
512.513	3931
512.585	2483
512.656	4226
512.728	3065
512.800	2594
512.871	4332
512.943	3769
513.015	2612
513.086	3782
513.158	3921
513.230	2397
513.301	3180
513.373	4001
513.444	3570
513.516	3533
513.588	3827
513.659	4462
513.731	3427
513.802	2321
513.874	5835
513.945	4109
514.016	3508
514.088	4171
514.159	3011
514.231	4635
514.302	4028
514.374	4740
514.445	2638
514.516	5985
514.588	3072
514.659	4019
514.730	4114
514.802	4796
514.873	1730
514.944	7857
515.016	4739
515.087	3602
515.158	3558
515.229	6351
515.301	3494
515.372	4927
515.443	3807
515.514	4273
515.585	3425
515.656	5385
515.728	5276
515.799	3916
515.870	5669
515.941	6138
516.012	5283
516.083	8622
516.154	8164
516.225	11520
516.296	14221
516.367	14479
516.438	18255
516.509	24544
516.580	43771
516.651	173281
516.722	508743
516.793	131573
516.864	33006
516.935	31838
517.006	39058
517.077	53202
517.148	140140
517.219	619531
517.289	693111
517.360	91756
517.431	30910
517.502	19025
517.573	18305
517.643	15682
517.714	15262
517.785	18804
517.856	20523
517.926	27006
517.997	33503
518.068	41778
518.138	61728
518.209	111045
518.280	415395
518.350	1101366
518.421	347949
518.492	74756
518.562	50297
518.633	52793
518.703	74504
518.774	167600
518.845	420489
518.915	321071
518.986	83465
519.056	36759
519.127	24463
519.197	19095
519.268	14581
519.338	13000
519.408	8541
519.479	8975
519.549	7429
519.620	9146
519.690	6966
519.760	6495
519.831	5167
519.901	5170
519.971	5164
520.042	4848
520.112	4378
520.182	5915
520.253	4958
520.323	3640
520.393	3896
520.463	6252
520.534	1591
520.604	6877
520.674	5424
520.744	3837
520.814	4170
520.885	5544
520.955	4366
521.025	5643
521.095	4029
521.165	5582
521.235	4037
521.305	3005
521.375	4523
521.445	4587
521.515	2665
521.585	5420
521.655	1642
521.725	4416
521.795	4674
521.865	1205
521.935	6311
522.005	2793
522.075	3163
522.145	5636
522.215	1928
522.285	5035
522.355	3115
522.424	5057
522.494	4323
522.564	3996
522.634	4047
522.704	7037
522.774	3628
522.843	4911
522.913	5099
522.983	2957
523.053	3180
523.122	5516
523.192	3947
523.262	4902
523.331	3526
523.401	4672
523.471	3817
523.540	4164
523.610	4370
523.680	4262
523.749	4963
523.819	5245
523.888	4153
523.958	4514
524.027	4896
524.097	4334
524.166	4684
524.236	3183
524.305	6574
524.375	4121
524.444	3552
524.514	6828
524.583	3859
524.653	4082
524.722	5684
524.791	3799
524.861	6848
524.930	3762
524.999	3779
525.069	6245
525.138	5898
525.207	5212
525.277	6811
525.346	7130
525.415	9269
525.484	9148
525.554	10115
525.623	14486
525.692	17690
525.761	22080
525.830	28462
525.900	35614
525.969	63571
526.038	121061
526.107	272518
526.176	691609
526.245	431916
526.314	140417
526.383	370986
526.452	410281
526.522	649438
526.591	441560
526.660	75590
526.729	51284
526.797	58026
526.867	88841
526.935	270893
527.004	900350
527.073	420991
527.142	61660
527.211	29308
527.280	20008
527.349	15500
527.418	10227
527.487	11065
527.555	7918
527.624	7200
527.693	6205
527.762	8059
527.831	6142
527.899	7069
527.968	5892
528.037	3793
528.106	6037
528.174	5447
528.243	6235
528.312	6380
528.380	5026
528.449	4591
528.518	6213
528.586	2986
528.655	5664
528.723	5340
528.792	4660
528.861	3512
528.929	3412
528.998	4937
529.066	4917
529.135	5763
529.203	5267
529.272	4613
529.340	6925
529.409	7836
529.477	5158
529.545	4461
529.614	8239
529.682	5603
529.751	6965
529.819	9107
529.887	7426
529.956	6442
530.024	7344
530.092	5648
530.161	8468
530.229	6743
530.297	6499
530.365	8910
530.434	7791
530.502	6905
530.570	6972
530.638	5589
530.707	6819
530.775	7880
530.843	6721
530.911	7319
530.979	6820
531.047	7280
531.115	7142
531.183	6475
531.252	6487
531.320	6516
531.388	6238
531.456	7507
531.524	6460
531.592	8926
531.660	9497
531.728	6737
531.796	7028
531.864	7720
531.932	7741
532.000	7214
532.067	7481
532.135	8708
532.203	9407
532.271	9418
532.339	10269
532.407	10330
532.475	9447
532.542	9183
532.610	9806
532.678	8205
532.746	12306
532.814	13682
532.881	9822
532.949	10042
533.017	9237
533.084	8830
533.152	8225
533.220	8329
533.287	8111
533.355	9289
533.423	9553
533.490	9108
533.558	8888
533.625	9185
533.693	8892
533.761	8921
533.828	9494
533.896	7659
533.963	10270
534.031	10470
534.098	12875
534.166	14278
534.233	12866
534.300	16568
534.368	15986
534.435	14684
534.503	16762
534.570	18006
534.637	20710
534.705	24704
534.772	32156
534.840	69614
534.907	315143
534.974	277859
535.041	32576
535.109	18600
535.176	14883
535.243	14621
535.310	13968
535.378	12997
535.445	12082
535.512	12736
535.579	13261
535.646	12384
535.714	12975
535.781	13095
535.848	13195
535.915	13950
535.982	12095
536.049	13268
536.116	13405
536.183	12252
536.250	10729
536.317	11818
536.384	12686
536.451	12967
536.518	13315
536.585	10731
536.652	14575
536.719	13795
536.786	11535
536.853	11580
536.920	14240
536.987	12258
537.053	11395
537.120	15432
537.187	15918
537.254	14238
537.321	14508
537.388	15611
537.454	13347
537.521	12387
537.588	13836
537.654	13115
537.721	14514
537.788	14503
537.855	13895
537.921	14474
537.988	12606
538.055	13213
538.121	11103
538.188	11742
538.254	11681
538.321	11569
538.388	14206
538.454	15025
538.521	15922
538.587	15024
538.654	13531
538.720	14935
538.787	14657
538.853	14055
538.920	12150
538.986	12013
539.053	12460
539.119	12864
539.185	11776
539.252	14375
539.318	13621
539.385	17290
539.451	12678
539.517	13926
539.583	13226
539.650	14170
539.716	13545
539.782	13054
539.849	12501
539.915	14174
539.981	12550
540.047	12796
540.114	13059
540.180	14527
540.246	13158
540.312	15042
540.378	15426
540.444	15418
540.510	15720
540.576	14412
540.643	12906
540.709	11909
540.775	12402
540.841	12280
540.907	12604
540.973	13113
541.039	13173
541.105	13808
541.171	14514
541.237	13362
541.303	14866
541.369	16147
541.435	14429
541.500	13921
541.566	11236
541.632	12037
541.698	12987
541.764	15349
541.830	12546
541.896	12526
541.961	14273
542.027	13404
542.093	14847
542.159	14795
542.224	11947
542.290	14070
542.356	12490
542.421	13441
542.487	12614
542.553	11252
542.618	12208
542.684	12849
542.750	12749
542.815	14149
542.881	13476
542.947	15391
543.012	15656
543.078	12334
543.143	11589
543.209	12913
543.274	11384
543.340	13339
543.405	13869
543.471	13734
543.536	13750
543.602	15052
543.667	11870
543.732	14901
543.798	13418
543.863	14084
543.928	13853
543.994	13838
544.059	13998
544.124	15587
544.190	14058
544.255	15091
544.320	14820
544.386	14628
544.451	15732
544.516	13828
544.581	15273
544.646	15723
544.712	16023
544.777	16094
544.842	16133
544.907	15848
544.972	15752
545.037	16323
545.102	17317
545.168	17605
545.233	16805
545.298	17996
545.363	16695
545.428	18480
545.493	19299
545.558	17396
545.623	17781
545.688	18023
545.753	19410
545.818	20174
545.883	21386
545.947	21128
546.012	22042
546.077	22207
546.142	24764
546.207	24519
546.272	27889
546.337	26931
546.401	28791
546.466	29936
546.531	30106
546.596	34479
546.661	34773
546.725	37541
546.790	38805
546.855	42901
546.919	46796
546.984	51781
547.049	56588
547.113	64706
547.178	71785
547.243	81427
547.307	93914
547.372	103016
547.436	103197
547.501	110121
547.565	115195
547.630	103805
547.695	101157
547.759	101803
547.823	102681
547.888	105085
547.952	109876
548.017	113192
548.081	114210
548.146	112747
548.210	117901
548.274	127414
548.339	122578
548.403	111086
548.468	105068
548.532	106232
548.596	106929
548.660	108981
548.725	119563
548.789	127293
548.853	121323
548.917	118113
548.982	111348
549.046	101774
549.110	92095
549.174	98850
549.238	114659
549.303	123032
549.367	126706
549.431	117351
549.495	112120
549.559	115977
549.623	134520
549.687	142160
549.751	139536
549.815	170757
549.879	167565
549.943	162536
550.007	170408
550.071	164659
550.135	147064
550.199	141066
550.263	139005
550.327	131518
550.391	136858
550.455	151579
550.519	158697
550.582	169736
550.646	191854
550.710	189271
550.774	189085
550.838	193412
550.901	198187
550.965	209657
551.029	216776
551.093	232868
551.156	255438
551.220	289533
551.284	304954
551.347	232222
551.411	202662
551.475	194992
551.538	202729
551.602	185884
551.666	178705
551.729	167562
551.793	164617
551.856	161976
551.920	159916
551.983	158804
552.047	157894
552.110	157384
552.174	160206
552.237	162776
552.301	149723
552.364	145056
552.428	141577
552.491	147785
552.554	147994
552.618	150195
552.681	153645
552.745	150856
552.808	176830
552.871	192520
552.934	163714
552.998	150328
553.061	145402
553.124	140221
553.187	137708
553.251	142265
553.314	141859
553.377	143019
553.440	153611
553.503	157944
553.567	156519
553.630	153390
553.693	152228
553.756	152782
553.819	148352
553.882	143658
553.945	145143
554.008	145298
554.071	148399
554.134	148190
554.197	137308
554.260	136917
554.323	139699
554.386	140420
554.449	147661
554.512	144359
554.575	139191
554.638	138945
554.701	135883
554.764	135215
554.827	130925
554.889	124927
554.952	118327
555.015	117451
555.078	119929
555.141	122713
555.203	116683
555.266	118042
555.329	116882
555.391	111776
555.454	109684
555.517	105257
555.580	102743
555.642	98508
555.705	98422
555.768	95444
555.830	91593
555.893	87388
555.955	86384
556.018	86240
556.080	84147
556.143	88846
556.206	86001
556.268	83656
556.330	82345
556.393	79524
556.455	77339
556.518	75082
556.580	73925
556.643	70393
556.705	70302
556.767	67325
556.830	67193
556.892	66121
556.955	64612
557.017	62224
557.079	62542
557.142	60597
557.204	59770
557.266	60010
557.328	56227
557.391	51803
557.453	52312
557.515	51392
557.577	52024
557.639	53159
557.701	53152
557.764	51809
557.826	53960
557.888	55633
557.950	58116
558.012	65272
558.074	88553
558.136	200474
558.198	362191
558.260	101499
558.322	59386
558.384	60347
558.446	63484
558.508	68949
558.570	74937
558.632	87378
558.694	116109
558.756	199169
558.818	534671
558.880	863905
558.942	344860
559.003	397779
559.065	148153
559.127	76525
559.189	73644
559.251	84291
559.312	127028
559.374	303048
559.436	704513
559.498	270040
559.559	82998
559.621	73470
559.683	89087
559.744	151022
559.806	444340
559.868	467601
559.929	103205
559.991	86950
560.052	155315
560.114	377512
560.176	186040
560.237	241738
560.299	286870
560.360	54040
560.422	29927
560.483	26477
560.545	25266
560.606	24882
560.667	23012
560.729	21798
560.790	20719
560.852	19874
560.913	18887
560.974	18815
561.036	19174
561.097	19688
561.158	18801
561.220	18618
561.281	18076
561.342	16212
561.403	16937
561.465	16141
561.526	17099
561.587	18213
561.648	14731
561.709	16102
561.771	16288
561.832	15017
561.893	15059
561.954	14985
562.015	14752
562.076	14178
562.137	13590
562.198	14416
562.259	13532
562.320	13878
562.381	14029
562.442	14209
562.503	13525
562.564	14226
562.625	13331
562.686	13535
562.747	12994
562.808	12429
562.869	12884
562.930	13482
562.991	11189
563.051	12485
563.112	11510
563.173	11604
563.234	11854
563.294	11651
563.355	10690
563.416	11167
563.477	11996
563.537	10410
563.598	10909
563.659	11800
563.720	10232
563.780	11065
563.841	10564
563.901	11769
563.962	12243
564.023	11214
564.083	10545
564.144	10634
564.204	10238
564.265	10958
564.325	10239
564.386	9987
564.446	10209
564.507	10717
564.567	9574
564.628	10233
564.688	9975
564.749	9601
564.809	9766
564.869	9566
564.930	9675
564.990	10594
565.050	8827
565.111	10372
565.171	9335
565.231	9655
565.292	9959
565.352	9886
565.412	9839
565.472	9855
565.532	9793
565.593	10213
565.653	9814
565.713	9433
565.773	9794
565.833	9844
565.893	10728
565.953	9664
566.013	8711
566.074	8749
566.134	10224
566.194	8281
566.254	8637
566.314	8786
566.374	8476
566.434	8331
566.494	9090
566.554	8568
566.614	9526
566.673	9573
566.733	9899
566.793	9946
566.853	9126
566.913	9316
566.973	9134
567.033	9448
567.092	9530
567.152	9440
567.212	10050
567.272	10634
567.331	9482
567.391	9507
567.451	10719
567.511	10570
567.570	10303
567.630	9942
567.690	10490
567.749	9806
567.809	9669
567.868	10726
567.928	9378
567.988	10425
568.047	9262
568.107	10306
568.166	9706
568.226	10361
568.285	11329
568.345	10426
568.404	10953
568.464	10502
568.523	9923
568.582	9872
568.642	10081
568.701	9759
568.761	10332
568.820	10490
568.879	9515
568.939	10459
568.998	10279
569.057	9329
569.116	9542
569.176	10182
569.235	9899
569.294	9990
569.353	7895
569.413	8878
569.472	9062
569.531	9209
569.590	8860
569.649	9442
569.708	9015
569.767	9211
569.827	8876
569.886	8137
569.945	9240
570.004	10292
570.063	9653
570.122	9395
570.181	9453
570.240	9981
570.299	10374
570.358	10180
570.417	10566
570.475	9627
570.534	10383
570.593	9992
570.652	10518
570.711	9921
570.770	9671
570.829	10176
570.887	9331
570.946	11416
571.005	10855
571.064	11281
571.122	12325
571.181	10178
571.240	9054
571.299	9006
571.357	9585
571.416	8743
571.475	8878
571.533	9418
571.592	10658
571.650	10477
571.709	10340
571.768	12641
571.826	12586
571.885	11442
571.943	9832
572.002	10162
572.060	9676
572.119	9570
572.177	10041
572.236	9329
572.294	10182
572.352	11574
572.411	10064
572.469	9695
572.528	9242
572.586	9607
572.644	9312
572.703	9671
572.761	8223
572.819	8703
572.877	8114
572.936	7915
572.994	8805
573.052	7551
573.110	9744
573.169	9120
573.227	9124
573.285	9508
573.343	9133
573.401	9010
573.459	9194
573.517	9021
573.576	10045
573.634	9563
573.692	9326
573.750	9861
573.808	8761
573.866	8673
573.924	8866
573.982	8557
574.040	7797
574.098	8653
574.155	8688
574.213	8734
574.271	8373
574.329	9597
574.387	8582
574.445	7791
574.503	8108
574.560	7238
574.618	7014
574.676	7026
574.734	7399
574.792	7692
574.849	7198
574.907	6971
574.965	6312
575.022	6580
575.080	5795
575.138	6103
575.195	5518
575.253	5416
575.311	6389
575.368	5787
575.426	5738
575.483	6145
575.541	6521
575.598	5613
575.656	6467
575.713	7788
575.771	7784
575.828	6076
575.886	6380
575.943	6014
576.001	4708
576.058	5262
576.115	5731
576.173	5076
576.230	5809
576.287	7272
576.345	6347
576.402	6917
576.459	7071
576.517	5405
576.574	6145
576.631	5515
576.688	5201
576.746	5398
576.803	5635
576.860	5623
576.917	6201
576.974	5717
577.031	5842
577.089	5099
577.146	5413
577.203	5942
577.260	6603
577.317	6108
577.374	5116
577.431	4572
577.488	4892
577.545	4629
577.602	5484
577.659	5732
577.716	5560
577.773	5532
577.830	5429
577.886	5732
577.943	5181
578.000	4531
578.057	4573
578.114	6432
578.171	5306
578.227	4810
578.284	4698
578.341	5398
578.398	5145
578.454	5434
578.511	5163
578.568	6197
578.625	4917
578.681	5063
578.738	5593
578.794	5575
578.851	4771
578.908	4568
578.964	4340
579.021	5932
579.077	5422
579.134	5888
579.190	5162
579.247	6008
579.303	4866
579.360	5881
579.416	5454
579.473	5841
579.529	4183
579.586	4764
579.642	6080
579.698	4632
579.755	5856
579.811	4948
579.867	6030
579.924	5130
579.980	4463
580.036	5208
580.093	5703
580.149	5531
580.205	5528
580.261	6285
580.317	7231
580.374	5836
580.430	6807
580.486	5892
580.542	5861
580.598	5695
580.619	5851
580.654	6128
580.692	6037
580.710	6005
580.765	6300
580.767	6318
580.823	6898
580.838	6975
580.879	7197
580.911	6648
580.935	6272
580.984	5961
580.991	5928
581.047	7320
581.057	7317
581.103	7345
581.130	6849
581.159	6331
581.203	6267
581.215	6267
581.270	6075
581.276	6076
581.326	6162
581.349	5978
581.382	5716
581.422	6150
581.438	6341
581.494	6363
581.494	6348
581.550	5345
581.567	5773
581.606	6781
581.640	6257
581.661	5905
581.713	6460
581.717	6516
581.773	6371
581.786	6147
581.829	5408
581.859	5454
581.885	5545
581.932	6185
581.940	6279
581.996	6305
582.004	6282
582.052	6325
582.077	6260
582.107	6146
582.150	5485
582.163	5297
582.219	5722
582.223	5704
582.274	5498
582.296	5520
582.330	5594
582.368	5964
582.386	6166
582.441	5900
582.441	5902
582.497	5317
582.514	5248
582.552	5379
582.587	5404
582.608	5312
582.659	5042
582.663	5027
582.719	6155
582.732	6150
582.774	6193
582.805	6285
582.830	6326
582.877	6064
582.885	6037
582.941	5724
582.950	5825
582.996	6205
583.023	5990
583.052	5931
583.095	6292
583.107	6314
583.162	6311
583.168	6252
583.218	5937
583.240	5916
583.273	5680
583.313	5289
583.328	5307
583.384	5688
583.385	5702
583.439	5514
583.458	5258
583.494	4890
583.531	4842
583.549	4909
583.603	5109
583.605	5108
583.660	4749
583.676	4967
583.715	5473
583.748	5584
583.770	5745
583.820	5763
583.825	5726
583.881	5424
583.893	5332
583.936	5404
583.965	5281
583.991	5002
584.038	5093
584.046	5142
584.101	5445
584.110	5437
584.156	5230
584.183	5177
584.211	5132
584.255	4960
584.266	4952
584.321	5924
584.328	5903
584.376	5606
584.400	5732
584.431	5918
584.472	5567
584.486	5350
584.541	5818
584.545	5782
584.596	5352
584.617	5393
584.651	5690
584.689	6359
584.706	6512
584.761	6895
584.762	6897
584.816	6874
584.834	7311
584.871	7956
584.906	7684
584.926	7546
584.978	7969
584.980	7995
585.035	9466
585.051	9882
585.090	10702
585.123	11341
585.145	11629
585.195	13159
585.200	13353
585.254	15651
585.267	16391
585.309	18443
585.340	20314
585.364	21724
585.412	24944
585.419	25490
585.473	32786
585.484	35220
585.528	46017
585.556	58980
585.583	76310
585.628	125134
585.637	137839
585.692	281725
585.700	298798
585.747	361222
585.772	274516
585.801	154162
585.845	59252
585.856	43086
585.910	23423
585.917	22077
585.965	17150
585.989	15533
586.019	13563
586.061	11395
586.074	10915
586.128	10750
586.133	10703
586.183	9669
586.205	9517
586.237	9514
586.277	9180
586.292	8897
586.346	8717
586.349	8718
586.401	8907
586.421	8824
586.455	8504
586.493	9226
586.509	9579
586.564	9422
586.565	9445
586.618	9725
586.637	10333
586.672	11906
586.709	13887
586.727	14555
586.781	14275
586.781	14242
586.835	10205
586.853	9636
586.889	9044
586.925	8565
586.944	8323
586.996	8445
586.998	8435
587.052	8622
587.068	8720
587.106	8991
587.140	8819
587.161	8586
587.212	8720
587.215	8708
587.269	8285
587.284	8455
587.323	8903
587.356	8846
587.377	8957
587.427	9660
587.431	9640
587.485	9564
587.499	9444
587.539	9499
587.571	9833
587.593	9980
587.643	10694
587.648	10709
587.702	10653
587.715	10638
587.755	10486
587.786	10277
587.810	10037
587.858	9971
587.864	9990
587.917	10154
587.930	10291
587.971	10389
588.001	10484
588.025	10432
588.073	10650
588.079	10707
588.133	10438
588.145	10650
588.187	10925
588.217	10924
588.241	10935
588.288	11165
588.295	11144
588.348	11461
588.360	11486
588.402	12122
588.431	12879
588.456	13098
588.503	13325
588.510	13317
588.564	13922
588.575	14163
588.617	15240
588.646	15989
588.671	16354
588.718	17550
588.725	17817
588.778	22275
588.789	23623
588.832	34133
588.861	44130
588.886	61670
588.932	107319
588.939	111705
588.993	133947
589.004	129088
589.047	63155
589.075	31833
589.100	23184
589.147	16522
589.154	16132
589.207	14509
589.218	14336
589.261	15092
589.290	15883
589.314	15824
589.361	16874
589.368	17439
589.421	23910
589.433	25945
589.475	42028
589.504	57200
589.528	74672
589.576	110977
589.582	108286
589.635	48155
589.647	38314
589.689	20539
589.718	12878
589.742	12211
589.790	11254
589.795	11091
589.849	10549
589.861	10454
589.902	10071
589.932	9622
589.955	9330
590.004	9522
590.009	9537
590.062	9811
590.075	9926
590.115	9736
590.146	9534
590.168	9458
590.218	9704
590.222	9625
590.275	9098
590.289	9021
590.328	10035
590.360	10816
590.381	10473
590.431	9784
590.435	9727
590.488	9469
590.503	9479
590.541	9652
590.574	9918
590.594	10013
590.645	10371
590.647	10341
590.700	10741
590.716	10979
590.753	11090
590.787	11165
590.806	11111
590.859	11359
590.859	11308
590.912	11253
590.930	11481
590.965	11846
591.001	12094
591.018	11705
591.071	10758
591.072	10809
591.124	11299
591.143	11559
591.177	11613
591.214	11793
591.230	11761
591.283	11949
591.285	12006
591.336	11605
591.356	11584
591.389	11425
591.427	11272
591.442	11109
591.495	10603
591.498	10638
591.547	10346
591.569	10346
591.600	10826
591.640	11347
591.653	11317
591.706	11702
591.711	11800
591.759	11290
591.782	11110
591.811	11556
591.853	12378
591.864	12249
591.917	11952
591.924	11977
591.969	12082
591.995	12228
592.022	12094
592.066	12093
592.075	12074
592.127	12494
592.137	12631
592.180	12519
592.208	12607
592.233	12768
592.279	13321
592.285	13200
592.338	12885
592.350	12898
592.390	12964
592.421	13190
592.443	13151
592.491	13354
592.495	13334
592.548	14300
592.562	14656
592.600	14031
592.633	13667
592.653	13492
592.704	13219
592.705	13302
592.775	13840
592.846	13962
592.916	14271
592.987	14055
593.058	14234
593.128	14406
593.199	14844
593.270	15017
593.341	15014
593.411	16456
593.482	16108
593.553	17524
593.623	17285
593.694	17889
593.764	17291
593.835	18024
593.906	17443
593.976	18238
594.047	18407
594.117	20414
594.188	19900
594.258	20722
594.329	19341
594.399	20549
594.470	21689
594.540	22352
594.611	23036
594.681	22604
594.751	21897
594.822	23224
594.892	23594
594.963	25573
595.033	24705
595.103	26123
595.174	26549
595.244	27910
595.314	28483
595.384	28728
595.455	29448
595.525	29944
595.595	31525
595.665	31358
595.736	31112
595.806	31352
595.876	32011
595.946	32218
596.016	34837
596.087	35096
596.157	34613
596.227	34446
596.297	37189
596.367	40885
596.437	41282
596.507	41107
596.577	40915
596.647	42512
596.717	45398
596.787	45606
596.857	46068
596.927	46442
596.997	45242
597.067	46838
597.137	47399
597.207	48283
597.277	47124
597.347	46770
597.417	43983
597.487	45453
597.557	45853
597.626	47010
597.696	48947
597.766	46164
597.836	44625
597.906	42495
597.975	40918
598.045	41795
598.115	44264
598.185	47647
598.254	53737
598.324	58314
598.394	58184
598.464	56281
598.533	55896
598.603	52593
598.672	49765
598.742	52458
598.812	51216
598.881	53870
598.951	52008
599.020	53390
599.090	55887
599.159	58526
599.229	52998
599.299	53468
599.368	55151
599.437	53797
599.507	49474
599.576	47527
599.646	47785
599.715	47642
599.785	45876
599.854	43907
599.924	43259
599.993	44471
600.062	45392
600.132	46398
600.201	49614
600.270	57915
600.340	59977
600.409	59718
600.478	58980
600.547	60979
600.617	52655
600.686	42467
600.755	37836
600.824	36806
600.894	35757
600.963	36518
601.032	35988
601.101	34467
601.170	31428
601.239	31609
601.308	32377
601.378	32895
601.447	31897
601.516	31942
601.585	32277
601.654	33636
601.723	33185
601.792	33034
601.861	34661
601.930	37547
601.999	36233
602.068	37539
602.137	35699
602.206	37888
602.275	38487
602.343	38128
602.412	38294
602.481	39085
602.550	39446
602.619	40351
602.688	41146
602.756	42434
602.825	42356
602.894	43816
602.963	43130
603.032	44642
603.100	44154
603.169	46198
603.238	45173
603.307	46202
603.375	46077
603.444	47069
603.513	47745
603.581	47693
603.650	48718
603.719	48356
603.787	49558
603.856	51432
603.924	51844
603.993	52955
604.061	55422
604.130	59788
604.198	59327
604.267	62143
604.335	60991
604.404	63021
604.472	64108
604.541	64625
604.609	63978
604.678	64829
604.746	65415
604.815	68057
604.883	67127
604.951	68641
605.020	70059
605.088	71365
605.156	71621
605.225	73320
605.293	74629
605.361	73929
605.429	75064
605.498	76444
605.566	76642
605.634	82605
605.702	85378
605.771	88030
605.839	88711
605.907	85281
605.975	82643
606.043	81063
606.111	81347
606.180	81386
606.248	80786
606.316	78784
606.384	78568
606.452	80109
606.520	81390
606.588	85549
606.656	85228
606.724	83894
606.792	78034
606.860	72097
606.928	66120
606.996	62942
607.064	60669
607.132	63694
607.200	67066
607.267	69365
607.335	70682
607.403	73122
607.471	69003
607.539	69153
607.607	67696
607.674	59440
607.742	60023
607.810	59026
607.878	60928
607.946	60472
608.013	63508
608.081	64664
608.149	64951
608.216	68075
608.284	71455
608.352	70726
608.419	68310
608.487	68133
608.555	66574
608.622	68783
608.690	72652
608.757	81711
608.825	81738
608.893	79869
608.960	74854
609.028	71342
609.095	73196
609.163	72104
609.230	64292
609.298	59553
609.365	62080
609.432	67336
609.500	73098
609.567	84603
609.635	97121
609.702	101214
609.769	94381
609.837	72334
609.904	63849
609.971	65353
610.039	72552
610.106	89806
610.173	157833
610.241	316356
610.308	164239
610.375	78540
610.442	67461
610.509	65623
610.577	66903
610.644	67547
610.711	69996
610.778	71812
610.845	75266
610.912	79387
610.980	83197
611.047	81804
611.114	80535
611.181	78691
611.248	78186
611.315	85100
611.382	84611
611.449	88917
611.516	89810
611.583	87392
611.650	88230
611.717	89917
611.784	91235
611.851	94258
611.918	99953
611.984	110551
612.051	147669
612.118	260389
612.185	532437
612.252	309056
612.319	127883
612.386	113988
612.452	105613
612.519	102783
612.586	99544
612.653	102311
612.719	105252
612.786	100298
612.853	93788
612.919	92266
612.986	95876
613.053	88762
613.120	82819
613.186	78680
613.253	81475
613.319	81553
613.386	82060
613.453	82151
613.519	81481
613.586	80889
613.652	83100
613.719	81242
613.785	82876
613.852	82784
613.918	83099
613.985	85863
614.051	87688
614.118	86495
614.184	81781
614.250	82933
614.317	85551
614.383	83647
614.449	85286
614.516	86187
614.582	87077
614.648	84319
614.715	83299
614.781	82001
614.847	81874
614.914	79155
614.980	78700
615.046	80236
615.112	81613
615.179	81726
615.245	84073
615.311	81679
615.377	83089
615.443	83306
615.509	86904
615.575	87971
615.642	86198
615.708	88034
615.774	91486
615.840	96095
615.906	101133
615.972	117093
616.038	161166
616.104	301982
616.170	597512
616.236	442805
616.302	168715
616.368	138979
616.434	106589
616.500	101129
616.565	112580
616.631	134883
616.697	110229
616.763	116083
616.829	166761
616.895	275930
616.961	235143
617.026	115551
617.092	90000
617.158	89667
617.224	84577
617.289	79422
617.355	76533
617.421	75184
617.487	75757
617.552	72814
617.618	72001
617.684	71980
617.749	75401
617.815	70274
617.880	68082
617.946	69027
618.012	70253
618.077	71753
618.143	68562
618.208	70648
618.274	74066
618.339	74796
618.405	61194
618.470	62735
618.536	60606
618.601	62015
618.667	56232
618.732	54965
618.798	54088
618.863	54334
618.928	52527
618.994	54234
619.059	53315
619.124	53390
619.190	53155
619.255	53438
619.320	53292
619.386	53559
619.451	52047
619.516	51594
619.581	53383
619.647	53002
619.712	52573
619.777	52433
619.842	52218
619.907	52776
619.972	53334
620.038	52760
620.103	50791
620.168	50908
620.233	54197
620.298	53477
620.363	54772
620.428	55813
620.493	56207
620.558	58246
620.623	57959
620.688	58024
620.753	57342
620.818	58287
620.883	58911
620.948	57397
621.013	58218
621.078	56896
621.143	55771
621.207	59913
621.272	56892
621.337	54724
621.402	55195
621.467	54483
621.532	54643
621.596	55189
621.661	53349
621.726	52879
621.791	53876
621.855	53135
621.920	52788
621.985	52973
622.049	55116
622.114	54746
622.179	56842
622.243	57879
622.308	57531
622.373	61942
622.437	58595
622.502	55824
622.566	56574
622.631	54212
622.695	57062
622.760	56038
622.824	56178
622.889	56160
622.953	54671
623.018	61625
623.082	59146
623.147	58235
623.211	58911
623.276	57195
623.340	55053
623.404	55574
623.469	54667
623.533	55103
623.597	53397
623.662	53656
623.726	49733
623.790	47229
623.854	45492
623.919	47570
623.983	47196
624.047	47502
624.111	47998
624.176	48809
624.240	49482
624.304	53395
624.368	49291
624.432	49922
624.496	50422
624.560	53419
624.625	53194
624.689	54426
624.753	53794
624.817	52496
624.881	49778
624.945	46907
625.009	44987
625.073	46696
625.137	46292
625.201	49595
625.265	49454
625.329	48540
625.393	48227
625.456	49017
625.520	49408
625.584	49418
625.648	52186
625.712	51664
625.776	51242
625.839	48973
625.903	40679
625.967	39779
626.031	43824
626.095	49377
626.158	44977
626.222	35315
626.286	35890
626.349	32544
626.413	29819
626.477	30725
626.540	30601
626.604	29369
626.668	31262
626.731	28923
626.795	28150
626.858	28782
626.922	28102
626.986	29008
627.049	27777
627.113	31585
627.176	29612
627.240	28146
627.303	28485
627.366	28372
627.430	27899
627.493	27257
627.557	25582
627.620	28558
627.684	28335
627.747	29408
627.810	24042
627.874	23620
627.937	22027
628.000	24737
628.064	22835
628.127	18733
628.190	20677
628.253	19881
628.317	18271
628.380	18017
628.443	16849
628.506	17272
628.569	17066
628.632	16236
628.696	16126
628.759	16187
628.822	14399
628.885	14525
628.948	14254
629.011	13928
629.074	13604
629.137	12617
629.200	12424
629.263	13864
629.326	12119
629.389	12428
629.452	12515
629.515	11323
629.578	11584
629.641	12845
629.704	11786
629.767	11725
629.830	11532
629.892	10768
629.955	10107
630.018	12692
630.081	9278
630.144	10986
630.207	10285
630.269	12154
630.332	8969
630.395	10326
630.458	9947
630.520	8888
630.583	11044
630.646	10597
630.708	10574
630.771	8879
630.834	10929
630.896	10443
630.959	10872
631.021	10359
631.084	9681
631.146	9736
631.209	10713
631.272	9875
631.334	10594
631.397	11107
631.459	9942
631.522	11938
631.584	11265
631.646	12921
631.709	12437
631.771	11896
631.834	12083
631.896	12028
631.958	9480
632.021	11387
632.083	9056
632.145	9920
632.208	9322
632.270	10204
632.332	9263
632.395	8567
632.457	9902
632.519	8867
632.581	10394
632.643	8611
632.706	10064
632.768	8319
632.830	10123
632.892	9967
632.954	9040
633.016	10368
633.078	10159
633.141	9608
633.203	9076
633.265	9496
633.327	9236
633.389	8705
633.451	9990
633.513	8381
633.575	9835
633.637	7957
633.698	9403
633.760	11420
633.822	10956
633.884	10851
633.946	11287
634.008	10630
634.070	12043
634.132	11704
634.193	13058
634.255	15766
634.317	13971
634.379	15088
634.441	12766
634.502	12145
634.564	11234
634.626	10640
634.687	9536
634.749	9404
634.811	10106
634.873	8978
634.934	9070
634.996	10522
635.057	8020
635.119	8710
635.181	9721
635.242	9733
635.304	7959
635.365	11691
635.427	8754
635.488	9034
635.550	7580
635.611	10234
635.673	7653
635.734	11841
635.796	10258
635.857	12463
635.918	11526
635.980	15047
636.041	14351
636.102	16169
636.164	16348
636.225	16505
636.286	10440
636.348	12185
636.409	10344
636.470	9325
636.531	9725
636.593	8242
636.654	8763
636.715	8993
636.776	7095
636.838	7096
636.899	9157
636.960	7983
637.021	7829
637.082	6776
637.143	8032
637.204	7059
637.265	6673
637.326	7664
637.387	7786
637.448	6540
637.509	8137
637.570	7693
637.631	8885
637.692	6048
637.753	5577
637.814	7376
637.875	7582
637.936	7361
637.997	6524
638.058	6201
638.119	7245
638.179	6900
638.240	6176
638.301	7377
638.362	4979
638.423	6438
638.483	8319
638.544	5151
638.605	6733
638.666	5933
638.726	7195
638.787	8018
638.848	6339
638.908	5758
638.969	7101
639.030	5572
639.090	5102
639.151	5458
639.211	6964
639.272	6229
639.332	6844
639.393	6984
639.453	6068
639.514	6635
639.574	6527
639.635	6289
639.695	6627
639.756	4887
639.816	6206
639.877	6369
639.937	5969
639.997	7061
640.058	4544
640.118	5316
640.178	6642
640.239	6460
640.299	5319
640.359	5298
640.420	5882
640.480	7650
640.540	7638
640.600	7460
640.661	7320
640.721	5883
640.781	6711
640.841	4690
640.901	5505
640.961	6824
641.021	6940
641.082	5437
641.142	5201
641.202	7041
641.262	4158
641.322	5970
641.382	4223
641.442	6414
641.502	5463
641.562	5871
641.622	5199
641.682	6059
641.742	6936
641.802	6982
641.861	6444
641.921	4639
641.981	5840
642.041	4334
642.101	4127
642.161	3545
642.221	4800
642.280	5934
642.340	4188
642.400	4001
642.460	6113
642.519	5364
642.579	4823
642.639	5764
642.698	2922
642.758	6931
642.818	5479
642.877	4085
642.937	5095
642.997	5031
643.056	4633
643.116	4114
643.175	6495
643.235	5648
643.294	5516
643.354	5947
643.414	6754
643.473	8334
643.532	8430
643.592	11634
643.651	20927
643.711	37610
643.770	73737
643.830	179899
643.889	310146
643.948	67740
644.008	17306
644.067	10503
644.126	6569
644.186	6868
644.245	6538
644.304	3943
644.363	7538
644.423	3508
644.482	5174
644.541	5798
644.600	3670
644.659	8625
644.719	8710
644.778	14509
644.837	25867
644.896	58237
644.955	117385
645.014	30769
645.073	8843
645.132	5797
645.191	6334
645.250	5460
645.309	7227
645.368	7308
645.427	10433
645.486	17349
645.545	27649
645.604	7979
645.663	6320
645.722	5467
645.781	5855
645.840	6445
645.898	7784
645.957	12646
646.016	17222
646.075	35240
646.134	69120
646.192	192488
646.251	221860
646.310	33621
646.369	12164
646.427	10151
646.486	6471
646.545	5640
646.603	4860
646.662	5949
646.721	5733
646.779	3971
646.838	4677
646.896	6737
646.955	8181
647.014	15567
647.072	32584
647.131	84378
647.189	29503
647.248	5624
647.306	5225
647.365	5059
647.423	2510
647.481	4781
647.540	2780
647.598	3410
647.657	2968
647.715	4054
647.773	2980
647.832	4093
647.890	1693
647.948	2681
648.007	2643
648.065	2408
648.123	2098
648.181	3541
648.240	2146
648.298	2011
648.356	2285
648.414	2688
648.472	2266
648.531	2805
648.589	1737
648.647	2229
648.705	2280
648.763	2621
648.821	2721
648.879	1893
648.937	2437
648.995	4087
649.053	4778
649.111	8950
649.169	15325
649.227	28986
649.285	64976
649.343	173278
649.401	60941
649.459	9545
649.516	4704
649.574	2486
649.632	4680
649.690	4891
649.748	7255
649.806	9413
649.863	20871
649.921	62098
649.979	29499
650.037	4771
650.094	1516
650.152	2792
650.210	1396
650.268	2633
650.325	1255
650.383	1552
650.440	778
650.498	1905
650.556	1262
650.613	1604
650.671	1661
650.728	724
650.786	1490
650.843	3184
650.901	289
650.958	2196
651.016	1311
651.073	2082
651.131	194
651.188	572
651.246	1186
651.303	69
651.360	988
651.418	814
651.475	1289
651.532	846
651.590	1383
651.647	377
651.704	977
651.762	247
651.819	1572
651.876	441
651.933	272
651.990	1573
652.048	-904
652.105	-388
652.162	877
652.219	155
652.276	1191
652.333	1340
652.390	-292
652.448	756
652.505	842
652.562	664
652.619	-248
652.676	905
652.733	300
652.790	181
652.847	-185
652.904	267
652.961	-87
653.017	177
653.074	737
653.131	513
653.188	-335
653.245	870
653.302	-69
653.359	77
653.415	282
653.472	232
653.529	349
653.586	-612
653.642	-245
653.699	1458
653.756	-990
653.813	-261
653.869	1082
653.926	630
653.983	-40
654.039	428
654.096	-576
654.152	1296
654.209	-790
654.266	697
654.322	-640
654.379	-83
654.435	984
654.492	-408
654.548	-76
654.605	-609
654.661	-78
654.717	22
654.774	294
654.830	-97
654.887	-495
654.943	-46
655.000	162
655.056	501
655.112	188
655.168	-67
655.225	117
655.281	655
655.337	-474
655.394	-63
655.450	32
655.506	276
655.562	-72
655.618	936
655.675	-1015
655.731	-1005
655.787	-1
655.843	160
655.899	-192
655.955	-3
656.011	163
656.067	-878
656.123	717
656.179	-537
656.235	1289
656.291	-901
656.347	198
656.403	-512
656.459	-134
656.515	-576
656.571	-371
656.627	-139
656.683	-379
656.739	655
656.795	-147
656.850	-627
656.906	349
656.962	806
657.018	85
657.074	88
657.129	1247
657.185	3569
657.241	8651
657.297	2587
657.352	180
657.408	43
657.464	235
657.519	-489
657.575	-699
657.630	-148
657.686	-1441
657.742	-631
657.797	-585
657.853	-424
657.908	-121
657.964	-187
658.019	-922
658.075	-325
658.130	154
658.186	-936
658.241	72
658.297	-1582
658.352	-491
658.407	-651
658.463	-499
658.518	157
658.573	-793
658.629	-667
658.684	-458
658.739	554
658.795	-820
658.850	-280
658.905	-856
658.960	-779
659.016	-943
659.071	-846
659.126	-366
659.181	-451
659.236	-246
659.291	705
659.346	-849
659.401	-809
659.457	-383
659.512	-589
659.567	127
659.622	76
659.677	-707
659.732	-1445
659.787	-804
659.842	131
659.897	-1347
659.952	-110
660.007	-425
660.061	-3
660.116	-1130
660.171	-1434
660.226	-633
660.281	117
660.336	-1061
660.391	91
660.445	-674
660.500	-510
660.555	278
660.610	-964
660.664	-118
660.719	-511
660.774	-844
660.828	-204
660.883	-1294
660.938	-97
660.992	-2126
661.047	-1201
661.101	-898
661.156	-711
661.211	-1708
661.265	-471
661.320	-906
661.374	400
661.429	-828
661.483	-418
661.538	-2129
661.592	-663
661.647	-593
661.701	304
661.755	-185
661.810	-1213
661.864	-1192
661.919	-1418
661.973	-792
662.027	95
662.081	-985
662.136	-278
662.190	-264
662.244	358
662.299	-917
662.353	-532
662.407	-451
662.461	-898
662.515	-921
662.569	-263
662.624	-711
662.678	-927
662.732	-583
662.786	-1288
662.840	-1075
662.894	-504
662.948	-866
663.002	275
663.056	-436
663.110	-476
663.164	-1069
663.218	-534
663.272	-169
663.326	-219
663.380	-1765
663.434	-1036
663.488	-1467
663.542	-251
663.595	-1423
663.649	-1340
663.703	-217
663.757	-377
663.811	-473
663.864	-1383
663.918	-242
663.972	-462
664.026	-414
664.079	-86
664.133	398
664.187	-317
664.240	-1078
664.294	-383
664.348	-688
664.401	215
664.455	-985
664.508	-861
664.562	-823
664.615	60
664.669	-1054
664.722	-397
664.776	-1013
664.829	-934
664.883	-526
664.936	-1055
664.990	-1169
665.043	-843
665.097	-1065
665.150	-42
665.203	-1481
665.257	-1071
665.310	-1040
665.363	-330
665.417	-394
665.470	-538
665.523	-185
665.576	-538
665.630	-422
665.683	-58
665.736	-1096
665.789	-688
665.842	-1511
665.895	-531
665.949	-279
666.002	-367
666.055	-421
666.108	-435
666.161	-247
666.214	-120
666.267	-494
666.320	-452
666.373	-646
666.426	7
666.479	-1546
666.532	-1258
666.585	-659
666.638	-87
666.691	-1455
666.744	-613
666.796	-1032
666.849	-372
666.902	-318
666.955	-565
667.008	-859
667.060	-248
667.113	-1195
667.166	-773
667.219	-1010
667.271	-703
667.324	-172
667.377	-116
667.430	-225
667.482	-726
667.535	-1194
667.587	-152
667.640	-960
667.693	-1281
667.745	-616
667.798	316
667.850	-223
667.903	51
667.955	-605
668.008	-280
668.060	-359
668.113	-616
668.165	-175
668.218	283
668.270	574
668.322	-791
668.375	-790
668.427	-211
668.479	-861
668.532	-359
668.584	-862
668.636	-191
668.689	218
668.741	12
668.793	144
668.845	-820
668.898	-418
668.950	-717
669.002	-418
669.054	-586
669.106	-1351
669.158	-92
669.211	-1008
669.263	-404
669.315	61
669.367	-797
669.419	-1610
669.471	-191
669.523	-1215
669.575	-166
669.627	-1696
669.679	-340
669.731	-359
669.783	-873
669.835	-747
669.886	-587
669.938	-1085
669.990	-355
670.042	-1482
670.094	-790
670.146	-1026
670.197	-575
670.249	-678
670.301	-805
670.353	-816
670.404	-412
670.456	-533
670.508	-120
670.560	642
670.611	1265
670.663	2150
670.715	10523
670.766	13687
670.818	2658
670.869	-171
670.921	242
670.972	45
671.024	-111
671.075	-400
671.127	25
671.178	-369
671.230	-56
671.281	-185
671.333	174
671.384	-338
671.436	152
671.487	1517
671.538	3719
671.590	6644
671.641	13073
671.692	27256
671.744	52281
671.795	30316
671.846	8308
671.897	2742
671.949	1111
672.000	632
672.051	-382
672.102	867
672.153	-657
672.204	-526
672.256	-317
672.307	-698
672.358	-547
672.409	-592
672.460	-542
672.511	-432
672.562	-1000
672.613	-2137
672.664	-768
672.715	-510
672.766	-455
672.817	-1127
672.868	-1278
672.919	-1375
672.970	-675
673.021	-1505
673.071	-898
673.122	-934
673.173	-1029
673.224	-1050
673.275	-958
673.326	-1176
673.376	-627
673.427	-1199
673.478	-626
673.528	-571
673.579	-453
673.630	-475
673.680	49
673.731	-1023
673.782	-1281
673.832	-754
673.883	-301
673.934	-1043
673.984	-735
674.035	-640
674.085	-185
674.136	-1447
674.186	-826
674.237	-1217
674.287	-445
674.338	-540
674.388	-1099
674.438	-915
674.489	-650
674.539	-549
674.589	109
674.640	-860
674.690	-775
674.740	-1093
674.791	-1169
674.841	-880
674.891	-1943
674.942	-361
674.992	-1287
675.042	-1062
675.092	-1312
675.142	-1039
675.193	-907
675.243	-1318
675.293	-405
675.343	-1682
675.393	-695
675.443	-1348
675.493	-1047
675.543	-856
675.593	-723
675.643	-968
675.693	-1485
675.743	-658
675.793	-747
675.843	-2150
675.893	-946
675.943	-753
675.993	-1767
676.043	-604
676.093	-1388
676.142	-1525
676.192	-212
676.242	-1790
676.292	-712
676.341	-1040
676.391	-1623
676.441	-1093
676.491	-1072
676.540	-1341
676.590	-1784
676.640	-879
676.689	-1208
676.739	-1625
676.789	-564
676.838	-1133
676.888	-648
676.937	-1607
676.987	-879
677.037	-1658
677.086	-1274
677.136	-1728
677.185	-876
677.235	-1554
677.284	-1265
677.333	-1878
677.383	-1108
677.432	-1670
677.482	-926
677.531	-685
677.580	-899
677.630	-1292
677.679	-1304
677.728	-1641
677.778	-696
677.827	-753
677.876	-1170
677.925	-1271
677.975	-1152
678.024	-775
678.073	-1575
678.122	-1110
678.171	-2220
678.220	-1447
678.269	-753
678.319	-1204
678.368	-888
678.417	-982
678.466	-1283
678.515	-1349
678.564	-1359
678.613	-2341
678.662	-1274
678.711	-1408
678.760	-1598
678.809	-1096
678.857	-1837
678.906	-985
678.955	-1046
679.004	-1303
679.053	-744
679.102	-1801
679.151	-1365
679.199	-1086
679.248	-790
679.297	-2474
679.346	-1298
679.394	-1312
679.443	-914
679.492	-1011
679.540	-1738
679.589	-1735
679.638	-948
679.686	-1588
679.735	-464
679.784	-1597
679.832	-1576
679.881	-1324
679.929	-822
679.978	-1587
680.026	-1473
680.075	-654
680.123	-1512
680.172	-1319
680.220	-1251
680.268	-1084
680.317	-1922
680.365	-1873
680.414	-1745
680.462	-1350
680.510	-287
680.559	-1887
680.607	-1939
680.655	-1315
680.703	-1190
680.752	-1560
680.800	-1002
680.848	-1421
680.896	-1335
680.945	-1272
680.993	-1216
681.041	-1675
681.089	-1068
681.137	-1702
681.185	-1910
681.233	-1018
681.258	-882
681.281	-766
681.329	-2031
681.377	-1185
681.380	-1160
681.425	-931
681.473	-975
681.502	-1147
681.521	-1294
681.569	-1431
681.617	-1228
681.624	-1186
681.665	-1037
681.713	-576
681.745	-434
681.761	-381
681.809	-1248
681.857	-504
681.867	-533
681.904	-709
681.952	-110
681.989	-649
682.000	-829
682.048	-872
682.096	-1740
682.111	-1509
682.143	-1068
682.191	-1945
682.233	674
682.239	1053
682.286	-1026
682.334	-558
682.354	-1094
682.382	-1848
682.430	-1042
682.476	-1324
682.477	-1342
682.525	-9
682.572	-829
682.598	-676
682.620	-599
682.667	-190
682.715	-39
682.720	-68
682.763	-410
682.810	-931
682.841	-927
682.857	-960
682.905	-1474
682.952	-551
682.963	-309
683.000	505
683.047	-452
683.085	454
683.095	686
683.142	335
683.190	-621
683.206	-673
683.237	-798
683.284	126
683.328	-1096
683.332	-1207
683.379	-296
683.426	-466
683.449	-202
683.473	26
683.521	-568
683.568	-275
683.571	-298
683.615	-713
683.662	502
683.693	142
683.709	-78
683.757	-226
683.804	-35
683.814	57
683.851	324
683.898	-75
683.936	145
683.945	208
683.992	-145
684.039	672
684.057	399
684.086	-107
684.133	317
684.179	133
684.180	117
684.227	869
684.274	650
684.300	517
684.321	396
684.368	-161
684.415	808
684.422	720
684.462	259
684.509	440
684.543	624
684.556	639
684.603	664
684.649	200
684.665	356
684.696	744
684.743	768
684.786	828
684.790	817
684.837	75
684.883	644
684.908	642
684.930	668
684.977	751
685.023	333
685.029	480
685.070	1477
685.117	446
685.150	1066
685.164	1310
685.210	635
685.257	1186
685.272	1046
685.303	744
685.350	1334
685.393	924
685.396	878
685.443	706
685.490	1143
685.514	1261
685.536	1368
685.583	952
685.629	1355
685.636	1227
685.675	586
685.722	1143
685.757	1200
685.768	1161
685.815	930
685.861	1243
685.878	1151
685.908	1154
685.954	828
686.000	1457
686.000	1458
686.047	1148
686.093	1611
686.121	1429
686.139	1412
686.185	1957
686.232	1723
686.242	1731
686.278	1588
686.324	1348
686.363	1792
686.370	1885
686.416	980
686.463	1706
686.484	1596
686.509	1420
686.555	1263
686.601	1246
686.606	1316
686.647	2128
686.693	1335
686.727	1887
686.739	2006
686.785	1981
686.831	1408
686.848	1493
686.877	1746
686.923	1584
686.969	1356
686.969	1354
687.015	2282
687.061	2125
687.090	2251
687.107	2310
687.153	1841
687.199	2675
687.211	2420
687.245	1617
687.291	1566
687.332	1713
687.336	1756
687.382	1774
687.428	1911
687.453	2198
687.474	2347
687.520	2279
687.565	2509
687.574	2365
687.611	1830
687.657	2232
687.695	1980
687.702	1958
687.748	2497
687.794	3064
687.816	3149
687.839	3019
687.885	1795
687.931	2390
687.937	2310
687.976	2081
688.022	2453
688.058	2250
688.067	2231
688.113	2841
688.158	2511
688.179	2433
688.204	2232
688.249	2689
688.295	2593
688.300	2616
688.340	2939
688.386	2869
688.421	2693
688.431	2620
688.477	2404
688.522	2863
688.542	2633
688.567	2501
688.613	3176
688.658	3427
688.663	3434
688.703	3143
688.749	2971
688.784	2864
688.794	2917
688.839	2601
688.884	2998
688.905	3052
688.930	2972
688.975	2894
689.020	3110
689.026	3016
689.065	2614
689.110	3193
689.146	3197
689.155	3172
689.201	3320
689.246	2746
689.267	2940
689.291	3295
689.336	3075
689.381	3352
689.388	3322
689.426	2915
689.471	3199
689.509	3169
689.516	3213
689.561	3269
689.606	3505
689.630	3441
689.651	3294
689.696	3253
689.741	3460
689.750	3382
689.785	3226
689.830	3385
689.871	3174
689.875	3156
689.920	3061
689.965	3341
689.992	3276
690.010	3277
690.054	3145
690.099	3274
690.112	3342
690.144	3406
690.189	3247
690.233	2697
690.233	2702
690.278	3149
690.323	3386
690.354	3482
690.367	3537
690.412	3786
690.457	3424
690.474	3514
690.501	3537
690.546	3495
690.590	3616
690.595	3544
690.635	3157
690.680	3298
690.716	3513
690.724	3573
690.769	3388
690.813	3720
690.836	3539
690.857	3447
690.902	3784
690.946	3835
690.957	3850
690.991	4119
691.035	4771
691.077	5255
691.080	5245
691.124	4699
691.168	4258
691.198	3804
691.213	3787
691.257	3846
691.301	3916
691.318	3981
691.346	3954
691.390	3407
691.434	3525
691.439	3495
691.478	3511
691.522	3983
691.559	3828
691.567	3864
691.611	4341
691.655	4567
691.680	4712
691.699	4563
691.743	4709
691.787	4045
691.800	3936
691.831	3849
691.875	3737
691.919	3588
691.921	3588
691.964	4149
692.008	3890
692.041	4023
692.052	4048
692.096	4023
692.139	4395
692.162	4271
692.183	4150
692.227	4465
692.271	4197
692.282	4238
692.315	4332
692.359	3821
692.402	4120
692.403	4135
692.447	3836
692.490	4159
692.523	4119
692.534	4109
692.578	4518
692.622	4451
692.643	4465
692.666	4506
692.709	4600
692.753	4261
692.763	4279
692.797	4353
692.840	4427
692.884	4412
692.884	4424
692.928	4514
692.971	4330
693.004	4134
693.015	4187
693.059	4219
693.102	4451
693.124	4667
693.146	4739
693.189	4558
693.233	4406
693.245	4423
693.276	4498
693.320	4178
693.363	4243
693.365	4202
693.407	3939
693.450	4807
693.485	5018
693.493	5001
693.537	5124
693.580	4698
693.605	4853
693.624	5055
693.667	5219
693.710	5280
693.725	5261
693.753	5622
693.797	6339
693.840	6903
693.845	6959
693.883	6485
693.926	5759
693.966	5305
693.970	5300
694.013	5176
694.056	4808
694.086	4418
694.099	4353
694.142	4534
694.185	4512
694.206	4593
694.229	4796
694.272	4736
694.315	4921
694.326	4923
694.358	4866
694.401	4875
694.444	4926
694.446	4905
694.487	4880
694.530	4919
694.566	4932
694.573	5005
694.616	5253
694.659	5652
694.686	5902
694.702	5854
694.745	5759
694.787	5264
694.806	5243
694.830	5367
694.873	5260
694.916	5026
694.926	5000
694.959	5259
695.002	5658
695.044	5955
695.046	5951
695.087	6207
695.130	6418
695.166	6610
695.172	6620
695.215	6452
695.258	6359
695.286	6249
695.301	6375
695.343	6667
695.386	6948
695.406	7117
695.428	7191
695.471	7322
695.514	7336
695.526	7330
695.556	7845
695.599	8790
695.641	9235
695.646	9287
695.684	8970
695.726	8462
695.766	8185
695.769	8205
695.811	7861
695.854	7697
695.886	7584
695.896	7627
695.938	7571
695.981	7615
696.005	7639
696.023	7932
696.065	8356
696.108	8925
696.125	9209
696.150	9542
696.192	9910
696.235	10217
696.245	10304
696.277	10264
696.319	9984
696.361	9818
696.365	9768
696.404	9685
696.446	9716
696.485	9618
696.488	9652
696.530	9730
696.572	9754
696.604	9906
696.614	9887
696.656	9374
696.698	9203
696.724	8917
696.740	9093
696.783	9606
696.825	10065
696.844	10271
696.867	10134
696.909	9684
696.951	9320
696.964	9211
696.992	9684
697.034	10147
697.076	10730
697.083	10804
697.118	11052
697.160	11173
697.202	11379
697.203	11350
697.244	11316
697.286	11340
697.323	11153
697.327	11154
697.369	11029
697.411	10789
697.442	10622
697.453	10649
697.494	10650
697.536	10589
697.562	10563
697.578	10544
697.620	10249
697.661	10145
697.682	10011
697.703	10328
697.744	10984
697.786	11604
697.801	11773
697.828	11958
697.869	12222
697.911	12435
697.921	12486
697.952	12345
697.994	11957
698.035	11674
698.040	11603
698.077	11894
698.118	12142
698.160	12415
698.160	12379
698.201	12649
698.243	12796
698.279	13013
698.284	13097
698.325	13431
698.367	13830
698.399	14042
698.408	14175
698.449	14634
698.491	15072
698.518	15353
698.532	15305
698.573	15003
698.614	14679
698.638	14461
698.656	14484
698.697	14443
698.738	14403
698.757	14335
698.779	14291
698.820	14140
698.862	13987
698.877	13891
698.903	14166
698.944	14544
698.985	14915
698.996	14977
699.026	14946
699.067	14842
699.116	14677
699.235	14554
699.354	13730
699.474	12384
699.593	13424
699.713	13636
699.832	13803
699.951	14905
700.070	13688
700.190	12361
700.309	11754
700.428	12161
700.547	11665
700.667	11639
700.786	11202
700.905	12085
701.024	12236
701.143	11524
701.262	11936
701.381	12099
701.500	12512
701.619	12447
701.738	11920
701.857	12280
701.976	10842
702.095	11064
702.214	12017
702.333	11545
702.452	11658
702.571	12796
702.690	10609
702.809	11375
702.928	10896
703.047	10786
703.165	10845
703.284	11272
703.403	9838
703.522	10143
703.640	10104
703.759	10209
703.878	10202
703.997	9078
704.115	10087
704.234	10204
704.353	9770
704.471	9011
704.590	9228
704.708	9183
704.827	8586
704.946	9140
705.064	9735
705.183	8782
705.301	8617
705.420	8402
705.538	8453
705.656	8608
705.775	7229
705.893	8547
706.012	7699
706.130	8301
706.249	9305
706.367	8014
706.485	7350
706.604	7709
706.722	7687
706.840	8743
706.958	8417
707.077	7811
707.195	7275
707.313	7572
707.431	7144
707.549	7757
707.668	6331
707.786	8113
707.904	6868
708.022	7706
708.140	6710
708.258	6312
708.376	8140
708.494	7097
708.612	7332
708.730	7947
708.848	7237
708.966	7006
709.084	7594
709.202	7171
709.320	5840
709.438	5868
709.556	6189
709.674	5575
709.791	5855
709.909	6380
710.027	5228
710.145	6985
710.263	6102
710.380	6654
710.498	5692
710.616	6812
710.733	5042
710.851	6013
710.969	6371
711.086	6326
711.204	6451
711.322	6192
711.439	5473
711.557	5683
711.674	5394
711.792	5859
711.909	5291
712.027	5935
712.144	5019
712.262	6174
712.379	5282
712.497	5268
712.614	5154
712.732	5883
712.849	4577
712.966	5517
713.084	5486
713.201	4647
713.318	5255
713.436	6028
713.553	4298
713.670	6021
713.787	5337
713.905	6166
714.022	5384
714.139	6301
714.256	6741
714.373	11495
714.490	21695
714.608	63680
714.725	245671
714.842	195292
714.959	19856
715.076	9116
715.193	7051
715.310	6714
715.427	4126
715.544	6088
715.661	4148
715.778	4333
715.895	4549
716.011	5453
716.128	5110
716.245	5425
716.362	4452
716.479	3487
716.596	3884
716.713	4453
716.829	3848
716.946	3888
717.063	4289
717.180	3540
717.296	3861
717.413	3114
717.530	3379
717.646	4282
717.763	4090
717.880	3677
717.996	2969
718.113	3564
718.229	3081
718.346	3658
718.462	2670
718.579	4362
718.695	3414
718.812	3633
718.928	3984
719.045	3144
719.161	3862
719.277	3432
719.394	4356
719.510	3695
719.626	3403
719.743	5591
719.859	9734
719.975	20842
720.092	88524
720.208	167470
720.324	17041
720.440	5723
720.557	4028
720.673	3959
720.789	3589
720.905	3506
721.021	3421
721.137	3234
721.253	2537
721.369	2816
721.486	2859
721.602	3185
721.718	3370
721.834	3529
721.950	2041
722.066	3140
722.181	2832
722.297	3272
722.413	2168
722.529	3676
722.645	3044
722.761	3245
722.877	2970
722.993	3994
723.108	4393
723.224	3179
723.340	2627
723.456	2835
723.571	2619
723.687	2372
723.803	2804
723.918	3352
724.034	2104
724.150	2771
724.265	1713
724.381	1585
724.497	1891
724.612	2579
724.728	1866
724.843	1792
724.959	2105
725.074	2691
725.190	1795
725.305	1810
725.421	2633
725.536	2443
725.651	2177
725.767	2556
725.882	2304
725.997	3307
726.113	2149
726.228	1702
726.343	2074
726.459	2682
726.574	1659
726.689	2876
726.804	2422
726.920	2340
727.035	2049
727.150	2977
727.265	1802
727.380	1916
727.495	2339
727.610	1230
727.725	1744
727.841	2616
727.956	2227
728.071	2945
728.186	1444
728.301	1914
728.416	1934
728.531	2515
728.645	1620
728.760	2417
728.875	1674
728.990	2874
729.105	1270
729.220	1867
729.335	2101
729.449	1694
729.564	1820
729.679	2314
729.794	1745
729.908	1834
730.023	2015
730.138	2273
730.253	2315
730.367	1962
730.482	1932
730.596	2420
730.711	2371
730.826	4810
730.940	3484
731.055	3794
731.169	2583
731.284	2482
731.398	2792
731.513	3331
731.627	3762
731.742	5306
731.856	5888
731.970	5781
732.085	7588
732.199	11790
732.313	20192
732.428	55983
732.542	160174
732.656	79621
732.771	15290
732.885	9676
732.999	8494
733.113	9084
733.227	9360
733.342	8645
733.456	8889
733.570	7786
733.684	7256
733.798	6983
733.912	7113
734.026	7089
734.140	7595
734.254	7267
734.368	7834
734.482	7260
734.596	7211
734.710	6953
734.824	6464
734.938	6264
735.052	6669
735.166	7030
735.280	6256
735.393	5639
735.507	6124
735.621	6397
735.735	4875
735.849	6574
735.962	6484
736.076	5865
736.190	6136
736.303	6459
736.417	5892
736.531	5866
736.644	5177
736.758	5127
736.872	5218
736.985	5676
737.099	5769
737.212	5320
737.326	5559
737.439	5890
737.553	4469
737.666	5709
737.780	4517
737.893	5583
738.007	4569
738.120	5706
738.233	4107
738.347	5665
738.460	4610
738.573	5721
738.687	3847
738.800	4872
738.913	5188
739.026	5287
739.140	3999
739.253	3996
739.366	4941
739.479	4648
739.592	4403
739.705	4233
739.818	4482
739.932	4192
740.045	4884
740.158	4853
740.271	4470
740.384	4267
740.497	3457
740.610	4150
740.723	3555
740.836	4411
740.949	5033
741.062	4235
741.174	4049
741.287	4301
741.400	4288
741.513	3545
741.626	3284
741.739	4247
741.851	4235
741.964	4740
742.077	3266
742.189	3213
742.302	4131
742.415	4122
742.527	3144
742.640	3538
742.753	2883
742.865	3582
742.978	3709
743.090	3605
743.203	4097
743.316	3617
743.428	2900
743.541	3555
743.653	3481
743.766	3039
743.878	3104
743.990	2593
744.103	3866
744.215	3324
744.327	1937
744.440	3767
744.552	2730
744.664	3197
744.777	3352
744.889	2795
745.001	3612
745.113	2954
745.226	2722
745.338	2907
745.450	4086
745.562	3407
745.674	2006
745.786	3969
745.898	2656
746.010	2529
746.122	2899
746.234	2896
746.347	3114
746.459	3097
746.570	2442
746.682	3339
746.794	3251
746.906	3002
747.018	2471
747.130	3391
747.242	1338
747.354	2720
747.466	2208
747.577	3173
747.689	2374
747.801	2798
747.913	2511
748.024	2020
748.136	2172
748.248	2656
748.359	2314
748.471	3266
748.583	1925
748.694	2313
748.806	2928
748.918	2483
749.029	1665
749.141	3142
749.252	2989
749.364	1115
749.475	2127
749.587	1737
749.698	2557
749.809	3176
749.921	2278
750.032	2544
750.144	1637
750.255	2029
750.366	1569
750.478	1817
750.589	2491
750.700	2064
750.811	2693
750.923	2307
751.034	1964
751.145	2474
751.256	1631
751.367	2503
751.479	1789
751.590	1793
751.701	1085
751.812	1163
751.923	1294
752.034	2913
752.145	2187
752.256	1924
752.367	1762
752.478	2502
752.589	2684
752.700	1416
752.811	1886
752.922	1501
753.032	1357
753.143	2272
753.254	1277
753.365	2687
753.476	1527
753.586	2360
753.697	1629
753.808	2124
753.919	1292
754.029	1431
754.140	857
754.251	1335
754.361	2360
754.472	2459
754.582	1059
754.693	1595
754.804	1342
754.914	1506
755.025	1157
755.135	1939
755.246	2317
755.356	1752
755.466	1328
755.577	1345
755.687	1035
755.798	1439
755.908	1122
756.018	1356
756.129	1243
756.239	1782
756.349	2485
756.460	1563
756.570	1712
756.680	1770
756.790	2062
756.900	969
757.011	1161
757.121	776
757.231	1180
757.341	1808
757.451	847
757.561	1432
757.671	1810
757.781	740
757.891	1582
758.001	1225
758.111	1440
758.221	1548
758.331	1418
758.441	1564
758.551	749
758.661	2557
758.771	1530
758.880	1165
758.990	2133
759.100	1426
759.210	1078
759.320	2644
759.429	1472
759.539	1621
759.649	1640
759.758	2424
759.868	2622
759.978	1421
760.087	2661
760.197	2866
760.307	1585
760.416	1362
760.526	845
760.635	2209
760.745	2424
760.854	2371
760.964	3748
761.073	3516
761.182	2221
761.292	2071
761.401	2053
761.511	1757
761.620	758
761.729	1400
761.839	45
761.948	1410
762.057	905
762.166	1373
762.276	-252
762.385	3008
762.494	1506
762.603	1935
762.712	1353
762.822	954
762.931	1012
763.040	195
763.149	415
763.258	1583
763.367	622
763.476	1789
763.585	697
763.694	1342
763.803	1378
763.912	1503
764.021	1480
764.130	1200
764.238	435
764.347	1857
764.456	1270
764.565	875
764.674	773
764.783	1546
764.891	820
765.000	3314
765.109	1990
765.217	1183
765.326	2132
765.435	2847
765.543	2436
765.652	2770
765.761	3204
765.869	5369
765.978	7389
766.086	13055
766.195	25904
766.303	61063
766.412	122865
766.520	101939
766.629	40497
766.737	17232
766.846	9653
766.954	5455
767.062	4245
767.171	3605
767.279	2656
767.387	2180
767.496	1543
767.604	2360
767.712	1953
767.820	1938
767.928	1688
768.037	1127
768.145	1884
768.253	1718
768.361	232
768.469	2508
768.577	208
768.685	1857
768.793	1775
768.901	1072
769.009	2501
769.117	1864
769.225	2147
769.333	3923
769.441	5326
769.549	10489
769.657	23284
769.765	65370
769.873	103129
769.981	45607
770.088	13864
770.196	6094
770.304	4777
770.412	4193
770.519	2693
770.627	2719
770.735	1556
770.842	2105
770.950	2045
771.058	1876
771.165	2876
771.273	2979
771.380	2987
771.488	4390
771.595	3824
771.703	4683
771.810	2917
771.918	3061
772.025	4980
772.133	5877
772.240	5023
772.348	6538
772.455	6237
772.562	5136
772.670	4381
772.777	6380
772.884	5294
772.991	4147
773.099	4842
773.206	4663
773.313	4407
773.420	5125
773.528	3258
773.635	4543
773.742	5392
773.849	4993
773.956	4214
774.063	4383
774.170	3966
774.277	4962
774.384	4416
774.491	4395
774.598	5159
774.705	4037
774.812	3503
774.919	4534
775.026	3994
775.133	4234
775.239	3591
775.346	3991
775.453	3329
775.560	3864
775.667	3191
775.773	2836
775.880	3824
775.987	4637
776.093	4774
776.200	4388
776.307	2506
776.413	4128
776.520	3808
776.627	4235
776.733	3062
776.840	1768
776.946	5132
777.053	3662
777.159	3729
777.266	3018
777.372	5158
777.478	3818
777.585	3236
777.691	2108
777.798	3632
777.904	3404
778.010	2483
778.117	4026
778.223	2913
778.329	2747
778.435	1555
778.542	3555
778.648	2180
778.754	2767
778.860	2721
778.966	2612
779.072	2763
779.178	2537
779.284	2142
779.391	2385
779.497	1410
779.603	3925
779.708	1083
779.815	3382
779.920	4303
780.026	4841
780.132	2867
780.238	2291
780.344	2204
780.450	3845
780.556	1630
780.661	2211
780.767	2810
780.873	1083
780.979	2802
781.085	3011
781.190	1761
781.296	2261
781.402	1735
781.507	2369
781.613	1857
781.719	2457
781.824	2490
781.930	1792
782.035	1615
782.141	2585
782.246	1087
782.352	1903
782.457	1724
782.563	2247
782.668	1320
782.773	1585
782.879	926
782.984	2160
783.090	2102
783.195	2184
783.300	2356
783.405	814
783.511	951
783.616	2374
783.721	1545
783.826	1255
783.932	837
784.037	2333
784.142	842
784.247	830
784.352	1895
784.457	1880
784.562	1644
784.667	1723
784.772	732
784.877	859
784.982	2478
785.087	2242
785.192	2042
785.297	1829
785.402	2866
785.507	1813
785.611	1203
785.716	581
785.821	1472
785.926	1405
786.031	1250
786.135	1283
786.240	1072
786.345	447
786.450	1144
786.554	1534
786.659	1111
786.763	1081
786.868	1339
786.973	2529
787.077	533
787.182	1704
787.286	1436
787.391	2059
787.495	2
787.600	1192
787.704	321
787.809	1468
787.913	665
788.017	1592
788.122	2084
788.226	1031
788.330	288
788.435	1554
788.539	1676
788.643	1714
788.747	1176
788.852	691
788.956	1557
789.060	2048
789.164	598
789.268	623
789.372	441
789.476	1294
789.580	48
789.684	281
789.788	1055
789.892	727
789.996	853
790.100	311
790.204	1418
790.308	932
790.412	-243
790.516	453
790.620	-513
790.724	1091
790.828	546
790.931	-353
791.035	1945
791.139	602
791.242	380
791.346	2127
791.450	606
791.554	825
791.657	-346
791.761	1375
791.864	1712
791.968	941
792.072	1152
792.175	662
792.279	-261
792.382	501
792.486	284
792.589	840
792.693	1419
792.796	118
792.899	1362
793.003	1239
793.106	-776
793.209	1229
793.313	1489
793.416	-1643
793.519	1382
793.623	863
793.726	217
793.829	700
793.932	422
794.035	-216
794.138	1108
794.242	1142
794.345	-2
794.448	-369
794.551	-1199
794.654	1962
794.757	1821
794.860	690
794.963	103
795.066	67
795.169	1189
795.272	447
795.375	465
795.477	-114
795.580	-19
795.683	-904
795.786	650
795.889	-399
795.991	1385
796.094	881
796.197	-1122
796.300	2200
796.402	-453
796.505	-475
796.608	251
796.710	1792
796.813	278
796.915	833
797.018	-279
797.120	482
797.223	-782
797.326	2125
797.428	-796
797.530	-379
797.633	-367
797.735	1234
797.838	-1189
797.940	1324
798.042	-587
798.145	659
798.247	1090
798.349	-1094
798.452	1366
798.554	480
798.656	401
798.758	1722
798.860	720
798.962	314
799.065	136
799.167	-889
799.269	906
799.371	889
799.473	766
799.575	-449
799.677	-419
799.779	1252
799.881	-1281
799.983	601
800.085	447
800.187	830
800.289	-822
800.390	527
800.492	345
800.594	962
800.696	-1696
800.798	275
800.899	-922
801.001	-197
801.103	401
801.205	164
801.306	403
801.408	-216
801.509	195
801.611	532
801.713	780
801.814	-666
801.916	-177
802.017	-569
802.119	-1265
802.220	-117
802.322	-1058
802.423	1936
802.525	-764
802.626	-219
802.727	234
802.829	107
802.930	-1794
803.031	1839
803.133	-515
803.234	-516
803.335	-253
803.436	-799
803.538	-77
803.639	-1084
803.740	210
803.841	-390
803.942	655
804.043	24
804.144	-550
804.245	206
804.346	-956
804.447	-699
804.548	-152
804.649	988
804.750	-826
804.851	-350
804.952	-853
805.053	-628
805.154	-1746
805.255	1174
805.355	491
805.456	247
805.557	-781
805.658	-293
805.758	730
805.859	-2
805.960	-332
806.061	-404
806.161	-388
806.262	667
806.362	-185
806.463	-282
806.564	-193
806.664	222
806.765	-847
806.865	-605
806.966	-1252
807.066	-325
807.166	258
807.267	423
807.367	-515
807.468	478
807.568	-1308
807.668	942
807.769	1340
807.869	-669
807.969	398
808.069	-194
808.170	-124
808.270	-457
808.370	75
808.470	554
808.570	-1572
808.670	563
808.770	-493
808.870	160
808.970	-360
809.070	255
809.170	-347
809.271	201
809.370	-886
809.470	122
809.570	-717
809.670	-1099
809.770	-84
809.870	520
809.970	-47
810.070	-430
810.169	-71
810.269	-1121
810.369	-74
810.469	220
810.568	-642
810.668	-541
810.768	-1000
810.867	107
810.967	-1310
811.066	-257
811.166	-784
811.265	1013
811.365	-434
811.464	-976
811.564	578
811.663	704
811.763	-2425
811.862	84
811.962	421
812.061	-314
812.160	-1159
812.260	167
812.359	-120
812.458	-395
812.557	609
812.657	-438
812.756	146
812.855	-350
812.954	-1027
813.053	-462
813.153	446
813.252	-1008
813.351	118
813.450	-590
813.549	-436
813.648	485
813.747	-1214
813.846	1067
813.945	-542
814.044	-625
814.143	-150
814.242	498
814.341	-1134
814.439	507
814.538	111
814.637	571
814.736	-535
814.835	265
814.933	-1056
815.032	660
815.131	544
815.229	2301
815.328	4599
815.427	2538
815.525	2779
815.624	3841
815.722	2197
815.821	2738
815.919	2025
816.018	2080
816.116	3180
816.215	2696
816.313	2438
816.412	3053
816.510	3744
816.609	4908
816.707	4922
816.805	3362
816.904	2919
817.002	3899
817.100	3914
817.198	5218
817.296	2458
817.395	3458
817.493	3694
817.591	2495
817.689	2753
817.787	2261
817.885	3354
817.983	3134
818.081	2941
818.179	3756
818.277	6341
818.375	4688
818.473	2667
818.571	3280
818.669	2577
818.767	3537
818.865	1810
818.963	1131
819.061	2842
819.158	2296
819.256	4789
819.354	3934
819.452	7128
819.549	3523
819.647	3951
819.745	2460
819.842	2862
819.940	3400
820.038	1820
820.135	2226
820.233	4109
820.330	1657
820.428	1456
820.525	3604
820.623	2020
820.720	2108
820.818	2886
820.915	2925
821.012	2781
821.110	1583
821.207	1990
821.304	1687
821.402	2527
821.499	3391
821.596	2205
821.693	2437
821.791	1868
821.888	1397
821.985	2666
822.082	808
822.179	2469
822.276	3147
822.373	1088
822.470	2366
822.567	2239
822.664	1502
822.761	3200
822.858	1411
822.955	1279
823.052	1446
823.149	1788
823.246	1968
823.343	1212
823.440	2009
823.536	1831
823.633	2128
823.730	989
823.827	2497
823.923	1908
824.020	2027
824.117	1268
824.213	1343
824.310	1961
824.407	1062
824.503	2977
824.600	626
824.696	1079
824.793	2771
824.889	1717
824.986	1155
825.082	1098
825.179	1673
825.275	2056
825.371	2442
825.468	1007
825.564	402
825.660	1314
825.757	3019
825.853	1885
825.949	-99
826.045	239
826.142	1037
826.238	712
826.334	2104
826.430	811
826.526	1027
826.622	1
826.718	1846
826.814	1592
826.910	2239
827.006	-842
827.102	777
827.198	2472
827.294	1771
827.390	1708
827.486	1537
827.582	165
827.678	-97
827.774	2611
827.869	-77
827.965	1108
828.061	102
828.157	1409
828.252	1533
828.348	28
828.444	1234
828.539	321
828.635	610
828.731	1192
828.826	420
828.922	1370
829.017	1109
829.113	897
829.208	392
829.304	1034
829.399	2654
829.495	326
829.590	2120
829.685	365
829.781	946
829.876	443
829.971	223
830.066	-1272
830.162	710
830.257	1797
830.352	648
830.447	661
830.543	348
830.638	465
830.733	1841
830.828	123
830.923	1144
831.018	1155
831.113	2066
831.208	-1158
831.303	-29
831.398	78
831.493	140
831.588	1773
831.683	-369
831.778	288
831.873	-103
831.967	2266
832.062	147
832.157	-281
832.252	1214
832.346	-483
832.441	1023
832.536	314
832.631	700
832.725	-52
832.820	-145
832.914	806
833.009	-646
833.104	-243
833.198	516
833.293	81
833.387	1147
833.482	269
833.576	169
833.670	353
833.765	-376
833.859	591
833.954	1861
834.048	662
834.142	808
834.237	-1249
834.331	-49
834.425	577
834.519	-613
834.613	587
834.708	112
834.802	474
834.896	214
834.990	1203
835.084	581
835.178	-349
835.272	-637
835.366	506
835.460	1343
835.554	-440
835.648	-441
835.742	-1009
835.836	-196
835.930	-615
836.024	623
836.117	1109
836.211	-900
836.305	-3
836.399	818
836.493	-816
836.586	1019
836.680	-133
836.774	-194
836.867	906
836.961	-674
837.055	-890
837.148	-128
837.242	-86
837.335	-487
837.429	348
837.522	-787
837.616	-138
837.709	552
837.803	-319
837.896	563
837.989	-1479
838.083	-571
838.176	-362
838.269	-1132
838.363	415
838.456	-848
838.549	109
838.642	-663
838.735	-402
838.829	605
838.922	-756
839.015	-94
839.108	-1021
839.201	-757
839.294	-307
839.387	-174
839.480	-1331
839.573	580
839.666	-1258
839.759	-723
839.852	-899
839.945	-62
840.038	-746
840.131	-1149
840.223	-468
840.316	730
840.409	281
840.502	417
840.594	930
840.687	-1185
840.780	-427
840.873	-241
840.965	-1012
841.058	253
841.150	401
841.243	-1170
841.336	-388
841.428	-238
841.521	359
841.613	262
841.706	-541
841.798	-595
841.890	-72
841.983	-1297
842.075	394
842.167	-1505
842.260	-725
842.352	287
842.444	-879
842.537	-1184
842.629	-747
842.721	-369
842.813	-139
842.905	-1426
842.997	-384
843.090	-545
843.182	-565
843.274	-977
843.366	-28
843.458	-70
843.550	638
843.642	-831
843.734	-798
843.826	-737
843.918	-537
844.009	437
844.101	-866
844.193	-120
844.285	-779
844.377	-172
844.469	-509
844.560	-732
844.652	-1307
844.744	-109
844.835	-492
844.927	-608
845.019	-1046
845.110	-399
845.202	-742
845.293	-1126
845.385	-638
845.476	-762
845.568	426
845.659	-858
845.751	-1007
845.842	-246
845.934	-923
846.025	-1292
846.116	-836
846.208	-458
846.299	-1513
846.390	-429
846.482	-266
846.573	168
846.664	-434
846.755	-655
846.846	-253
846.937	-1806
847.029	-1214
847.120	-842
847.211	-557
847.302	127
847.393	-1612
847.484	-179
847.575	-1097
847.666	-1035
847.757	-738
847.847	-551
847.938	-306
848.029	-550
848.120	-1159
848.211	-456
848.302	-1736
848.392	-78
848.483	-541
848.574	-794
848.664	-1632
848.755	80
848.846	-158
848.936	-1289
849.027	-316
849.118	162
849.208	-730
849.299	-28
849.389	605
849.480	3233
849.570	7017
849.661	14346
849.751	21886
849.841	4989
849.932	294
850.022	-499
850.112	-745
850.203	-811
850.293	-1125
850.383	-1272
850.474	-680
850.564	-239
850.654	-783
850.744	-620
850.834	-811
850.924	-446
851.014	83
851.104	-493
851.194	-1298
851.284	-897
851.374	-786
851.464	-1078
851.554	-536
851.644	-1286
851.734	40
851.824	-997
851.914	-1035
852.004	-456
852.094	-1759
852.183	-1472
852.273	-143
852.363	-1180
852.452	-732
852.542	-791
852.632	-1028
852.721	-1311
852.811	-1557
852.901	-724
852.990	-766
853.080	-815
853.169	-277
853.259	-67
853.348	-980
853.438	-387
853.527	728
853.617	1071
853.706	3105
853.795	7472
853.885	18138
853.974	31293
854.063	61239
854.152	76206
854.242	25812
854.331	5802
854.420	2749
854.509	1197
854.598	471
854.687	224
854.777	581
854.866	-399
854.955	-286
855.044	-853
855.133	-380
855.222	-958
855.311	-936
855.400	-1017
855.488	-446
855.577	-1352
855.666	-419
855.755	-813
855.844	-302
855.933	-1025
856.021	-330
856.110	-853
856.199	-818
856.288	-470
856.376	-1192
856.465	-780
856.554	-814
856.642	-858
856.731	-619
856.819	-601
856.908	-371
856.996	-927
857.085	-738
857.173	-543
857.262	-1312
857.350	84
857.438	-1625
857.527	-361
857.615	-835
857.703	220
857.792	-1705
857.880	-953
857.968	-940
858.056	-1068
858.145	-1270
858.233	-1287
858.321	-1624
858.409	-363
858.497	-1635
858.585	-983
858.673	-1120
858.761	-1262
858.849	-1968
858.937	-1241
859.025	-758
859.113	-1067
859.201	-1306
859.289	-127
859.377	-953
859.465	-1012
859.552	-1408
859.640	-760
859.728	-791
859.816	-529
859.903	-687
859.991	-1560
860.079	-672
860.166	-10
860.254	-385
860.342	-1282
860.429	-1025
860.517	-1002
860.604	-896
860.692	-1580
860.779	-2106
860.867	-1324
860.954	-1787
861.042	-364
861.129	-792
861.216	-1136
861.304	-423
861.391	-635
861.478	-766
861.565	-990
861.653	-474
861.740	-1736
861.827	-584
861.914	-1126
862.001	-1230
862.089	-726
862.176	-1000
862.263	-1021
862.350	-1500
862.437	-538
862.524	-801
862.611	-850
862.698	-593
862.785	-519
862.871	-206
862.958	-773
863.045	-751
863.132	-746
863.219	-1174
863.306	-1918
863.392	253
863.479	-476
863.566	-958
863.652	-629
863.739	-877
863.826	-191
863.912	-385
863.999	-1163
864.086	-641
864.172	-200
864.259	-1207
864.345	-693
864.432	-595
864.518	547
864.604	-148
864.691	-867
864.777	-1217
864.863	-1
864.950	1181
865.036	1649
865.122	4864
865.209	5052
865.295	4024
865.381	3879
865.467	3689
865.553	4213
865.639	4960
865.726	7020
865.812	12147
865.898	20253
865.984	30363
866.070	52504
866.156	46301
866.242	14129
866.328	5726
866.414	3519
866.499	3872
866.585	3849
866.671	3391
866.757	3260
866.843	3341
866.928	2615
867.014	2570
867.100	2762
867.186	2412
867.271	1990
867.357	1994
867.442	1696
867.528	2752
867.614	2460
867.699	2347
867.785	2666
867.870	2386
867.956	2664
868.041	2473
868.127	2849
868.212	1855
868.297	2669
868.383	2022
868.468	2456
868.553	2213
868.639	2061
868.724	1589
868.809	2631
868.894	1727
868.979	2088
869.065	2522
869.150	1287
869.235	1723
869.320	1755
869.405	53
869.490	2627
869.575	1848
869.660	945
869.745	2589
869.830	1932
869.915	744
870.000	1254
870.085	1382
870.169	3279
870.254	2550
870.339	1158
870.424	725
870.509	1456
870.593	1506
870.678	2459
870.763	1087
870.847	1754
870.932	1398
871.016	2317
871.101	396
871.186	1430
871.270	2319
871.355	605
871.439	1270
871.523	1829
871.608	1071
871.692	-53
871.777	2464
871.861	2268
871.945	1369
872.030	1800
872.114	1163
872.198	1203
872.282	693
872.367	1421
872.451	707
872.535	1707
872.619	1080
872.703	1219
872.787	1440
872.871	1899
872.955	423
873.039	373
873.123	737
873.207	1478
873.291	-199
873.375	191
873.459	1747
873.543	-582
873.627	-398
873.711	1316
873.794	1385
873.878	829
873.962	100
874.045	667
874.129	598
874.137	574
874.213	335
874.245	389
874.296	472
874.352	562
874.380	609
874.460	856
874.464	865
874.547	463
874.568	689
874.631	1349
874.676	1410
874.714	1467
874.784	1197
874.798	1138
874.881	1874
874.892	1659
874.965	294
874.999	808
875.048	1419
875.107	885
875.131	685
875.215	130
875.215	130
875.298	795
875.323	775
875.381	778
875.430	734
875.465	655
875.538	1131
875.548	1194
875.631	621
875.646	548
875.714	310
875.753	378
875.798	448
875.861	866
875.881	964
875.964	1041
875.968	977
876.047	-12
876.076	330
876.130	872
876.183	928
876.213	1018
876.291	1517
876.296	1535
876.379	460
876.398	274
876.462	-284
876.506	-131
876.545	102
876.613	389
876.628	449
876.711	527
876.721	646
876.794	1343
876.828	1025
876.877	615
876.935	383
876.960	359
877.043	654
877.043	656
877.125	1085
877.150	1243
877.208	1571
877.258	574
877.291	-85
877.365	984
877.374	1113
877.456	477
877.472	493
877.539	667
877.579	1087
877.622	1482
877.687	1452
877.704	1411
877.787	359
877.794	377
877.869	840
877.901	917
877.952	823
878.008	74
878.034	-219
878.115	329
878.117	348
878.199	-99
878.222	225
878.282	877
878.329	1233
878.364	1475
878.437	1365
878.447	1330
878.529	263
878.544	266
878.611	323
878.651	199
878.694	254
878.758	868
878.776	1013
878.858	1220
878.865	1197
878.941	557
878.972	424
879.023	445
879.078	145
879.105	105
879.185	1121
879.187	1140
879.269	652
879.292	911
879.351	1261
879.399	916
879.433	709
879.506	472
879.516	491
879.598	1448
879.613	1254
879.680	52
879.720	413
879.762	940
879.827	808
879.844	798
879.926	889
879.933	983
880.007	1628
880.040	1233
880.089	761
880.147	1183
880.171	1368
880.253	1954
880.254	1955
880.335	2680
880.360	3067
880.417	4654
880.467	6550
880.499	7836
880.574	9005
880.580	8776
880.662	4440
880.680	3489
880.744	1747
880.787	1324
880.825	1069
880.893	920
880.907	917
880.989	421
881.000	444
881.070	1043
881.106	1161
881.152	1046
881.213	337
881.233	201
881.315	957
881.319	951
881.396	849
881.426	1068
881.478	1236
881.532	1218
881.559	1397
881.639	1057
881.641	1032
881.722	451
881.745	291
881.803	679
881.852	822
881.885	608
881.958	685
881.966	749
882.047	966
882.064	989
882.129	705
882.171	326
882.210	26
882.277	-7
882.291	61
882.372	403
882.383	508
882.454	1519
882.489	1541
882.535	999
882.596	1040
882.616	1221
882.697	1012
882.702	1009
882.778	570
882.808	524
882.859	785
882.914	1052
882.940	977
883.020	476
883.021	482
883.102	1103
883.127	1183
883.183	1483
883.233	1640
883.264	1319
883.339	773
883.345	747
883.426	-93
883.445	-72
883.507	407
883.551	717
883.587	1058
883.657	1097
883.668	1129
883.749	1651
883.763	1744
883.830	1217
883.869	603
883.910	198
883.975	368
883.991	538
884.072	703
884.081	721
884.152	1244
884.187	1674
884.233	1984
884.292	1837
884.314	1494
884.394	444
884.398	382
884.475	-185
884.504	-240
884.555	387
884.610	938
884.636	1065
884.716	1293
884.716	1301
884.797	1713
884.821	1672
884.877	1443
884.927	1327
884.958	1351
885.033	1342
885.038	1312
885.118	579
885.139	551
885.199	820
885.244	603
885.279	637
885.350	1062
885.359	1163
885.439	1988
885.456	2064
885.520	1409
885.561	1115
885.600	967
885.667	922
885.680	1032
885.760	1350
885.773	1403
885.840	1209
885.878	1197
885.920	1217
885.984	999
886.000	1072
886.080	1492
886.089	1511
886.160	1296
886.195	1218
886.240	1086
886.300	1112
886.320	1237
886.400	1492
886.406	1503
886.480	1173
886.511	1004
886.560	609
886.616	276
886.640	536
886.720	1190
886.722	1199
886.800	419
886.827	152
886.879	774
886.932	1459
886.959	1711
887.038	2387
887.039	2392
887.119	1839
887.143	1730
887.198	1863
887.248	1945
887.278	1868
887.354	1498
887.358	1501
887.437	1329
887.459	1338
887.517	1856
887.564	2213
887.596	1858
887.669	973
887.676	956
887.755	780
887.774	707
887.835	682
887.880	753
887.914	1163
887.985	1838
887.994	1880
888.073	2270
888.090	2306
888.153	2508
888.195	2680
888.232	2154
888.300	1236
888.311	1261
888.391	1339
888.405	1334
888.470	1127
888.510	995
888.549	1237
888.615	1750
888.628	1717
888.708	1358
888.720	1289
888.787	1698
888.825	1923
888.866	1136
888.930	-40
888.945	265
889.024	1810
889.035	2010
889.103	1872
889.140	1788
889.182	1825
889.245	1843
889.261	1805
889.340	1616
889.349	1583
889.419	1843
889.454	1970
889.498	1910
889.559	1814
889.577	1815
889.656	1788
889.664	1780
889.735	1587
889.768	1492
889.814	1879
889.873	2380
889.978	1140
890.083	1929
890.187	1477
890.292	2336
890.397	980
890.501	1946
890.606	511
890.710	1423
890.815	1659
890.919	1287
891.024	1579
891.128	1791
891.233	1457
891.337	1653
891.442	1676
891.546	2528
891.650	1515
891.755	2108
891.859	1812
891.963	2746
892.068	1464
892.172	891
892.276	366
892.380	1585
892.484	2173
892.589	2717
892.693	1283
892.797	1220
892.901	985
893.005	1268
893.109	2845
893.213	2663
893.317	1906
893.421	1619
893.525	1062
893.629	1789
893.733	1371
893.837	1418
893.941	1554
894.045	1721
894.148	510
894.252	1200
894.356	1678
894.460	2174
894.564	1674
894.667	1442
894.771	620
894.875	1482
894.978	982
895.082	1136
895.186	2472
895.289	1646
895.393	923
895.496	1391
895.600	1544
895.703	703
895.807	1883
895.910	1804
896.014	1508
896.117	1091
896.221	1565
896.324	1579
896.427	602
896.531	737
896.634	619
896.737	1379
896.840	1694
896.944	1985
897.047	1644
897.150	1333
897.253	848
897.356	1565
897.460	-120
897.563	1311
897.666	1327
897.769	1874
897.872	828
897.975	823
898.078	1430
898.181	1229
898.284	943
898.387	1539
898.490	1437
898.593	1512
898.695	1289
898.798	1221
898.901	1456
899.004	1700
899.107	1167
899.209	1059
899.312	1831
899.415	1566
899.518	761
899.620	964
899.723	1455
899.826	898
899.928	650
900.031	1049
900.133	1611
900.236	1175
900.338	662
900.441	1224
900.543	948
900.646	1154
900.748	600
900.851	1758
900.953	1686
901.055	1639
901.158	480
901.260	1386
901.362	888
901.465	942
901.567	1061
901.669	1686
901.771	772
901.873	1872
901.976	1155
902.078	996
902.180	854
902.282	1647
902.384	1379
902.486	1830
902.588	1409
902.690	1376
902.792	1235
902.894	1569
902.996	1688
903.098	1497
903.200	374
903.302	1514
903.404	1586
903.505	1445
903.607	657
903.709	2081
903.811	2189
903.913	1015
904.014	1742
904.116	164
904.218	289
904.319	1375
904.421	1994
904.523	1571
904.624	1157
904.726	1763
904.827	564
904.929	460
905.030	1465
905.132	1675
905.233	2456
905.335	639
905.436	667
905.537	1035
905.639	2117
905.740	1688
905.841	495
905.943	814
906.044	918
906.145	819
906.247	311
906.348	1322
906.449	1912
906.550	2712
906.651	746
906.752	1537
906.854	762
906.955	2
907.056	1431
907.157	1494
907.258	2302
907.359	770
907.460	876
907.561	451
907.662	1282
907.762	1152
907.863	1542
907.964	1172
908.065	842
908.166	1070
908.267	780
908.367	835
908.468	759
908.569	1413
908.670	1421
908.770	1128
908.871	418
908.971	1724
909.072	596
909.173	1103
909.273	644
909.374	921
909.474	706
909.575	766
909.675	1078
909.776	2024
909.876	458
909.977	1563
910.077	923
910.177	1977
910.278	864
910.378	307
910.478	-134
910.579	1180
910.679	1315
910.779	1878
910.879	274
910.980	824
911.080	1195
911.180	544
911.280	926
911.380	1416
911.480	652
911.580	1176
911.680	1099
911.780	1685
911.880	1333
911.980	1187
912.080	116
912.180	1620
912.280	779
912.380	926
912.480	75
912.580	1323
912.679	371
912.779	1675
912.879	974
912.979	1613
913.078	576
913.178	1092
913.278	1225
913.377	-45
913.477	444
913.577	1278
913.676	1418
913.776	1521
913.875	1475
913.975	1218
914.074	399
914.174	1489
914.273	-713
914.373	1876
914.472	504
914.572	245
914.671	-3
914.770	1159
914.870	543
914.969	877
915.068	1859
915.167	1085
915.267	893
915.366	1083
915.465	1572
915.564	1702
915.663	1512
915.763	1746
915.862	1651
915.961	1790
916.060	19
916.159	1201
916.258	1148
916.357	1339
916.456	513
916.555	1594
916.654	1183
916.752	1899
916.851	1439
916.950	1258
917.049	-120
917.148	271
917.247	1196
917.345	1577
917.444	754
917.543	1857
917.642	1263
917.740	1754
917.839	2397
917.937	1799
918.036	1687
918.135	1671
918.233	773
918.332	2011
918.430	1804
918.529	1397
918.627	1392
918.726	2071
918.824	504
918.923	1169
919.021	523
919.119	1368
919.218	823
919.316	1463
919.414	544
919.512	1444
919.611	1805
919.709	1340
919.807	1748
919.905	1763
920.003	1700
920.102	2097
920.200	1797
920.298	2005
920.396	1792
920.494	1581
920.592	1057
920.690	1143
920.788	1657
920.886	1756
920.984	1515
921.082	2352
921.180	2578
921.277	1571
921.375	1740
921.473	3589
921.571	3098
921.669	3024
921.766	2826
921.864	3453
921.962	3130
922.060	2461
922.157	3288
922.255	3596
922.352	2886
922.450	3804
922.548	3297
922.645	3913
922.743	4118
922.840	8378
922.938	8678
923.035	8562
923.133	6600
923.230	8302
923.327	10076
923.425	10575
923.522	9942
923.619	8574
923.717	7739
923.814	7291
923.911	7687
924.008	8150
924.106	7412
924.203	6948
924.300	7945
924.397	6973
924.494	8003
924.591	7507
924.688	7031
924.786	7682
924.883	7884
924.979	7394
925.077	7335
925.173	7479
925.270	6722
925.367	7193
925.464	8476
925.561	7816
925.658	8196
925.755	6603
925.852	7652
925.948	7956
926.045	7773
926.142	7278
926.239	7985
926.335	6694
926.432	7359
926.529	7752
926.625	7825
926.722	6899
926.818	5474
926.915	7276
927.011	7279
927.108	6566
927.204	6923
927.301	6786
927.397	6806
927.494	7475
927.590	5459
927.687	5811
927.783	7319
927.879	7884
927.976	6524
928.072	5005
928.168	6640
928.264	7183
928.361	6221
928.457	7350
928.553	5615
928.649	6682
928.745	6717
928.841	6397
928.937	6520
929.033	6354
929.129	6024
929.225	7167
929.321	6001
929.417	5136
929.513	7284
929.609	5395
929.705	4399
929.801	6792
929.897	4938
929.993	5118
930.089	5293
930.184	5633
930.280	5566
930.376	7456
930.471	5630
930.567	5085
930.663	5640
930.758	5302
930.854	5351
930.950	4805
931.045	4836
931.141	5326
931.236	6391
931.332	5800
931.427	3805
931.523	6537
931.618	6357
931.714	3941
931.809	4623
931.905	5669
932.000	4501
932.095	3886
932.191	6313
932.286	6832
932.381	5174
932.476	3374
932.572	4941
932.667	4762
932.762	4068
932.857	5065
932.952	6654
933.047	5810
933.142	3636
933.237	5260
933.332	5624
933.427	5513
933.522	4631
933.617	3813
933.712	3809
933.807	6083
933.902	5886
933.997	6565
934.092	4190
934.187	4898
934.282	4562
934.376	4626
934.471	4734
934.566	4004
934.661	4459
934.755	5385
934.850	5088
934.945	4893
935.039	3410
935.134	2983
935.228	3511
935.323	7043
935.417	4386
935.512	3212
935.606	2917
935.701	5554
935.795	5558
935.890	4581
935.984	4055
936.079	3433
936.173	4767
936.267	3883
936.362	3243
936.456	3747
936.550	5428
936.644	5081
936.738	2753
936.833	3860
936.927	1874
937.021	2507
937.115	3795
937.209	4136
937.303	3608
937.397	2344
937.491	3339
937.585	4528
937.679	4084
937.773	3599
937.867	2716
937.961	3163
938.055	4913
938.149	4868
938.243	2362
938.337	2917
938.430	2142
938.524	4581
938.618	3307
938.712	3727
938.805	3422
938.899	4097
938.993	4899
939.086	2895
939.180	1887
939.274	2685
939.367	3821
939.461	4896
939.554	3091
939.648	2243
939.741	2564
939.835	3535
939.928	4232
940.022	4722
940.115	3250
940.208	4121
940.302	4823
940.395	5109
940.488	2534
940.582	3402
940.675	3486
940.768	3204
940.861	4373
940.954	5001
941.048	2782
941.141	2112
941.234	1882
941.327	2785
941.420	3722
941.513	4394
941.606	2164
941.699	4015
941.792	4068
941.885	3279
941.978	2709
942.071	3725
942.164	1199
942.257	2430
942.349	2773
942.442	3312
942.535	2733
942.628	2746
942.721	2897
942.813	2595
942.906	3065
942.999	2926
943.091	1608
943.184	2632
943.277	3075
943.369	2910
943.462	1504
943.554	2577
943.647	1619
943.739	3604
943.832	3516
943.924	1276
944.017	2230
944.109	1314
944.201	2218
944.294	3094
944.386	2670
944.478	1762
944.571	2375
944.663	2520
944.755	1979
944.847	3923
944.940	2615
945.032	1804
945.124	1447
945.216	2856
945.308	2513
945.400	2839
945.492	2294
945.584	3691
945.676	3521
945.768	2747
945.860	2893
945.952	3706
946.044	2588
946.136	2245
946.228	2008
946.320	2187
946.412	1860
946.503	2715
946.595	3195
946.687	2627
946.779	1149
946.870	2121
946.962	1093
947.054	2082
947.145	2700
947.237	2350
947.329	2233
947.420	1827
947.512	2452
947.603	733
947.695	1990
947.786	852
947.878	1294
947.969	2142
948.061	1961
948.152	1471
948.243	840
948.335	1454
948.426	1223
948.517	1606
948.609	2280
948.700	2196
948.791	1786
948.882	1063
948.973	1234
949.065	2542
949.156	2313
949.247	1002
949.338	1885
949.429	794
949.520	1990
949.611	1719
949.702	1617
949.793	2023
949.884	1873
949.975	1811
950.066	1121
950.157	1352
950.247	1794
950.338	1854
950.429	1350
950.520	2175
950.611	1196
950.701	1750
950.792	2588
950.883	2826
950.973	1506
951.064	1965
951.155	1944
951.245	2613
951.336	2475
951.427	1992
951.517	3194
951.608	2403
951.698	2005
951.788	1978
951.879	776
951.969	1097
952.060	380
952.150	2162
952.240	2579
952.331	1454
952.421	3054
952.511	646
952.602	1156
952.692	397
952.782	1305
952.872	1355
952.962	2690
953.052	1840
953.143	868
953.233	1840
953.323	1228
953.413	1505
953.503	2723
953.593	2239
953.683	1505
953.773	347
953.863	571
953.953	1459
954.042	1050
954.132	1303
954.222	2184
954.312	1231
954.402	1014
954.492	1510
954.581	1376
954.671	1792
954.761	75
954.850	2818
954.940	-627
955.030	1322
955.119	1365
955.209	1385
955.298	696
955.388	1786
955.477	2653
955.567	926
955.656	1460
955.746	1439
955.835	1332
955.925	1019
956.014	975
956.103	1799
956.193	2191
956.282	3136
956.371	1537
956.461	1619
956.550	1473
956.639	1649
956.728	1289
956.817	1745
956.906	581
956.995	1914
957.085	839
957.174	1467
957.263	1374
957.352	1146
957.441	652
957.530	1321
957.619	1722
957.708	1043
957.796	1260
957.885	1788
957.974	1110
958.063	2658
958.152	102
958.241	1706
958.329	316
958.418	1191
958.507	1021
958.596	2407
958.684	930
958.773	1667
958.861	648
958.950	1408
959.039	878
959.127	1345
959.216	1204
959.304	1294
959.393	959
959.481	1442
959.570	1506
959.658	610
959.746	1173
959.835	1403
959.923	1261
960.011	501
960.100	2126
960.188	1529
960.276	980
960.365	1162
960.453	137
960.541	608
960.629	1605
960.717	805
960.805	91
960.893	1105
960.981	1039
961.069	2564
961.158	1458
961.245	2497
961.333	1666
961.421	1299
961.509	1040
961.597	1262
961.685	325
961.773	1446
961.861	911
961.949	2457
962.036	843
962.124	1455
962.212	423
962.299	639
962.387	32
962.475	1903
962.562	423
962.650	1491
962.738	1395
962.825	1065
962.913	180
963.000	1214
963.088	1795
963.175	1051
963.263	1444
963.350	-192
963.438	663
963.525	519
963.612	1792
963.700	723
963.787	1501
963.874	1243
963.962	987
964.049	889
964.136	1238
964.223	-211
964.310	957
964.398	895
964.485	486
964.572	1564
964.659	1506
964.746	807
964.833	-167
964.920	700
965.007	1538
965.094	1550
965.181	10
965.268	1744
965.355	210
965.441	2174
965.528	680
965.615	1065
965.702	1114
965.789	790
965.875	1614
965.962	1919
966.049	835
966.136	1457
966.222	1158
966.309	3040
966.395	1261
966.482	1434
966.569	1027
966.655	1912
966.742	951
966.828	1417
966.915	421
967.001	1882
967.087	-496
967.174	71
967.260	614
967.347	563
967.433	64
967.519	1578
967.605	-204
967.692	1415
967.778	1267
967.864	1156
967.950	431
968.036	1064
968.123	1385
968.209	1162
968.295	56
968.381	2937
968.467	1001
968.553	-530
968.639	2201
968.725	651
968.811	1531
968.897	2332
968.983	785
969.069	157
969.154	1412
969.240	1034
969.326	371
969.412	467
969.497	417
969.583	782
969.669	2199
969.755	1323
969.840	1554
969.926	2360
970.012	2257
970.097	4522
970.183	2712
970.268	1461
970.354	1055
970.439	-29
970.525	1118
970.610	-359
970.696	1785
970.781	984
970.866	36
970.952	1659
971.037	204
971.122	1198
971.208	518
971.293	1058
971.378	73
971.463	976
971.549	1320
971.634	1097
971.719	476
971.804	1330
971.889	1584
971.974	1325
972.059	266
972.144	1133
972.229	493
972.314	1152
972.399	541
972.484	535
972.569	1028
972.654	823
972.739	1483
972.824	1001
972.908	824
972.993	1069
973.078	553
973.163	-95
973.247	611
973.332	-1117
973.417	1590
973.501	565
973.586	500
973.671	745
973.755	263
973.840	1600
973.924	1638
974.009	2882
974.093	1944
974.178	3123
974.262	1344
974.346	1251
974.431	752
974.515	915
974.600	750
974.684	1418
974.768	-33
974.852	1641
974.937	-10
975.021	1978
975.105	-236
975.189	615
975.273	319
975.358	441
975.442	-71
975.526	1298
975.610	-28
975.694	137
975.778	1065
975.862	882
975.946	-1490
976.030	2632
976.114	-406
976.198	948
976.281	475
976.365	1242
976.449	855
976.533	1839
976.617	512
976.700	-4
976.784	216
976.868	364
976.951	613
977.035	588
977.119	485
977.202	594
977.286	478
977.369	1362
977.453	2611
977.536	1989
977.620	647
977.703	1679
977.787	799
977.870	1360
977.953	1748
978.037	35
978.120	1757
978.203	701
978.287	565
978.370	1389
978.453	786
978.536	1606
978.620	965
978.703	555
978.786	243
978.869	239
978.952	-557
979.035	1872
979.118	502
979.201	616
979.284	279
979.367	894
979.450	1477
979.533	309
979.616	166
979.699	1328
979.782	-1241
979.865	1353
979.948	1131
980.030	622
980.113	422
980.196	-47
980.279	1271
980.361	394
980.444	440
980.526	1516
980.609	1471
980.692	2327
980.774	1830
980.857	466
980.939	1705
981.022	636
981.104	633
981.187	-51
981.269	921
981.352	17
981.434	232
981.516	1048
981.599	1786
981.681	1430
981.763	671
981.846	1094
981.928	1465
982.010	1205
982.092	15
982.174	1171
982.256	1131
982.339	668
982.421	669
982.503	598
982.585	-570
982.667	440
982.749	-84
982.831	1079
982.913	-119
982.995	1149
983.077	273
983.158	2199
983.240	-445
983.322	980
983.404	2253
983.486	2111
983.568	1787
983.649	1473
983.731	1407
983.813	1553
983.894	1811
983.976	813
984.058	420
984.139	1968
984.221	378
984.302	1940
984.384	1106
984.465	322
984.547	944
984.628	590
984.710	1205
984.791	1204
984.872	1122
984.954	1137
985.035	836
985.116	700
985.198	900
985.279	2407
985.360	111
985.441	1377
985.522	1278
985.604	607
985.685	-502
985.766	2067
985.847	2909
985.928	1178
986.009	643
986.090	925
986.171	1178
986.252	605
986.333	656
986.414	1109
986.495	1403
986.576	1647
986.656	1094
986.737	1531
986.818	2172
986.899	2191
986.980	725
987.060	2222
987.141	1523
987.222	2434
987.302	1557
987.383	3371
987.464	2343
987.544	2428
987.625	1004
987.705	2475
987.786	2896
987.866	2317
987.947	1976
988.027	3611
988.108	1197
988.188	2184
988.268	1866
988.349	2444
988.429	1759
988.509	3257
988.589	1615
988.670	156
988.750	1796
988.830	1241
988.910	1994
988.990	2040
989.070	1149
989.151	1639
989.231	899
989.311	2064
989.391	693
989.471	1783
989.551	808
989.631	1224
989.711	1913
989.791	896
989.870	662
989.950	2661
990.030	1379
990.110	2080
990.190	587
990.269	972
990.349	1937
990.429	1926
990.509	1941
990.588	801
990.668	1072
990.747	1235
990.827	500
990.907	1562
990.986	1515
991.066	2090
991.145	1360
991.225	2381
991.304	1364
991.383	1556
991.463	1222
991.542	2029
991.622	940
991.701	647
991.780	305
991.859	743
991.939	226
992.018	1138
992.097	743
992.176	1548
992.256	451
992.335	563
992.414	1072
992.493	769
992.572	243
992.651	1817
992.730	48
992.809	1739
992.888	254
992.967	835
993.046	1862
993.125	209
993.203	267
993.282	1002
993.361	1352
993.440	210
993.519	-374
993.597	810
993.676	817
993.755	1382
993.834	558
993.912	-667
993.991	1533
994.069	533
994.148	346
994.226	747
994.305	680
994.384	1124
994.462	2281
994.540	55
994.619	-61
994.697	910
994.776	-649
994.854	834
994.932	-108
995.011	329
995.089	-145
995.167	530
995.245	126
995.324	467
995.402	925
995.480	-61
995.558	482
995.636	195
995.714	617
995.792	1794
995.870	75
995.948	397
996.026	-469
996.104	-635
996.182	1256
996.260	360
996.338	83
996.416	-116
996.494	304
996.572	1614
996.649	-480
996.727	-331
996.805	253
996.883	603
996.960	-357
997.038	1335
997.116	499
997.193	-708
997.271	-75
997.348	183
997.426	-92
997.504	419
997.581	1284
997.658	719
997.736	-819
997.813	-559
997.891	981
997.968	256
998.046	-90
998.123	-35
998.200	26
998.277	-568
998.355	542
998.432	-1020
998.509	-521
998.586	892
998.663	654
998.741	583
998.818	492
998.895	-528
998.972	-110
999.049	-123
999.126	594
999.203	-17
999.280	-1199
999.357	-584
999.434	112
999.511	-138
999.587	-368
999.664	30
999.741	553
999.818	-239
999.895	-714
999.971	-917
1000.048	-325
1000.125	883
1000.202	-1319
1000.278	-265
1000.355	332
1000.431	-477
1000.508	-1254
1000.584	-15
1000.661	-83
1000.738	-50
1000.814	-258
1000.890	18
1000.967	140
1001.043	-325
1001.120	-2489
1001.196	-164
1001.272	-998
1001.349	-149
1001.425	-349
1001.501	608
1001.577	-696
1001.654	697
1001.730	-1152
1001.806	26
1001.882	-802
1001.958	-471
1002.034	239
1002.110	237
1002.186	-1397
1002.262	-534
1002.338	-1268
1002.414	153
1002.490	23
1002.566	-1224
1002.642	-1154
1002.718	140
1002.794	-1111
1002.870	-415
1002.945	-471
1003.021	285
1003.097	-913
1003.173	367
1003.248	-781
1003.324	-819
1003.400	-258
1003.475	-1411
1003.551	-823
1003.626	-950
1003.702	-289
1003.777	-956
1003.853	-1428
1003.928	-1240
1004.004	-127
1004.079	271
1004.155	-1295
1004.230	-951
1004.305	-55
1004.381	-888
1004.456	-1043
1004.531	-82
1004.607	-1907
1004.682	-839
1004.757	-776
1004.832	-175
1004.907	-1510
1004.982	-521
1005.057	-381
1005.133	-927
1005.208	-658
1005.283	-809
1005.358	-692
1005.433	-1330
1005.508	-924
1005.583	-468
1005.657	-1047
1005.732	-790
1005.807	-321
1005.882	-877
1005.957	-1058
1006.032	-776
1006.106	-1544
1006.181	-60
1006.256	-333
1006.331	-1585
1006.405	-1866
1006.480	-969
1006.554	-1443
1006.629	136
1006.704	-1482
1006.778	-442
1006.853	249
1006.927	-1549
1007.002	-1537
1007.076	-1065
1007.150	-1393
1007.225	-503
1007.299	-599
1007.373	-1445
1007.448	-1365
1007.522	-87
1007.596	-260
1007.671	-1098
1007.745	-489
1007.819	-1589
1007.893	-1323
1007.967	-510
1008.041	-1804
1008.115	-3
1008.190	-1002
1008.264	-173
1008.338	-2681
1008.412	-1490
1008.486	-1185
1008.560	-920
1008.633	-1433
1008.707	-1725
1008.781	-690
1008.855	-1043
1008.929	-1180
1009.003	-1075
1009.076	-1518
1009.150	-903
1009.224	-917
1009.298	-386
1009.371	-1316
1009.445	-414
1009.519	-1061
1009.592	-1552
1009.666	-1455
1009.739	-421
1009.813	-1700
1009.886	-360
1009.960	-1840
1010.033	-55
1010.107	-1526
1010.180	-2124
1010.253	-1549
1010.327	-1329
1010.400	-956
1010.473	-1877
1010.547	-557
1010.620	-918
1010.693	-913
1010.766	-1190
1010.840	-1440
1010.913	-1275
1010.986	-2073
1011.059	-1432
1011.132	-1349
1011.205	-521
1011.278	-1341
1011.351	-1471
1011.424	-642
1011.497	-1156
1011.570	-2083
1011.643	-842
1011.716	-2044
1011.789	-2237
1011.862	-1802
1011.934	-1222
1012.007	-2174
1012.080	-1445
1012.153	-1592
1012.225	-1147
1012.298	-2130
1012.371	-1292
1012.443	-1482
1012.516	-2303
1012.588	-2333
1012.661	-1115
1012.733	-2500
1012.806	-975
1012.879	-2631
1012.951	-1469
1013.023	-1341
1013.096	-700
1013.168	-1856
1013.241	-1123
1013.313	-1356
1013.385	-1793
1013.458	-1608
1013.530	-1377
1013.602	-2171
1013.674	-782
1013.746	-1642
1013.819	-1826
1013.891	-1553
1013.963	-1655
1014.035	-1703
1014.107	-1820
1014.179	-1185
1014.251	-1686
1014.323	-1367
1014.395	-1917
1014.467	-1802
1014.539	-1268
1014.611	-1854
1014.683	-1296
1014.754	-1657
1014.826	-1801
1014.898	-1716
1014.970	-1624
1015.042	-1101
1015.113	-1582
1015.185	-1340
1015.257	-1811
1015.328	-1353
1015.400	-1614
1015.471	-1753
1015.543	-2086
1015.615	-571
1015.686	-1810
1015.757	-2450
1015.829	-1482
1015.901	-2181
1015.972	-827
1016.043	-2186
1016.115	-1654
1016.186	-2221
1016.257	-2101
1016.328	-1823
1016.400	-932
1016.471	-1810
1016.542	-2070
1016.613	-1652
1016.685	-1619
1016.756	-872
1016.827	-1395
1016.898	-2861
1016.969	-1087
1017.040	-1454
1017.111	-1244
1017.182	-2131
1017.253	-1818
1017.324	-2010
1017.395	-2222
1017.466	-1669
1017.537	-1274
1017.608	-1866
1017.678	-778
1017.749	-1644
1017.820	-1450
1017.891	-2501
1017.961	-1782
1018.032	-2099
1018.103	-1252
1018.173	-2014
1018.244	-988
1018.315	-2472
1018.385	-604
1018.456	-2014
1018.526	-1634
1018.597	-2605
1018.667	-1062
1018.738	-1328
1018.808	-1575
1018.878	-2158
1018.949	-1712
1019.019	-1433
1019.089	-1295
1019.160	-1948
1019.230	-2034
1019.300	-1812
1019.371	-2285
1019.441	-1529
1019.511	-1461
1019.581	-2205
1019.651	-1266
1019.721	-1488
1019.791	-2108
1019.861	-1902
1019.931	-1661
1020.001	-2558
1020.071	-2289
1020.141	-1975
1020.211	-1755
1020.281	-1320
1020.351	-1609
1020.421	-1188
1020.491	-1373
1020.560	-2652
1020.630	-2384
1020.700	-2408
1020.770	-2326
1020.839	-1915
1020.909	-1608
1020.979	-2317
1021.048	-844
1021.118	-2006
1021.187	-986
1021.257	-2323
1021.326	-1160
1021.396	-1646
1021.465	-760
1021.535	-2768
1021.604	-2582
1021.674	-1836
1021.743	-1864
1021.812	-2311
1021.882	-2179
1021.951	-2035
1022.020	-1542
1022.089	-1583
1022.159	-1131
1022.228	-2065
1022.297	-2073
1022.366	-1935
1022.435	-1843
1022.504	-1683
1022.573	-1954
1022.642	-1890
1022.711	-1636
1022.781	-1473
1022.849	-1957
1022.918	-2066
1022.987	-1662
1023.056	-2118
1023.125	-883
1023.194	-1506
1023.263	-1399
1023.331	-1283
1023.400	-1866
1023.469	-1583
1023.538	-808
1023.606	-2392
1023.675	-1421
1023.744	-1659
1023.812	-2249
1023.881	-1882
1023.949	-2123
1024.018	-1880
1024.086	-992
1024.155	-1673
1024.223	-1456
1024.292	-2139
1024.360	-1444
1024.429	-1602
1024.497	-2654
1024.565	-1423
1024.634	-1512
1024.702	-1674
1024.770	-1944
1024.838	-2546
1024.907	-1713
1024.975	-1924
1025.043	-926
1025.111	-1944
1025.179	-1413
1025.247	-1935
1025.315	-1364
1025.383	-1127
1025.451	-1711
1025.519	-1487
1025.587	-1699
1025.655	-1310
1025.723	-1953
1025.791	-985
1025.859	-1128
1025.927	-1294
1025.995	-1942
1026.062	-2027
1026.130	-1565
1026.198	-1956
1026.266	-1734
1026.333	-1812
1026.401	-1198
1026.469	-2452
1026.536	-1445
1026.604	-1765
1026.671	-1484
1026.739	-1833
1026.806	-2095
1026.874	-2724
1026.941	-1259
1027.009	-1609
1027.076	-1541
1027.144	-1503
1027.211	-1795
1027.278	-2004
1027.345	-1671
1027.413	-2453
1027.480	-2374
1027.547	-2099
1027.614	-1984
1027.682	-1570
1027.749	-2442
1027.816	-1529
1027.883	-1069
1027.950	-1790
1028.017	-1756
1028.084	-1253
1028.151	-1961
1028.218	-1896
1028.285	-901
1028.352	-1432
1028.419	-2095
1028.486	-2102
1028.553	-1212
1028.619	-1798
1028.686	-2189
1028.753	-2419
1028.820	-1773
1028.886	-2130
1028.953	-1643
1029.020	-1568
1029.086	-2282
1029.153	-1878
1029.220	-1366
1029.286	-2229
1029.353	-1718
1029.419	-1956
1029.486	-1682
1029.552	-2654
1029.619	-1652
1029.685	-1854
1029.751	-1665
1029.818	-999
1029.884	-1646
1029.951	-793
1030.017	-1497
1030.083	-1471
1030.149	-2302
1030.216	-3063
1030.282	-1284
1030.348	-1447
1030.414	-1127
1030.480	-1509
1030.546	-1755
1030.612	-2157
1030.678	-2335
1030.744	-1931
1030.810	-2297
1030.876	-1934
1030.942	-1482
1031.008	-1724
1031.074	-1365
1031.140	-1414
1031.206	-1040
1031.272	-2775
1031.337	-1363
1031.403	-1550
1031.469	-691
1031.534	-2243
1031.600	-1382
1031.666	-1840
1031.731	-2064
1031.797	-2417
1031.863	-1987
1031.928	-1715
1031.994	-1099
1032.059	-2148
1032.125	-1613
1032.190	-1242
1032.256	-2187
1032.321	-2487
1032.386	-1966
1032.452	-1275
1032.517	-1768
1032.582	-1876
1032.647	-1653
1032.713	-1806
1032.778	-1234
1032.843	-2132
1032.908	-1913
1032.974	-2144
1033.039	-2283
1033.104	-1503
1033.169	-2858
1033.234	-2091
1033.299	-1534
1033.364	-1089
1033.429	-1271
1033.494	-1923
1033.559	-2123
1033.624	-2383
1033.688	-2104
1033.753	-2046
1033.818	-1167
1033.883	-1670
1033.948	-1444
1034.013	-1806
1034.077	-829
1034.142	-424
1034.207	-29
1034.271	679
1034.336	1894
1034.400	-750
1034.465	-1112
1034.530	-1672
1034.594	-2017
1034.658	-1532
1034.723	-1938
1034.787	-2537
1034.852	-1551
1034.916	-1573
1034.981	-1585
1035.045	-2168
1035.109	-2460
1035.173	-1599
1035.238	-1497
1035.302	-1628
1035.366	-1527
1035.430	-2349
1035.495	-2126
1035.559	-1400
1035.623	-1838
1035.687	-2062
1035.751	-1687
1035.815	-1899
1035.879	-1688
1035.943	-1290
1036.007	-1946
1036.071	-1314
1036.135	-2651
1036.198	-1948
1036.262	-1270
1036.326	-1911
1036.390	-1195
1036.454	-1615
1036.517	-1040
1036.581	-1650
1036.645	-1244
1036.709	-1062
1036.772	-2559
1036.836	-1718
1036.900	-2453
1036.963	-2617
1037.026	-2016
1037.090	-2424
1037.154	-1988
1037.217	-2505
1037.280	-1571
1037.344	-2229
1037.407	-1990
1037.471	-1698
1037.534	-2622
1037.597	-2300
1037.661	-1269
1037.724	-2348
1037.787	-2040
1037.850	-1829
1037.913	-2094
1037.977	-1527
1038.040	-1894
1038.103	-2086
1038.166	-2534
1038.229	-2156
1038.292	-2264
1038.355	-2522
1038.418	-1525
1038.481	-1659
1038.544	-1766
1038.607	-2055
1038.670	-2082
1038.732	-2405
1038.795	-2706
1038.858	-2313
1038.921	-2562
1038.984	-2200
1039.046	-2140
1039.109	-1742
1039.172	-805
1039.234	-2094
1039.297	-2575
1039.360	-2339
1039.422	-1966
1039.485	-2210
1039.547	-2850
1039.610	-1726
1039.672	-1889
1039.734	-2306
1039.797	-2416
1039.859	-2069
1039.922	-2039
1039.984	-2042
1040.046	-1782
1040.109	-2301
1040.171	-3274
1040.233	-2295
1040.295	-1632
1040.358	-2544
1040.420	-1882
1040.482	-2122
1040.544	-2294
1040.606	-2786
1040.668	-2012
1040.730	-3386
1040.792	-1547
1040.854	-2811
1040.916	-1590
1040.978	-2546
1041.040	-2068
1041.102	-2058
1041.164	-2065
1041.225	-2908
1041.287	-2696
1041.349	-2506
1041.411	-2464
1041.472	-2436
1041.534	-2039
1041.596	-2067
1041.657	-2338
1041.719	-1610
1041.781	-1836
1041.842	-2734
1041.904	-2343
1041.965	-2756
1042.027	-2091
1042.088	-2950
1042.150	-2158
1042.211	-2821
1042.272	-1707
1042.334	-2831
1042.395	-2002
1042.456	-2354
1042.518	-2912
1042.579	-2112
1042.640	-2383
1042.701	-3059
1042.763	-2395
1042.824	-2488
1042.885	-3446
1042.946	-3095
1043.007	-1241
1043.068	-2227
1043.129	-1412
1043.190	-2154
1043.251	-1938
1043.312	-2586
1043.373	-2236
1043.434	-2217
1043.495	-2513
1043.556	-1986
1043.616	-2328
1043.677	-3091
1043.738	-2088
1043.799	-3111
1043.859	-1264
1043.920	-2538
1043.981	-1918
1044.041	-1997
1044.102	-3114
1044.162	-2647
1044.223	-2122
1044.284	-2252
1044.344	-1978
1044.405	-2223
1044.465	-2576
1044.525	-2105
1044.586	-2198
1044.646	-2770
1044.707	-1693
1044.767	-1531
1044.827	-2306
1044.887	-2248
1044.948	-2736
1045.008	-3152
1045.068	-1673
1045.128	-1611
1045.188	-1590
1045.249	-2230
1045.309	-2666
1045.369	-2345
1045.429	-1599
1045.489	-2577
1045.549	-1586
1045.609	-1580
1045.669	-2030
1045.729	-2651
1045.789	-1775
1045.848	-1897
1045.908	-2106
1045.968	-1776
1046.028	-1881
1046.088	-2359
1046.147	-1707
1046.207	-2117
1046.267	-1240
1046.326	-2140
1046.386	-1602
1046.446	-1461
1046.505	-1719
1046.565	-1427
1046.624	-1598
1046.684	-1819
1046.743	-970
1046.803	-133
1046.862	-762
1046.922	0
