'Start Wavelength	183.907
'End Wavelength	1046.922
'Gate Delay	5.000
'Gate Width (ms)	1.050
'Laser Output Level	0.000
'X Position	0.000
'Y Position	0.000
'Z Position	0.000
'Grid Point Number	1.000
'Shot Number	100.000
183.907	714.000
183.977	-243.000
184.047	-323
184.116	156
184.186	322
184.256	-566
184.325	-49
184.395	-943
184.465	758
184.534	-339
184.604	-746
184.674	-154
184.743	-952
184.813	-210
184.883	314
184.952	-655
185.022	157
185.092	-506
185.161	-66
185.231	-251
185.301	-20
185.370	12
185.440	-831
185.509	-201
185.579	-164
185.649	-477
185.718	-186
185.788	-242
185.857	-298
185.927	388
185.996	-383
186.066	417
186.136	-398
186.205	-1009
186.275	-118
186.344	-725
186.414	-665
186.483	-1496
186.553	464
186.622	345
186.692	-534
186.761	-131
186.831	-37
186.900	-1211
186.970	7
187.039	-90
187.109	169
187.178	-639
187.248	28
187.317	-487
187.387	-344
187.456	-1
187.526	-180
187.595	50
187.664	-649
187.734	173
187.803	-506
187.873	-138
187.942	-607
188.012	-573
188.081	22
188.150	-381
188.220	335
188.289	-434
188.358	-609
188.428	-126
188.497	-527
188.567	-286
188.636	-409
188.705	313
188.775	53
188.844	-1279
188.913	24
188.983	310
189.052	-356
189.121	-345
189.191	-235
189.260	362
189.329	-423
189.399	-1204
189.468	113
189.537	-242
189.606	37
189.676	-453
189.745	-303
189.814	-331
189.883	-419
189.953	-516
190.022	514
190.091	-532
190.161	-776
190.230	395
190.299	-502
190.368	-607
190.437	-400
190.507	198
190.576	-570
190.645	-12
190.714	-666
190.783	-833
190.853	-147
190.922	-178
190.991	-678
191.060	608
191.129	-1164
191.198	119
191.268	-810
191.337	-203
191.406	-329
191.475	-498
191.544	-174
191.613	-46
191.682	-1011
191.752	-1008
191.821	-791
191.890	-1148
191.959	-630
192.028	-503
192.097	50
192.166	-257
192.235	-465
192.304	-242
192.373	-216
192.442	-945
192.511	42
192.580	-754
192.650	-421
192.719	-458
192.788	-215
192.857	-290
192.926	-179
192.995	-307
193.064	-1116
193.133	-222
193.202	-236
193.271	-973
193.340	-118
193.409	-404
193.478	267
193.547	115
193.615	-617
193.684	-160
193.753	-661
193.822	37
193.891	-574
193.960	-405
194.029	-319
194.098	-75
194.167	-603
194.236	-193
194.305	-676
194.374	-54
194.443	44
194.512	-559
194.580	-213
194.649	-282
194.718	-460
194.787	-622
194.856	-621
194.925	31
194.994	-1347
195.062	14
195.131	-560
195.200	-120
195.269	-97
195.338	-311
195.407	-39
195.475	-669
195.544	-217
195.613	-264
195.682	-1019
195.751	-97
195.819	-540
195.888	78
195.957	628
196.026	-334
196.094	-120
196.163	-625
196.232	92
196.301	-168
196.369	-88
196.438	-600
196.507	-362
196.576	-276
196.644	-1172
196.713	-532
196.782	-536
196.850	502
196.919	30
196.988	-181
197.056	-517
197.125	-506
197.194	279
197.262	-377
197.331	-191
197.400	-1442
197.468	602
197.537	193
197.606	-763
197.674	-48
197.743	437
197.812	-979
197.880	82
197.949	-437
198.017	-255
198.086	-435
198.155	159
198.223	165
198.292	-913
198.360	-323
198.429	-603
198.497	-242
198.566	-610
198.635	-663
198.703	595
198.772	-83
198.840	-392
198.909	-774
198.977	-1374
199.046	-287
199.114	-580
199.183	-137
199.251	-691
199.320	-1373
199.388	55
199.457	-743
199.525	-75
199.594	-290
199.662	-893
199.731	-119
199.799	-83
199.867	-797
199.936	-841
200.004	-500
200.073	-416
200.141	-601
200.210	-768
200.278	-926
200.346	-216
200.415	114
200.483	-1178
200.552	-860
200.620	-573
200.688	-78
200.757	-283
200.825	-916
200.893	-277
200.962	-267
201.030	-465
201.098	-488
201.167	-459
201.235	99
201.303	-1164
201.372	-243
201.440	75
201.508	-452
201.577	-636
201.645	-217
201.713	-737
201.781	-1085
201.850	-894
201.918	-311
201.986	-431
202.055	263
202.123	-716
202.191	-525
202.259	-826
202.327	-778
202.396	-872
202.464	-381
202.532	-780
202.600	-208
202.669	-1055
202.737	-349
202.805	-761
202.873	-353
202.941	5
203.009	-249
203.078	-876
203.146	-411
203.214	-314
203.282	-1528
203.350	-146
203.418	-1267
203.487	-83
203.555	66
203.623	-1076
203.691	-1185
203.759	-236
203.827	-359
203.895	-1454
203.963	-194
204.031	-1377
204.099	-1045
204.168	-357
204.236	-130
204.304	-8
204.372	-173
204.440	-641
204.508	-1335
204.576	-482
204.644	-411
204.712	-1056
204.780	-523
204.848	-448
204.916	-642
204.984	-796
205.052	-233
205.120	-632
205.188	-969
205.256	-1139
205.324	-994
205.392	-378
205.460	-767
205.528	-559
205.596	-102
205.664	-1022
205.732	-568
205.799	-514
205.867	-623
205.935	-1608
206.003	124
206.071	-1604
206.139	-1255
206.207	-70
206.275	-596
206.343	-904
206.411	-937
206.478	62
206.546	-804
206.614	-1025
206.682	-1364
206.750	-701
206.818	-921
206.885	-474
206.953	-1591
207.021	636
207.089	-543
207.157	-648
207.225	-1044
207.292	-925
207.360	-238
207.428	-1037
207.496	-665
207.563	-290
207.631	-720
207.699	-925
207.767	-1113
207.834	-1018
207.902	-1148
207.970	-879
208.038	-1733
208.105	-879
208.173	-1079
208.241	-1358
208.309	-735
208.376	-1297
208.444	-983
208.512	-1148
208.579	-1914
208.647	-274
208.715	-315
208.782	-449
208.850	-725
208.918	-760
208.985	-181
209.053	-619
209.120	-1132
209.188	-1291
209.256	-1238
209.323	-1361
209.391	-192
209.459	375
209.526	-202
209.594	-336
209.661	-855
209.729	-1016
209.796	-375
209.864	107
209.932	-2416
209.999	794
210.067	-728
210.134	-718
210.202	-1962
210.269	-278
210.337	-598
210.404	-806
210.472	-631
210.539	-233
210.607	-1595
210.674	-875
210.742	-1546
210.809	-1200
210.877	-624
210.944	368
211.012	-1222
211.079	359
211.146	-957
211.214	-777
211.281	-1054
211.349	-189
211.416	-689
211.484	192
211.551	-1114
211.618	-195
211.686	-1047
211.753	-1329
211.821	-917
211.888	-1021
211.955	-656
212.023	-864
212.090	-392
212.157	-497
212.225	-644
212.292	-828
212.359	-62
212.427	875
212.494	-701
212.561	-1074
212.629	-764
212.696	-424
212.763	-458
212.831	-1247
212.898	-1165
212.965	-779
213.032	-742
213.100	-921
213.167	-656
213.234	-472
213.301	-1069
213.369	-341
213.436	-1274
213.503	-726
213.570	-670
213.638	-1030
213.705	-1435
213.772	-1241
213.839	-252
213.906	-518
213.973	-844
214.041	-1023
214.108	-250
214.175	-804
214.242	-1567
214.309	-824
214.376	-978
214.444	-1172
214.511	-662
214.578	-639
214.645	-834
214.712	-619
214.779	-1427
214.846	-1102
214.913	-751
214.980	-968
215.048	-1160
215.115	-121
215.182	-1450
215.249	-1088
215.316	-555
215.383	-356
215.450	-906
215.517	-62
215.584	-669
215.651	-147
215.718	-507
215.785	-185
215.852	-997
215.919	-382
215.986	-1121
216.053	-818
216.120	-1057
216.187	78
216.254	-197
216.321	-73
216.388	-1029
216.455	-580
216.522	-517
216.589	-817
216.656	-601
216.722	-321
216.789	-327
216.856	-601
216.923	-779
216.990	-496
217.057	-404
217.124	-490
217.191	-884
217.258	23
217.324	-849
217.391	748
217.458	-1069
217.525	-796
217.592	-1226
217.659	-1356
217.725	-536
217.792	-937
217.859	208
217.926	-1128
217.993	-711
218.059	-143
218.126	-798
218.193	-561
218.260	-793
218.327	-851
218.393	-1637
218.460	-1118
218.527	-1922
218.594	-580
218.660	-935
218.727	-322
218.794	-1702
218.860	-165
218.927	-449
218.994	-518
219.061	-1123
219.127	-560
219.194	-949
219.261	-502
219.327	-557
219.394	85
219.461	-1465
219.527	-1034
219.594	-739
219.661	-1257
219.727	-1263
219.794	-684
219.860	-741
219.927	-764
219.994	-516
220.060	-1000
220.127	-792
220.193	-717
220.260	-545
220.326	-197
220.393	-1174
220.460	-379
220.526	-727
220.593	-816
220.659	108
220.726	-1060
220.792	122
220.859	-841
220.925	32
220.992	84
221.058	117
221.125	173
221.191	-914
221.258	-1212
221.324	-21
221.391	-792
221.457	-653
221.524	-452
221.590	-669
221.657	14
221.723	-762
221.789	-876
221.856	502
221.922	-1953
221.989	-157
222.055	-1261
222.121	-2700
222.188	22
222.254	-1327
222.321	-860
222.387	-1355
222.453	-1193
222.520	-1815
222.586	-938
222.652	-779
222.719	-1232
222.785	-271
222.851	-1017
222.918	-450
222.984	-586
223.050	-514
223.116	-1900
223.183	-337
223.249	-1566
223.315	-1845
223.382	-828
223.448	-716
223.514	-1106
223.580	-1524
223.647	-1688
223.713	-1703
223.779	-625
223.845	-1020
223.911	-1227
223.978	-1790
224.044	-680
224.110	-1365
224.176	-360
224.242	-1004
224.309	-1575
224.375	-541
224.441	-716
224.507	-1190
224.573	-2057
224.639	-1230
224.705	-1867
224.772	-814
224.838	-1374
224.904	-1125
224.970	-568
225.036	-1155
225.102	-1735
225.168	-698
225.234	-316
225.300	-1625
225.366	-619
225.432	-458
225.499	-777
225.565	-1285
225.631	-975
225.697	-905
225.763	-143
225.829	-1018
225.895	-587
225.961	-740
226.027	-587
226.093	-1513
226.159	-252
226.225	-756
226.291	93
226.357	537
226.423	-219
226.489	-1282
226.554	-1373
226.620	-241
226.686	-1484
226.752	-755
226.818	-446
226.884	843
226.950	1351
227.016	-375
227.082	-532
227.148	-801
227.214	-1383
227.279	-1582
227.345	-1417
227.411	-1520
227.477	-1052
227.543	-1675
227.609	-445
227.674	-494
227.740	-1535
227.806	-374
227.872	-1608
227.938	-458
228.003	-471
228.069	-585
228.135	-1789
228.201	-409
228.267	-936
228.332	-1324
228.398	-1831
228.464	-196
228.530	-1694
228.595	-1135
228.661	-1703
228.727	-1665
228.792	-285
228.858	-1284
228.924	-2097
228.990	595
229.055	-1836
229.121	-119
229.187	-999
229.252	-1700
229.318	-521
229.384	-406
229.449	-984
229.515	-2896
229.581	-1634
229.646	723
229.712	-896
229.777	-1486
229.843	-1047
229.909	-865
229.974	-557
230.040	-1003
230.105	-792
230.171	-1554
230.236	453
230.302	-1246
230.368	-913
230.433	-1387
230.499	-1311
230.564	-331
230.630	-1875
230.695	-839
230.761	-189
230.826	-1732
230.892	145
230.957	-1432
231.023	-901
231.088	-824
231.154	-1025
231.219	-1229
231.284	-455
231.350	-562
231.415	-2752
231.481	255
231.546	-700
231.612	-674
231.677	-1291
231.742	-2867
231.808	-86
231.873	-1743
231.939	-2660
232.004	-201
232.069	-501
232.135	-597
232.200	-1049
232.265	-250
232.331	-1633
232.396	-1242
232.461	-938
232.527	-1770
232.592	-1220
232.657	-599
232.723	-636
232.788	-1518
232.853	-1232
232.918	-923
232.984	-2697
233.049	-1861
233.114	-1071
233.179	-784
233.245	-137
233.310	-697
233.375	-1216
233.440	-864
233.506	-1417
233.571	-1934
233.636	-341
233.701	-1114
233.766	-935
233.832	-870
233.897	-1323
233.962	-2798
234.027	-365
234.092	-1350
234.157	-1483
234.222	-1097
234.288	-358
234.353	-678
234.418	-352
234.483	-76
234.548	-617
234.613	-1186
234.678	-233
234.743	-1181
234.808	713
234.873	-2128
234.938	463
235.004	-1627
235.069	-732
235.134	-2060
235.199	-310
235.264	-324
235.329	-2144
235.394	-412
235.459	-452
235.524	-2272
235.589	-114
235.654	-1155
235.719	-2265
235.784	-1050
235.849	-1146
235.913	-1329
235.978	-1172
236.043	-975
236.108	-1832
236.173	-553
236.238	-1136
236.303	-1402
236.368	-2217
236.433	-371
236.498	-1621
236.563	-828
236.627	-674
236.692	2331
236.757	805
236.822	-709
236.887	-455
236.952	335
237.017	-1347
237.081	580
237.146	-1764
237.211	-17
237.276	1820
237.341	3691
237.405	251
237.470	-888
237.535	-396
237.600	-1232
237.664	114
237.729	-1665
237.794	-1457
237.859	224
237.923	-396
237.988	-1126
238.053	-174
238.118	-1471
238.182	-232
238.247	312
238.312	-1931
238.376	-741
238.441	-2867
238.506	-446
238.570	-1854
238.635	259
238.700	-1277
238.764	-1896
238.829	-437
238.893	-1201
238.958	-718
239.023	-1508
239.087	-1035
239.152	-388
239.216	-1666
239.281	-215
239.346	-830
239.410	-1778
239.475	-1089
239.539	-200
239.604	-1613
239.668	-645
239.733	-755
239.797	-1478
239.862	-1724
239.926	-898
239.991	-832
240.055	-1347
240.120	-932
240.184	-941
240.249	-1501
240.313	-1357
240.378	-1265
240.442	-1114
240.507	155
240.571	-1367
240.635	-1143
240.700	-1347
240.764	-1291
240.829	-673
240.893	-2323
240.957	-167
241.022	-616
241.086	-11
241.151	-1628
241.215	-1550
241.279	-506
241.344	-1470
241.408	-841
241.472	-1664
241.537	-577
241.601	-634
241.665	-1891
241.730	-980
241.794	349
241.858	-986
241.922	-983
241.987	-1029
242.051	-1044
242.115	-2633
242.179	-91
242.244	-2101
242.308	-499
242.372	-791
242.436	-1416
242.501	-729
242.565	-1764
242.629	-793
242.693	-742
242.757	-1207
242.822	-1250
242.886	-449
242.950	-358
243.014	-1604
243.078	-376
243.142	-976
243.206	-2622
243.271	-1168
243.335	-1848
243.399	-1073
243.463	-929
243.527	2087
243.591	-803
243.655	-1080
243.719	-1921
243.783	233
243.847	-448
243.911	-489
243.975	-1198
244.040	-2536
244.104	1358
244.168	-760
244.232	-1566
244.296	-776
244.360	-1070
244.424	-1493
244.488	-1108
244.552	-577
244.615	-1935
244.679	-1105
244.743	-953
244.807	-2094
244.871	-1282
244.935	-512
244.999	-1967
245.063	-1658
245.127	23
245.191	-865
245.255	-1201
245.319	-1359
245.383	-2258
245.446	-505
245.510	-1614
245.574	-607
245.638	-495
245.702	-2081
245.766	-327
245.829	0
245.893	-2001
245.957	-1940
246.021	-167
246.085	-1096
246.149	-963
246.212	556
246.276	-808
246.340	-1610
246.404	-898
246.467	-773
246.531	-3070
246.595	-761
246.659	14
246.722	-2161
246.786	-210
246.850	-1347
246.913	-702
246.977	-2118
247.041	-1203
247.104	-962
247.168	-653
247.232	-1202
247.295	901
247.359	-266
247.423	-606
247.486	-490
247.550	-746
247.614	-1538
247.677	-225
247.741	-1250
247.804	-903
247.868	-540
247.932	-1313
247.995	94
248.059	-632
248.122	-2016
248.186	-38
248.249	-618
248.313	1312
248.376	1543
248.440	-533
248.503	-2009
248.567	620
248.630	-1254
248.694	-408
248.757	706
248.821	1517
248.884	1566
248.948	-543
249.011	1423
249.075	2600
249.138	1321
249.202	-64
249.265	-702
249.328	706
249.392	-2082
249.455	581
249.519	-974
249.582	-1379
249.645	-687
249.709	-805
249.772	-1056
249.835	-438
249.899	-1544
249.962	-1006
250.025	-1912
250.089	258
250.152	529
250.215	-1170
250.279	-1573
250.342	426
250.405	-755
250.468	-929
250.532	-1751
250.595	294
250.658	771
250.721	4868
250.785	391
250.848	916
250.911	-1545
250.974	-494
251.038	-1621
251.101	796
251.164	84
251.227	76
251.290	-440
251.354	-31
251.417	4027
251.480	3357
251.543	1346
251.606	8397
251.669	6296
251.732	1238
251.795	320
251.859	425
251.922	4108
251.985	1766
252.048	661
252.111	-44
252.174	-1448
252.237	154
252.300	2718
252.363	1722
252.426	7612
252.489	1188
252.552	487
252.615	-630
252.678	521
252.741	2072
252.804	1076
252.867	6882
252.930	2738
252.993	735
253.056	-58
253.119	-949
253.182	-920
253.245	-800
253.308	223
253.371	-759
253.434	-515
253.497	-245
253.559	1331
253.622	-296
253.685	-553
253.748	-901
253.811	-1619
253.874	-217
253.937	-1378
254.000	-891
254.062	-366
254.125	-96
254.188	-135
254.251	-1076
254.314	-1005
254.376	-712
254.439	-265
254.502	-770
254.565	-1322
254.628	1319
254.690	-591
254.753	-1740
254.816	-1326
254.878	-957
254.941	-29
255.004	-410
255.067	-799
255.129	-1559
255.192	-1292
255.255	-1951
255.317	-696
255.380	-1003
255.443	-1364
255.505	-2257
255.568	-2509
255.631	-1687
255.693	-1250
255.756	-1160
255.819	-24
255.881	-2218
255.944	-739
256.006	-1475
256.069	-1786
256.132	-1833
256.194	-1296
256.257	-1067
256.319	-886
256.382	-1771
256.444	-1473
256.507	-1335
256.569	-1285
256.632	-1899
256.694	-764
256.757	-44
256.819	4306
256.882	-1246
256.944	-1089
257.007	-548
257.069	-1444
257.132	-766
257.194	-218
257.257	-999
257.319	-1328
257.381	-1076
257.444	71
257.506	4395
257.569	5114
257.631	774
257.693	-488
257.756	-1000
257.818	-1215
257.880	-728
257.943	-983
258.005	-1071
258.067	-1688
258.130	-400
258.192	-1286
258.254	-727
258.317	-1068
258.379	-747
258.441	-931
258.503	398
258.566	-1003
258.628	434
258.690	-1955
258.753	-873
258.815	-875
258.877	-1472
258.939	-895
259.001	-890
259.064	-1200
259.126	-1553
259.188	-1536
259.250	-973
259.312	-1156
259.375	-293
259.437	-1741
259.499	-1248
259.561	-1928
259.623	-752
259.685	-2175
259.747	-700
259.809	-503
259.872	-223
259.934	155
259.996	1274
260.058	-316
260.120	-1493
260.182	-820
260.244	-700
260.306	-1725
260.368	-1366
260.430	-1511
260.492	-1217
260.554	-603
260.616	-1678
260.678	-514
260.740	720
260.802	-1809
260.864	-1739
260.926	-2374
260.988	-216
261.050	-1718
261.112	-1273
261.174	746
261.236	-115
261.298	-1248
261.359	-2014
261.421	136
261.483	-1305
261.545	-879
261.607	-2195
261.669	-1221
261.731	-1129
261.793	136
261.854	-2191
261.916	-506
261.978	-1482
262.040	-840
262.102	-800
262.164	-1734
262.225	-912
262.287	-1107
262.349	-324
262.411	-850
262.472	-870
262.534	-2255
262.596	-1348
262.658	-1002
262.719	-2275
262.781	-792
262.843	-1372
262.904	-958
262.966	-1674
263.028	-1261
263.090	355
263.151	3256
263.213	581
263.275	-1084
263.336	-1775
263.398	-720
263.459	-2167
263.521	-1165
263.583	-955
263.644	-1168
263.706	-963
263.767	-2009
263.829	-826
263.891	-1044
263.952	-2471
264.014	-1495
264.075	-1655
264.137	-905
264.198	-1559
264.260	-1688
264.321	-867
264.383	-948
264.444	260
264.506	-1741
264.567	-1039
264.629	-714
264.690	-1482
264.752	-856
264.813	-1488
264.875	-2215
264.936	-1264
264.998	-1390
265.059	-1471
265.120	-839
265.182	-1125
265.243	442
265.305	1073
265.366	-902
265.427	-1196
265.489	-471
265.550	-2723
265.611	-1862
265.673	-2055
265.734	-744
265.795	-1231
265.857	-1647
265.918	-1794
265.979	-429
266.040	2794
266.102	1866
266.163	243
266.224	-788
266.286	-1541
266.347	-1461
266.408	-1637
266.469	-1458
266.530	-1112
266.592	-1656
266.653	-881
266.714	-1026
266.775	-1867
266.836	-1623
266.898	-1910
266.959	-1883
267.020	-1703
267.081	-860
267.142	-1188
267.203	-1351
267.264	-2157
267.326	-1713
267.387	-1864
267.448	-1347
267.509	-1653
267.570	-1885
267.631	-1702
267.692	-1921
267.753	-1242
267.814	-1786
267.875	-758
267.936	-350
267.997	-1428
268.058	-2093
268.119	-1480
268.180	-1955
268.241	-2069
268.302	-1553
268.363	-2127
268.424	-1365
268.485	-1002
268.546	-2361
268.607	-1650
268.668	-942
268.729	-2102
268.790	-1721
268.851	-1485
268.912	-1336
268.972	-392
269.033	-1757
269.094	-2210
269.155	-1049
269.216	-1680
269.277	-1413
269.338	-1737
269.398	-1734
269.459	-2009
269.520	-1190
269.581	-1133
269.642	-1340
269.702	-1611
269.763	-1303
269.824	-2020
269.885	-1265
269.945	-430
270.006	-1145
270.067	-1928
270.128	-2160
270.188	-1970
270.249	-2161
270.310	-1744
270.370	-1487
270.431	-1909
270.492	-1136
270.553	-1304
270.613	-1644
270.674	-925
270.734	-1243
270.795	-1741
270.856	-910
270.916	-2022
270.977	-1354
271.038	-1488
271.098	-1605
271.159	-1613
271.219	-1601
271.280	-2174
271.340	-1026
271.401	-1958
271.462	-1985
271.522	-1574
271.583	-788
271.643	-717
271.704	-1432
271.764	-1059
271.825	-949
271.885	1222
271.946	1592
272.006	-390
272.066	318
272.127	1040
272.187	-912
272.248	-1464
272.308	-1574
272.369	1507
272.429	-628
272.489	-1296
272.550	-1084
272.610	-834
272.671	-774
272.731	-956
272.791	-1518
272.852	-2083
272.912	-1055
272.972	-745
273.033	-2059
273.093	-1666
273.153	-905
273.214	-1009
273.274	-1462
273.334	-976
273.394	919
273.455	-1297
273.515	-295
273.575	-245
273.635	-265
273.696	-670
273.756	607
273.816	-713
273.876	-740
273.936	-1367
273.997	-359
274.057	-1571
274.117	-1341
274.177	-918
274.237	628
274.297	1568
274.358	-539
274.418	1080
274.478	123
274.538	-1651
274.598	-1661
274.658	-570
274.718	-595
274.778	-1512
274.838	-1780
274.898	-1281
274.958	409
275.018	1200
275.078	-71
275.138	-893
275.198	-1769
275.258	-1233
275.318	-1219
275.378	-1066
275.438	-521
275.498	-1152
275.558	-826
275.618	1192
275.678	-12
275.738	-695
275.798	-712
275.858	-1293
275.918	-1314
275.978	-1660
276.038	-1767
276.098	-1770
276.157	-1731
276.217	159
276.277	-1480
276.337	-1957
276.397	-1299
276.457	-1489
276.517	-1604
276.576	-805
276.636	-2399
276.696	-1852
276.756	-769
276.815	-894
276.875	-1847
276.935	-2120
276.995	-1331
277.055	-1268
277.114	-2145
277.174	-952
277.234	80
277.293	-639
277.353	-1669
277.413	-1157
277.472	-1468
277.532	-1677
277.592	-1951
277.651	-857
277.711	-87
277.771	-1412
277.830	1162
277.890	501
277.950	135
278.009	2159
278.069	23
278.128	-256
278.188	-6
278.248	-848
278.307	554
278.367	-166
278.426	-1520
278.486	-2132
278.545	-1979
278.605	-1783
278.664	-1664
278.724	-1868
278.783	-930
278.843	1453
278.902	-1009
278.962	-1984
279.021	-1957
279.081	-1164
279.140	-1166
279.199	-951
279.259	-1280
279.318	-244
279.378	-685
279.437	-658
279.496	2308
279.556	9700
279.615	8093
279.675	803
279.734	251
279.793	-403
279.853	2310
279.912	310
279.971	-1607
280.031	-1688
280.090	-308
280.149	856
280.208	22
280.268	6127
280.327	6803
280.386	-342
280.445	-1217
280.505	-715
280.564	-965
280.623	-1609
280.682	-1477
280.742	257
280.801	-1839
280.860	-2126
280.919	-2362
280.978	-1372
281.037	-1700
281.097	-2311
281.156	-1828
281.215	-2040
281.274	-1987
281.333	-193
281.392	231
281.451	-1134
281.510	-1761
281.569	-2144
281.628	-1588
281.688	-1757
281.747	-1921
281.806	-1767
281.865	-1262
281.924	-1397
281.983	-2311
282.042	-2187
282.101	-1471
282.160	-2272
282.219	-1976
282.278	-1344
282.337	-1041
282.396	-1792
282.454	-1205
282.513	-1751
282.572	-61
282.631	-1290
282.690	-922
282.749	-1582
282.808	-2107
282.867	-2528
282.926	-1133
282.985	-1013
283.043	-1768
283.102	-1496
283.161	-1416
283.220	-1415
283.279	-205
283.338	-1064
283.396	-1785
283.455	-1080
283.514	-2034
283.573	-670
283.631	-1664
283.690	-1155
283.749	-1926
283.808	-781
283.866	-744
283.925	-1952
283.984	-1446
284.043	-1762
284.101	-988
284.160	-1581
284.219	-1322
284.277	-1029
284.336	-1471
284.395	772
284.453	118
284.512	-1076
284.570	-1164
284.629	-1259
284.688	-1637
284.746	-1788
284.805	-1369
284.863	-314
284.922	-1043
284.981	-578
285.039	381
285.098	426
285.156	4496
285.215	16689
285.273	18120
285.332	8461
285.390	2275
285.449	1016
285.507	-247
285.566	-24
285.624	-907
285.683	-483
285.741	-1030
285.799	-922
285.858	-993
285.916	-1376
285.975	-1428
286.033	-1963
286.091	-1741
286.150	-2118
286.208	-1196
286.267	-1634
286.325	-2016
286.383	-1596
286.442	-765
286.500	-1761
286.558	-1109
286.616	-1656
286.675	-1693
286.733	-1749
286.791	-1981
286.850	-828
286.908	-1480
286.966	-1233
287.024	-1739
287.083	-1430
287.141	-1449
287.199	-1293
287.257	-1591
287.315	-1211
287.374	-2422
287.432	-1437
287.490	-1140
287.548	-2302
287.606	-1419
287.664	-1855
287.723	-1296
287.781	-662
287.839	-1660
287.897	-1828
287.955	-985
288.013	-1791
288.071	-178
288.129	5374
288.187	21610
288.245	8849
288.303	2108
288.361	799
288.419	-1167
288.477	-1089
288.535	-1174
288.593	-1205
288.651	-1304
288.709	-1755
288.767	-1890
288.825	-1747
288.883	-1729
288.941	-1256
288.999	-1283
289.057	-1342
289.115	-1782
289.173	-1811
289.231	-1664
289.289	-1118
289.346	-1565
289.404	-1142
289.462	-2156
289.520	-1704
289.578	-2163
289.636	-1334
289.694	-1615
289.751	-1508
289.809	-1504
289.867	-2041
289.925	-1320
289.983	-1614
290.040	-1264
290.098	-1582
290.156	-1751
290.214	-2169
290.271	-1593
290.329	-1158
290.387	-1341
290.444	-1967
290.502	-2087
290.560	-2291
290.617	-1681
290.675	-1355
290.733	-1537
290.790	-1768
290.848	-896
290.906	-2413
290.963	-1430
291.021	-1878
291.078	-1269
291.136	-2297
291.194	-717
291.251	725
291.309	-1348
291.366	-1159
291.424	-2266
291.481	-2214
291.539	-2664
291.596	-1524
291.654	-2325
291.711	-1851
291.769	-1484
291.826	-1379
291.884	-1597
291.941	-2201
291.999	-1359
292.056	-1978
292.114	-2288
292.171	-1651
292.228	-2731
292.286	-1569
292.343	-2099
292.401	-1500
292.458	-1582
292.515	-1639
292.573	-1220
292.630	-2163
292.687	-2006
292.745	-1717
292.802	-1306
292.859	-1175
292.917	274
292.974	-592
293.031	-515
293.089	-1493
293.146	-1917
293.203	-2002
293.260	-1883
293.318	-2134
293.375	-758
293.432	-1853
293.489	-1736
293.546	-1914
293.604	-2531
293.661	-808
293.718	1188
293.775	-339
293.832	-1297
293.889	-1774
293.947	-1490
294.004	-1360
294.061	-1896
294.118	-1492
294.175	-54
294.232	1061
294.289	-771
294.346	-1970
294.403	-644
294.460	-1676
294.517	-1691
294.574	-1472
294.631	-1765
294.688	-2003
294.745	-639
294.802	3065
294.859	2629
294.916	-97
294.973	-1143
295.030	-2027
295.087	-1174
295.144	-1169
295.201	-1590
295.258	-1580
295.315	-1041
295.372	-693
295.429	1361
295.486	-224
295.542	-1004
295.599	-845
295.656	1876
295.713	272
295.770	1340
295.827	-321
295.883	-960
295.940	-1999
295.997	-828
296.054	-957
296.111	-2247
296.167	-1185
296.224	-1751
296.281	-1711
296.338	-1722
296.394	-1895
296.451	-1522
296.508	-701
296.564	687
296.621	32
296.678	738
296.734	3846
296.791	454
296.848	-1129
296.904	-1553
296.961	-745
297.018	1064
297.074	1082
297.131	-971
297.187	-1114
297.244	-738
297.301	1342
297.357	4835
297.414	80
297.470	-937
297.527	-2165
297.583	-1978
297.640	-1349
297.696	-1688
297.753	-1826
297.809	-1657
297.866	-1841
297.922	-1048
297.979	-2598
298.035	-1429
298.092	-1446
298.148	-186
298.204	948
298.261	-1132
298.317	142
298.374	2367
298.430	887
298.486	-983
298.543	-1398
298.599	-1596
298.656	-1553
298.712	-934
298.768	1515
298.824	67
298.881	-1339
298.937	-1220
298.993	-1045
299.050	-1619
299.106	-1828
299.162	-1923
299.218	-1052
299.275	-1463
299.331	-1481
299.387	-1153
299.443	2214
299.500	2607
299.556	-331
299.612	-822
299.668	-1216
299.724	-2066
299.780	-1364
299.837	-2174
299.893	-1393
299.949	511
300.005	1624
300.061	419
300.117	2368
300.173	892
300.229	-829
300.285	-1313
300.341	93
300.397	-2121
300.453	-1772
300.510	-2106
300.566	-1141
300.622	-1164
300.678	-1368
300.734	299
300.790	27
300.845	1457
300.901	32
300.957	980
301.013	1125
301.069	-1335
301.125	-1894
301.181	-1958
301.237	-1461
301.293	-1757
301.349	-1160
301.405	-1921
301.461	-1363
301.516	-1766
301.572	-1286
301.628	-693
301.684	-934
301.740	-852
301.796	735
301.851	-807
301.907	-149
301.963	221
302.019	1060
302.074	7832
302.130	8770
302.186	3276
302.242	547
302.297	-662
302.353	-325
302.409	-316
302.464	-93
302.520	-638
302.576	1461
302.631	2989
302.687	761
302.743	-1383
302.798	-1822
302.854	-1663
302.910	-1855
302.965	-1293
303.021	-427
303.076	-400
303.132	-678
303.187	-919
303.243	-1880
303.299	-2848
303.354	-2026
303.410	-1315
303.465	-1878
303.521	-1545
303.576	-1134
303.632	-1160
303.687	-1242
303.743	774
303.798	1266
303.853	-973
303.909	-1974
303.964	-1453
304.020	-686
304.075	-447
304.130	-1051
304.186	-240
304.241	1205
304.297	-308
304.352	-1150
304.358	-1174
304.407	-1368
304.449	-1292
304.463	-1265
304.518	-1224
304.539	-1421
304.573	-1751
304.629	-783
304.630	-786
304.684	-916
304.720	38
304.739	509
304.794	2486
304.811	1886
304.850	454
304.902	-1140
304.905	-1245
304.960	-1622
304.992	-1034
305.015	-619
305.071	-1724
305.083	-1699
305.126	-1590
305.173	-1756
305.181	-1782
305.236	-2022
305.264	-1836
305.292	-1639
305.347	-1218
305.354	-1199
305.402	-1074
305.445	-830
305.457	-780
305.512	-808
305.535	-755
305.567	-624
305.622	-977
305.626	-948
305.678	-280
305.716	1077
305.733	1540
305.788	2918
305.807	2236
305.843	1067
305.897	1940
305.898	1950
305.953	2378
305.988	1202
306.008	555
306.063	-425
306.078	-383
306.118	-185
306.168	-684
306.173	-741
306.228	-846
306.259	-939
306.283	-885
306.338	-1020
306.349	-1033
306.393	-1445
306.440	-1224
306.448	-1114
306.503	-1286
306.530	-1110
306.558	-845
306.613	-51
306.620	123
306.668	1124
306.711	1847
306.723	1911
306.778	1524
306.801	696
306.833	-156
306.888	-262
306.892	-293
306.943	-732
306.982	-1012
306.997	-1081
307.052	-1024
307.072	-965
307.107	-782
307.162	-581
307.163	-578
307.217	-89
307.253	-1
307.272	-48
307.327	-575
307.343	-655
307.381	-568
307.434	-665
307.436	-651
307.491	352
307.524	1520
307.546	1951
307.600	1622
307.614	1320
307.655	413
307.704	-96
307.710	-76
307.765	-6
307.795	104
307.819	111
307.874	1506
307.885	1360
307.929	446
307.975	589
307.984	740
308.038	1355
308.065	2256
308.093	4730
308.148	10142
308.156	11669
308.202	18709
308.246	23069
308.257	22814
308.312	12970
308.336	8784
308.366	5911
308.421	2797
308.426	2625
308.475	1860
308.517	1404
308.530	1200
308.585	307
308.607	160
308.639	337
308.694	619
308.697	630
308.748	1223
308.787	2299
308.803	2351
308.857	1762
308.877	1319
308.912	880
308.967	847
308.967	847
309.021	1935
309.058	2733
309.076	3365
309.130	5594
309.148	6842
309.185	14842
309.238	28499
309.239	28546
309.293	30644
309.328	26458
309.348	22925
309.402	11010
309.418	8075
309.457	4796
309.508	2379
309.511	2317
309.566	1962
309.598	2143
309.620	2266
309.674	2476
309.688	2551
309.729	2287
309.778	1770
309.783	1727
309.837	1123
309.868	913
309.892	1437
309.946	2693
309.959	3189
310.001	4083
310.049	4551
310.055	4403
310.109	2508
310.139	1265
310.163	657
310.218	-198
310.229	-332
310.272	65
310.319	550
310.326	493
310.381	-47
310.409	-305
310.435	-276
310.489	-141
310.499	-111
310.543	193
310.589	293
310.598	233
310.652	56
310.679	-139
310.706	-235
310.760	-332
310.769	-346
310.814	-104
310.859	123
310.868	89
310.923	-231
310.948	-433
310.977	-156
311.031	618
311.038	708
311.085	173
311.128	-467
311.139	-406
311.193	-0
311.218	168
311.247	364
311.301	703
311.308	746
311.356	787
311.398	728
311.410	662
311.464	270
311.488	128
311.518	237
311.572	404
311.578	414
311.626	339
311.668	279
311.680	286
311.734	236
311.758	238
311.788	302
311.842	341
311.847	341
311.896	674
311.937	1002
311.950	922
312.004	506
312.027	327
312.058	559
312.112	966
312.117	1000
312.165	708
312.207	443
312.297	723
312.386	599
312.476	1497
312.566	595
312.656	1049
312.745	199
312.835	666
312.925	411
313.015	510
313.104	230
313.194	361
313.284	146
313.374	475
313.463	287
313.553	105
313.643	84
313.732	367
313.822	145
313.912	725
314.001	74
314.091	609
314.180	94
314.270	1095
314.360	344
314.449	-55
314.539	-230
314.628	27
314.718	608
314.808	490
314.897	514
314.987	-338
315.076	310
315.166	127
315.255	264
315.345	692
315.434	102
315.524	922
315.613	-17
315.703	709
315.792	72
315.881	1448
315.971	-79
316.060	1137
316.150	1105
316.239	1646
316.328	673
316.418	-150
316.507	-1187
316.597	1214
316.686	-85
316.775	225
316.865	1183
316.954	1499
317.043	-534
317.133	-260
317.222	-466
317.311	459
317.400	-673
317.490	501
317.579	73
317.668	340
317.757	298
317.847	944
317.936	914
318.025	1226
318.114	-225
318.203	254
318.293	522
318.382	1992
318.471	1101
318.560	2594
318.649	4005
318.738	1157
318.828	35
318.917	143
319.006	633
319.095	1724
319.184	6119
319.273	2960
319.362	915
319.451	-474
319.540	-150
319.629	410
319.718	1709
319.807	428
319.896	1310
319.985	7995
320.074	1623
320.163	821
320.252	442
320.341	446
320.430	305
320.519	487
320.608	29
320.697	1167
320.786	279
320.875	677
320.964	312
321.053	1530
321.142	974
321.230	1658
321.319	479
321.408	2852
321.497	706
321.586	1370
321.675	1193
321.764	1369
321.852	190
321.941	1433
322.030	785
322.119	440
322.207	2915
322.296	1924
322.385	396
322.474	1010
322.562	2637
322.651	1309
322.740	750
322.829	1551
322.917	1185
323.006	780
323.095	843
323.183	293
323.272	1091
323.361	1597
323.449	6998
323.538	810
323.626	2955
323.715	1726
323.804	-20
323.892	4191
323.981	730
324.069	559
324.158	2200
324.246	1588
324.335	512
324.424	958
324.512	7
324.601	596
324.689	1652
324.778	2825
324.866	1176
324.954	883
325.043	414
325.131	-25
325.220	1995
325.308	1385
325.397	979
325.485	490
325.574	288
325.662	17
325.750	-174
325.839	331
325.927	-244
326.015	504
326.104	267
326.192	1033
326.280	-479
326.369	399
326.457	-75
326.545	793
326.634	-40
326.722	211
326.810	-412
326.898	-396
326.987	-57
327.075	-458
327.163	1214
327.251	240
327.340	-102
327.428	814
327.516	-439
327.604	-123
327.692	200
327.781	532
327.869	655
327.957	67
328.045	-94
328.133	48
328.221	623
328.309	149
328.397	338
328.485	213
328.574	447
328.662	1599
328.750	105
328.838	253
328.926	-180
329.014	-119
329.102	104
329.190	1590
329.278	270
329.366	-203
329.454	-293
329.542	-26
329.630	110
329.718	-230
329.806	-58
329.893	758
329.981	-510
330.069	1950
330.157	6346
330.245	16962
330.333	7398
330.421	1151
330.509	724
330.597	2326
330.684	-164
330.772	229
330.860	375
330.948	1425
331.036	-161
331.123	-277
331.211	-707
331.299	-564
331.387	563
331.475	467
331.562	-31
331.650	26
331.738	-294
331.825	155
331.913	-408
332.001	371
332.089	-766
332.176	309
332.264	810
332.352	322
332.439	238
332.527	135
332.614	-563
332.702	26
332.790	-283
332.877	320
332.965	652
333.052	-113
333.140	-590
333.228	556
333.315	-218
333.403	17
333.490	319
333.578	-184
333.665	863
333.753	-295
333.840	-562
333.928	-122
334.015	531
334.103	2190
334.190	7461
334.278	1767
334.365	-133
334.452	120
334.540	-615
334.627	-757
334.715	294
334.802	774
334.889	6080
334.977	4433
335.064	-156
335.151	-37
335.239	-475
335.326	84
335.413	4277
335.501	4531
335.588	36
335.675	-315
335.762	114
335.850	324
335.937	-78
336.024	1627
336.111	6805
336.199	1661
336.286	-49
336.373	-508
336.460	-1024
336.547	-253
336.635	-30
336.722	-288
336.809	-685
336.896	-428
336.983	1726
337.070	5566
337.157	7134
337.245	4967
337.332	2698
337.419	-613
337.506	-918
337.593	-17
337.680	1525
337.767	5699
337.854	325
337.941	662
338.028	535
338.115	-308
338.202	0
338.289	1222
338.376	2521
338.463	1081
338.550	2716
338.637	2585
338.724	642
338.811	1363
338.898	-10
338.984	-760
339.071	-550
339.158	-220
339.245	-62
339.332	-12
339.419	-531
339.506	668
339.593	-1346
339.679	64
339.766	-1644
339.853	442
339.940	256
340.027	-212
340.113	-624
340.200	238
340.287	-891
340.374	184
340.460	-618
340.547	-635
340.634	129
340.720	2442
340.807	119
340.894	-105
340.980	-377
341.067	-973
341.154	-602
341.240	-659
341.327	-309
341.414	901
341.500	-482
341.587	284
341.674	-172
341.760	991
341.847	-162
341.933	-445
342.020	-1454
342.106	-917
342.193	-803
342.279	347
342.366	-1124
342.452	95
342.539	-659
342.625	133
342.712	990
342.798	23
342.885	-537
342.971	-267
343.058	-913
343.144	-1101
343.230	-460
343.317	-494
343.403	-539
343.490	426
343.576	-693
343.662	244
343.749	-652
343.835	-958
343.921	275
344.008	6204
344.094	12760
344.180	2250
344.267	-689
344.353	3215
344.439	2364
344.525	492
344.612	867
344.698	27
344.784	-870
344.870	-186
344.957	-392
345.043	647
345.129	-1093
345.215	296
345.301	-748
345.387	-501
345.474	-915
345.560	-362
345.646	-1106
345.732	-600
345.818	-625
345.904	27
345.990	-1010
346.076	-42
346.162	-445
346.249	-28
346.335	-586
346.421	230
346.507	536
346.593	3302
346.679	-788
346.765	1002
346.851	-1073
346.937	-832
347.023	279
347.108	-17
347.194	-1359
347.280	-601
347.366	-121
347.452	1045
347.538	4717
347.624	5344
347.710	2183
347.796	-198
347.882	-866
347.967	-560
348.053	-658
348.139	713
348.225	-606
348.311	-1662
348.397	-904
348.482	115
348.568	-264
348.654	199
348.740	-929
348.825	-1945
348.911	463
348.997	2311
349.083	5077
349.168	489
349.254	-162
349.340	-511
349.425	-320
349.511	-362
349.597	-142
349.682	-456
349.768	2796
349.854	384
349.939	-614
350.025	-828
350.110	-188
350.196	-1033
350.282	-1067
350.367	318
350.453	-834
350.538	-900
350.624	-846
350.709	258
350.795	-668
350.880	-643
350.966	-306
351.051	419
351.137	-639
351.222	-313
351.308	-31
351.393	2787
351.479	-475
351.564	-1175
351.649	-446
351.735	181
351.820	-454
351.906	-417
351.991	-1100
352.076	1178
352.162	1499
352.247	-293
352.332	-649
352.418	-362
352.503	-214
352.588	4295
352.673	1222
352.759	-172
352.844	-1170
352.929	-732
353.014	-912
353.100	280
353.185	-236
353.270	-385
353.355	108
353.441	401
353.526	-603
353.611	-637
353.696	-689
353.781	1112
353.866	-891
353.952	837
354.037	-698
354.122	1572
354.207	-749
354.292	68
354.377	-701
354.462	-7
354.547	-1188
354.632	315
354.717	-277
354.802	-819
354.887	-746
354.972	-781
355.057	-1008
355.142	-1366
355.227	-66
355.312	-612
355.397	-302
355.482	1712
355.567	-536
355.652	402
355.737	332
355.822	3467
355.907	1358
355.991	466
356.076	-1040
356.161	27
356.246	-1057
356.331	-571
356.416	-974
356.501	8099
356.585	4026
356.670	-954
356.755	733
356.840	399
356.924	3443
357.009	15293
357.094	4221
357.179	-717
357.263	-544
357.348	399
357.433	-160
357.517	-225
357.602	-444
357.687	-428
357.771	132
357.856	2065
357.941	1135
358.025	3438
358.110	16267
358.195	5562
358.279	-103
358.364	-297
358.448	1959
358.533	6693
358.617	4056
358.702	3608
358.787	671
358.871	247
358.956	-756
359.040	-923
359.125	-905
359.209	-525
359.294	825
359.378	912
359.462	-905
359.547	-27
359.631	-1105
359.716	-990
359.800	-529
359.885	1031
359.969	-1568
360.053	-40
360.138	-1541
360.222	-773
360.306	-1107
360.391	293
360.475	645
360.559	2150
360.644	1590
360.728	238
360.812	3646
360.896	10015
360.981	2026
361.065	24
361.149	-492
361.233	-122
361.318	-1398
361.402	-859
361.486	-417
361.570	-206
361.654	-1116
361.739	129
361.823	5882
361.907	9698
361.991	352
362.075	-618
362.159	-737
362.243	1167
362.327	-1678
362.411	1376
362.495	-73
362.580	-458
362.664	-56
362.748	-1320
362.832	-858
362.916	-1851
363.000	1419
363.084	6537
363.168	8890
363.252	1018
363.336	-495
363.420	1029
363.503	5249
363.587	5541
363.671	2
363.755	-485
363.839	597
363.923	-1513
364.007	-321
364.091	-104
364.175	-172
364.258	9834
364.342	2604
364.426	2615
364.510	-1496
364.594	1566
364.677	2180
364.761	7588
364.845	5479
364.929	268
365.013	359
365.096	-192
365.180	-818
365.264	2004
365.347	9335
365.431	2615
365.515	-607
365.598	-1035
365.682	432
365.766	-732
365.849	-50
365.933	-288
366.017	747
366.100	-1394
366.184	-2034
366.267	-102
366.351	-254
366.435	-1731
366.518	-2333
366.602	-359
366.685	-771
366.769	-865
366.852	-285
366.936	138
367.019	-378
367.103	-1114
367.186	1029
367.270	-1032
367.353	-1659
367.436	613
367.520	-1133
367.603	-186
367.687	-1763
367.770	-231
367.853	95
367.937	2377
368.020	3224
368.104	-966
368.187	-272
368.270	98
368.353	-185
368.437	574
368.520	1742
368.603	821
368.687	1100
368.770	3714
368.853	-41
368.936	224
369.020	607
369.103	-211
369.186	-979
369.269	-33
369.352	-649
369.436	-308
369.519	-848
369.602	-2189
369.685	359
369.768	-971
369.851	-279
369.934	-1170
370.018	-755
370.101	-1795
370.184	1023
370.267	-47
370.350	-296
370.433	781
370.516	3646
370.599	4413
370.682	-1930
370.765	2231
370.848	3275
370.931	4951
371.014	2225
371.097	-1495
371.180	-134
371.263	-228
371.346	-2345
371.429	137
371.511	-1471
371.594	-616
371.677	70
371.760	1286
371.843	-1060
371.926	5539
372.009	11801
372.091	5605
372.174	1413
372.257	6273
372.340	737
372.423	-436
372.505	493
372.588	-20
372.671	1972
372.754	5748
372.836	1452
372.919	2583
373.002	4061
373.085	-842
373.167	934
373.250	2048
373.332	5763
373.415	9686
373.498	15343
373.580	5036
373.663	8080
373.746	9130
373.828	147
373.911	1508
373.993	-778
374.076	4617
374.159	2444
374.241	1386
374.324	3960
374.406	3684
374.489	4880
374.571	14494
374.654	3534
374.736	2250
374.819	7625
374.901	14003
374.983	12037
375.066	1864
375.148	-547
375.231	3169
375.313	6811
375.395	770
375.478	-1096
375.560	94
375.643	-493
375.725	2217
375.807	9600
375.890	8527
375.972	508
376.054	643
376.136	1295
376.219	-509
376.301	3282
376.383	7895
376.465	2172
376.548	455
376.630	1659
376.712	7274
376.794	1483
376.877	636
376.959	-1502
377.041	-57
377.123	-875
377.205	-990
377.287	-1809
377.369	-50
377.452	-1341
377.534	-1160
377.616	-1362
377.698	-1171
377.780	-2753
377.862	-616
377.944	-716
378.026	-1662
378.108	-515
378.190	-1271
378.272	-939
378.354	-1266
378.436	-874
378.518	-1471
378.600	-24
378.682	872
378.764	2278
378.846	1741
378.928	-1057
379.010	-1273
379.091	156
379.173	-1216
379.255	-863
379.337	-590
379.419	-452
379.501	4581
379.583	-157
379.664	-1147
379.746	-1621
379.828	2752
379.910	3187
379.991	3330
380.073	-1383
380.155	-708
380.237	-975
380.318	-1343
380.400	-1334
380.482	183
380.564	-887
380.645	-708
380.727	-1651
380.809	904
380.890	-1629
380.972	-2130
381.053	-888
381.135	99
381.217	-712
381.298	3083
381.380	-195
381.461	604
381.543	6336
381.624	8380
381.706	92
381.787	-242
381.869	-97
381.951	2908
382.032	11705
382.113	8485
382.195	-1822
382.276	1215
382.358	576
382.439	6079
382.521	8246
382.602	12962
382.684	4513
382.765	7942
382.846	4968
382.928	6643
383.009	2460
383.090	1496
383.172	9928
383.253	15605
383.334	5555
383.416	9818
383.497	3458
383.578	-337
383.659	1401
383.741	9235
383.822	26241
383.903	10967
383.984	4872
384.066	12817
384.147	5129
384.228	1036
384.309	-945
384.390	-965
384.471	-716
384.553	-901
384.634	-1054
384.715	603
384.796	-548
384.877	-721
384.958	2263
385.039	1996
385.120	-1127
385.201	647
385.282	-869
385.363	-371
385.444	-1579
385.525	1114
385.606	4430
385.687	3493
385.768	-73
385.849	-441
385.930	7074
386.011	11575
386.092	414
386.173	-317
386.254	-1482
386.335	-343
386.416	-1017
386.496	1156
386.577	2025
386.658	-272
386.739	-928
386.820	-331
386.901	-1178
386.981	-29
387.062	-1359
387.143	-1177
387.224	1156
387.304	2468
387.385	-285
387.466	-1759
387.547	-549
387.627	-1128
387.708	605
387.789	6861
387.869	6395
387.950	2132
388.031	-1231
388.111	-3048
388.192	128
388.273	645
388.353	-946
388.434	-660
388.514	238
388.595	6163
388.676	6740
388.756	2264
388.837	1706
388.917	172
388.998	-2395
389.078	126
389.159	-466
389.239	-1888
389.320	893
389.400	-2070
389.480	872
389.561	2979
389.641	1261
389.722	112
389.802	-1394
389.883	292
389.963	4724
390.043	2073
390.124	-1994
390.204	209
390.284	1711
390.365	260
390.445	2344
390.525	4637
390.605	3783
390.686	-223
390.766	-983
390.846	181
390.927	-1906
391.007	-2124
391.087	-215
391.167	-1915
391.247	-2856
391.328	79
391.408	79
391.488	349
391.568	-2601
391.648	-1032
391.728	-714
391.808	-242
391.888	-900
391.969	1634
392.049	1330
392.129	555
392.209	489
392.289	4113
392.369	1305
392.449	778
392.529	-1076
392.609	991
392.689	329
392.769	3022
392.849	1976
392.929	2952
393.009	5028
393.089	1519
393.169	744
393.248	3824
393.328	27614
393.408	27478
393.488	4215
393.568	376
393.648	-346
393.728	-961
393.807	-1970
393.887	-198
393.967	-1285
394.047	-1226
394.127	-750
394.206	1126
394.286	8109
394.366	40665
394.446	40771
394.525	6605
394.605	355
394.685	1364
394.764	2572
394.844	3036
394.924	1444
395.003	-809
395.083	-703
395.163	-573
395.242	-1281
395.322	-199
395.402	-2832
395.481	1051
395.561	138
395.640	5067
395.720	3226
395.799	5637
395.879	3356
395.958	1874
396.038	14183
396.117	54254
396.197	54089
396.276	14329
396.356	1806
396.435	1230
396.515	221
396.594	-618
396.673	640
396.753	6810
396.832	25705
396.912	17548
396.991	2078
397.070	-1
397.150	-2775
397.229	31
397.308	-981
397.388	-968
397.467	-265
397.546	-834
397.625	-3313
397.705	693
397.784	-1306
397.863	-883
397.942	-1007
398.022	-1529
398.101	-252
398.180	4688
398.259	1264
398.338	119
398.417	-996
398.497	-1336
398.576	-555
398.655	-1935
398.734	-702
398.813	-497
398.892	1057
398.971	5550
399.050	748
399.129	-1844
399.208	-626
399.287	-418
399.366	-1025
399.445	-1251
399.524	-1522
399.603	-2501
399.682	-1518
399.761	506
399.840	6301
399.919	4578
399.998	-1191
400.077	-2100
400.156	-2298
400.235	1013
400.313	-1896
400.392	-1878
400.471	584
400.550	1655
400.629	-1914
400.708	-289
400.786	-1619
400.865	-700
400.944	-1036
401.023	1785
401.102	-1965
401.180	-1718
401.259	-1394
401.338	-1013
401.416	-1007
401.495	-2105
401.574	-932
401.652	-1789
401.731	-489
401.810	-2096
401.888	-1982
401.967	-1649
402.046	-1624
402.124	-437
402.203	-2869
402.281	-864
402.360	-1614
402.438	-236
402.517	-2368
402.596	-895
402.674	-1363
402.753	-1451
402.831	-1011
402.910	113
402.988	-729
403.066	2661
403.145	1465
403.223	148
403.302	521
403.380	791
403.459	-34
403.537	-323
403.615	-2019
403.694	-2595
403.772	-446
403.850	-1286
403.929	-1698
404.007	-1527
404.085	221
404.164	-2140
404.242	-1250
404.320	1314
404.398	5511
404.477	5136
404.555	10186
404.633	8653
404.711	3506
404.789	1967
404.868	-978
404.946	-1440
405.024	-482
405.102	-1411
405.180	-2512
405.258	-2047
405.336	-978
405.415	-1740
405.493	-865
405.571	-500
405.649	-2729
405.727	-2102
405.805	-791
405.883	-987
405.961	-1711
406.039	-2036
406.117	-2673
406.195	-1389
406.273	-198
406.351	6949
406.429	3484
406.507	-708
406.585	-2069
406.663	-985
406.740	-2071
406.818	-1670
406.896	-1968
406.974	-372
407.052	-1715
407.130	3909
407.208	4464
407.285	1747
407.363	-2529
407.441	-1340
407.519	-1411
407.596	-1005
407.674	-2163
407.752	-342
407.830	-400
407.907	-257
407.985	-1834
408.063	-953
408.141	-1377
408.218	-1207
408.296	-2086
408.373	-1882
408.451	-1341
408.529	-1286
408.606	-1297
408.684	-1580
408.762	-1265
408.839	-1332
408.917	-1430
408.994	-1311
409.072	-2810
409.149	-1977
409.227	-1194
409.304	-1811
409.382	-1927
409.459	-1304
409.537	-1001
409.614	-1543
409.692	-1782
409.769	-1716
409.846	-1896
409.924	-834
410.001	-3579
410.079	-2054
410.156	-454
410.233	-1253
410.311	-1857
410.388	-1558
410.465	-779
410.543	-1860
410.620	-1282
410.697	-1589
410.775	-2284
410.852	-2366
410.929	-763
411.006	-624
411.083	-2316
411.161	-1217
411.238	-1090
411.315	-1885
411.392	-1894
411.469	-1024
411.547	-1395
411.624	-2455
411.701	-1815
411.778	-1357
411.855	-1760
411.932	-1139
412.009	-1517
412.086	-1471
412.163	-1666
412.240	-1232
412.317	-1624
412.394	-1741
412.471	-1232
412.548	-1555
412.625	-2194
412.702	-987
412.779	-1688
412.856	-671
412.933	-2312
413.010	-1184
413.087	-1057
413.164	-153
413.241	270
413.318	-1560
413.395	-667
413.471	-1403
413.548	-2143
413.625	-1211
413.702	-2284
413.779	-1180
413.855	-1769
413.932	-1884
414.009	-2455
414.086	-1338
414.162	-1718
414.239	-1746
414.316	-353
414.393	3240
414.469	-1385
414.546	-1236
414.623	-2013
414.699	-1321
414.776	-2234
414.853	-1200
414.929	-1296
415.006	-1672
415.082	-1798
415.159	-1820
415.236	-1039
415.312	-435
415.389	-1527
415.465	-1686
415.542	-1078
415.618	-1401
415.695	-1101
415.771	-2682
415.848	-2434
415.924	-1306
416.000	-1735
416.077	-1169
416.153	-2055
416.230	-1784
416.306	-1953
416.383	-1947
416.459	-1390
416.535	-1422
416.612	-1609
416.688	-1643
416.764	-1794
416.841	-1691
416.917	-1901
416.993	-894
417.069	-1425
417.146	-1950
417.222	-1725
417.298	-1305
417.374	-2505
417.451	-785
417.527	-2381
417.603	-1918
417.679	-1555
417.755	-1746
417.831	-2725
417.908	-1364
417.984	-2298
418.060	-2007
418.136	-1252
418.212	-1502
418.288	-1734
418.364	-1520
418.440	-2360
418.516	-1459
418.592	-1736
418.668	-1045
418.744	-1402
418.820	-1236
418.896	-2305
418.972	-2161
419.048	-2127
419.124	-813
419.200	-2326
419.276	-1052
419.352	-2462
419.428	-1584
419.504	-2223
419.579	-1636
419.655	-2426
419.731	-2197
419.807	-1580
419.883	-1465
419.959	-1425
420.034	-879
420.110	-1030
420.186	614
420.262	206
420.337	-896
420.413	-2677
420.489	-2103
420.565	-1632
420.640	-1640
420.716	-1171
420.792	-2111
420.867	-687
420.943	-1896
421.019	-1581
421.094	-2513
421.170	-1909
421.245	-2243
421.321	-1756
421.397	-2351
421.472	-1066
421.548	-1844
421.623	-2302
421.699	-1680
421.774	-1369
421.850	-2722
421.925	-1409
422.001	-1159
422.076	-1515
422.152	-1526
422.227	-1762
422.302	-868
422.378	-1478
422.453	-120
422.529	1509
422.604	15502
422.679	30144
422.755	14199
422.830	891
422.905	-745
422.981	-1851
423.056	-1355
423.131	-709
423.207	-989
423.282	-1937
423.357	-953
423.432	-1453
423.508	-937
423.583	-1755
423.658	-441
423.733	-1195
423.808	-1848
423.883	-1941
423.959	-1366
424.034	-2370
424.109	-1661
424.184	-2187
424.259	-2201
424.334	-2448
424.409	-2621
424.484	-2393
424.559	-1856
424.634	-2808
424.709	-1885
424.784	-1220
424.859	-1821
424.934	-1940
425.009	413
425.084	290
425.159	-959
425.234	-1514
425.309	-2085
425.384	-1476
425.459	-812
425.534	-1326
425.609	-2836
425.683	-1438
425.758	-2565
425.833	-1587
425.908	-1248
425.983	-2009
426.058	1203
426.132	-1404
426.207	-1435
426.282	-1281
426.357	-2193
426.431	-1534
426.506	-1440
426.581	-2531
426.655	-1438
426.730	-2087
426.805	-1804
426.879	-1295
426.954	-1354
427.029	-1951
427.103	1999
427.178	5395
427.253	909
427.327	-2180
427.402	-1450
427.476	-717
427.551	-1281
427.625	-1912
427.700	-1399
427.774	-3048
427.849	-851
427.923	-2984
427.998	-1480
428.072	-3137
428.147	-868
428.221	-872
428.296	1559
428.370	-519
428.444	-1726
428.519	-891
428.593	-1286
428.667	-1241
428.742	-1265
428.816	-1145
428.890	1605
428.965	1505
429.039	-996
429.113	-898
429.188	-1448
429.262	-1462
429.336	-1141
429.410	-1147
429.485	-654
429.559	-1363
429.633	-717
429.707	-2364
429.781	-1087
429.855	754
429.930	2383
430.004	833
430.078	3007
430.152	1950
430.226	2998
430.300	2971
430.374	-1495
430.448	-1523
430.522	31
430.596	3260
430.670	1388
430.744	3873
430.818	6316
430.892	-1290
430.966	-1518
431.040	-1349
431.114	-2965
431.188	-2104
431.262	-2175
431.336	-2368
431.410	-959
431.484	-2009
431.557	-614
431.631	-1830
431.705	-1646
431.779	-2029
431.853	1066
431.927	-970
432.000	-1236
432.074	-1227
432.148	-1225
432.222	-2429
432.295	-1756
432.369	-1596
432.443	-2089
432.516	1012
432.590	6016
432.664	1761
432.737	-1514
432.811	-2748
432.885	-2479
432.958	-1845
433.032	-1440
433.106	-2298
433.179	-1567
433.253	-2663
433.326	-1786
433.400	-2505
433.473	-2149
433.547	-3138
433.620	-1156
433.694	-1505
433.767	-1844
433.841	-2219
433.914	-2010
433.988	-2061
434.061	-2493
434.134	-2040
434.208	-1785
434.281	-3032
434.355	-2475
434.428	-2380
434.501	-1827
434.575	-2675
434.648	-2239
434.721	-1761
434.795	-2537
434.868	-2737
434.941	-2371
435.014	-2094
435.088	-1821
435.161	-2634
435.234	-2130
435.307	-2154
435.381	-1971
435.454	-2093
435.527	-1908
435.600	-1985
435.673	-1267
435.746	-2486
435.819	-1695
435.892	-2273
435.966	-1856
436.039	-2041
436.112	-1246
436.185	-2672
436.258	-2116
436.331	-3122
436.404	-1927
436.477	-2358
436.550	-1981
436.623	-2043
436.696	-2111
436.769	-2867
436.842	-1801
436.915	-2385
436.987	-2226
437.060	-1659
437.133	-2075
437.206	-2356
437.279	-1345
437.352	-2162
437.425	-2095
437.498	-1780
437.570	-1007
437.643	-1850
437.716	-1478
437.789	-2282
437.861	-1498
437.934	-2244
438.007	-1562
438.080	-3070
438.152	-1766
438.225	-1892
438.298	3310
438.370	10572
438.443	2935
438.516	-1304
438.588	-2122
438.661	-2274
438.734	-2509
438.806	-2422
438.879	-1975
438.951	-1649
439.024	-1902
439.096	-2247
439.169	-1702
439.241	-2317
439.314	-2183
439.386	-2327
439.459	-1355
439.531	-1796
439.604	-1739
439.676	-1568
439.749	-2455
439.821	-2982
439.893	-1339
439.966	-2130
440.038	-1942
440.110	-1758
440.183	-1883
440.255	-2235
440.327	-1548
440.400	-370
440.472	4682
440.544	1698
440.617	-1291
440.689	-1310
440.761	-1144
440.833	-2339
440.905	-1469
440.978	-1985
441.050	-2307
441.122	-1899
441.194	-2683
441.266	-2257
441.338	-1934
441.411	-2095
441.483	738
441.555	939
441.627	-1107
441.699	-1699
441.771	-1696
441.843	-2651
441.915	-2091
441.987	-2217
442.059	-2230
442.131	-1890
442.203	-1844
442.275	-2186
442.347	-1229
442.419	-1650
442.491	-332
442.563	9
442.635	-691
442.706	-1442
442.778	-321
442.850	-2122
442.922	-2256
442.994	-2304
443.066	-2210
443.137	-1973
443.209	-1713
443.281	-2087
443.353	-1248
443.425	-90
443.496	2735
443.568	1903
443.640	-560
443.711	-2053
443.783	-1692
443.855	-2614
443.926	-2032
443.998	-2170
444.070	-1313
444.141	-1844
444.213	-1178
444.285	-1394
444.356	-1607
444.428	-2373
444.499	-1621
444.571	-2003
444.642	-1633
444.714	-2781
444.785	-2144
444.857	-1981
444.928	-764
445.000	-1623
445.071	-1511
445.143	-707
445.214	-1315
445.285	-1882
445.357	906
445.428	2490
445.500	6106
445.571	3006
445.642	494
445.714	-556
445.785	11
445.856	-1789
445.928	-1418
445.999	-1351
446.070	-1580
446.141	-1952
446.213	-1167
446.284	-2906
446.355	-1266
446.426	-2358
446.497	-2248
446.569	-2191
446.640	-1695
446.711	-2111
446.782	-1925
446.853	-2177
446.924	-1592
446.995	-1941
447.066	-1467
447.138	-2240
447.209	-1569
447.280	-2226
447.351	-1870
447.422	-2587
447.493	-1615
447.564	-2482
447.635	-1602
447.706	-2280
447.777	-2237
447.847	-1782
447.918	-2341
447.989	-1715
448.060	-735
448.131	-839
448.202	-1194
448.273	-1991
448.344	-771
448.414	-2478
448.485	-1820
448.556	-1570
448.627	-2015
448.698	-1232
448.768	-1867
448.839	-1543
448.910	-1713
448.981	-1502
449.051	-1694
449.122	-2114
449.193	-1710
449.263	-1915
449.334	-1986
449.405	-1594
449.475	-1630
449.546	-1952
449.616	-1264
449.687	-1584
449.758	-1272
449.828	-2662
449.899	-2263
449.969	-2092
450.040	-1536
450.110	-2451
450.181	-1048
450.251	-1914
450.322	-1772
450.392	-1566
450.463	-832
450.533	-2303
450.604	-1986
450.674	-2275
450.744	-1621
450.815	-1789
450.885	-1059
450.955	-1622
451.026	-1204
451.096	-2026
451.166	-2149
451.237	-1808
451.307	-151
451.377	-1368
451.447	-1552
451.518	-1902
451.588	-1479
451.658	-1524
451.728	-1387
451.799	-490
451.869	-606
451.939	-2096
452.009	-2197
452.079	-1615
452.149	-643
452.219	-2097
452.289	-369
452.360	-1921
452.430	-2103
452.500	-2609
452.570	-1684
452.640	-1195
452.710	-982
452.780	-490
452.850	-518
452.920	-985
452.990	-1423
453.060	-923
453.129	-1880
453.199	-2368
453.269	1456
453.339	3459
453.409	5483
453.479	6063
453.549	9000
453.619	8707
453.688	1506
453.758	-1640
453.828	-1559
453.898	-2096
453.968	-2425
454.037	-1026
454.087	-1838
454.107	-2176
454.168	-2507
454.177	-2569
454.247	-2019
454.249	-2027
454.316	-2479
454.330	-2285
454.386	-1562
454.411	-1492
454.456	-1481
454.492	-981
454.525	-544
454.574	-656
454.595	-698
454.655	-1552
454.665	-1700
454.734	-1567
454.736	-1542
454.804	-1140
454.817	-937
454.873	-244
454.898	-43
454.943	289
454.979	-412
455.013	-1011
455.060	-927
455.082	-877
455.141	-977
455.152	-1020
455.221	235
455.222	263
455.291	730
455.303	961
455.360	1687
455.384	2462
455.430	3430
455.465	2121
455.499	982
455.546	405
455.569	83
455.627	-656
455.638	-760
455.707	-1986
455.708	-1975
455.777	-1462
455.789	-1513
455.846	-1783
455.869	-1945
455.916	-2261
455.950	-1975
455.985	-1786
456.031	-1954
456.054	-2011
456.112	-1380
456.124	-1257
456.193	-1505
456.193	-1514
456.262	-1411
456.274	-1167
456.332	-156
456.355	-627
456.401	-1554
456.436	-1741
456.470	-1931
456.516	-1836
456.540	-1767
456.597	-1482
456.609	-1471
456.678	-1569
456.678	-1578
456.747	-1263
456.759	-1434
456.817	-2182
456.840	-1792
456.886	-1224
456.920	-1290
456.955	-1152
457.001	-1057
457.024	-1047
457.082	-1299
457.093	-1390
457.162	-759
457.163	-754
457.232	-1729
457.243	-1698
457.301	-1273
457.324	-1403
457.370	-1711
457.405	-1364
457.439	-1089
457.485	-971
457.508	-915
457.566	-1120
457.577	-1131
457.646	-1061
457.647	-1052
457.715	-720
457.727	-759
457.784	-1231
457.808	-1187
457.853	-1081
457.889	-1001
457.922	-887
457.969	-854
457.991	-875
458.050	-1019
458.060	-1030
458.129	88
458.130	81
458.198	-735
458.211	-646
458.267	-550
458.292	-838
458.336	-1183
458.372	-940
458.405	-468
458.453	-518
458.474	-683
458.533	-401
458.543	-316
458.611	500
458.614	528
458.680	-40
458.694	-376
458.749	-963
458.775	-821
458.818	-897
458.855	-883
458.887	-714
458.936	-804
458.955	-971
459.016	-1197
459.024	-1151
459.093	-255
459.097	-255
459.162	-877
459.177	-878
459.230	-640
459.257	-509
459.299	-237
459.338	-150
459.368	-301
459.418	-610
459.437	-679
459.499	-444
459.505	-406
459.574	-369
459.579	-357
459.643	-423
459.659	-406
459.711	-298
459.740	-432
459.780	-533
459.820	-400
459.849	-507
459.900	-654
459.917	-608
459.981	-399
459.986	-403
460.054	-482
460.061	-473
460.123	-36
460.141	103
460.191	246
460.222	138
460.260	-43
460.302	-170
460.328	-326
460.382	-212
460.397	-106
460.462	-96
460.465	-97
460.534	-30
460.543	-36
460.602	1269
460.623	2047
460.671	4303
460.703	6415
460.739	5760
460.783	3311
460.808	2687
460.864	707
460.876	443
460.944	-272
460.945	-275
461.013	-85
461.024	-107
461.081	-375
461.104	-181
461.150	59
461.184	-12
461.218	-33
461.264	-32
461.286	21
461.345	-219
461.355	-269
461.423	145
461.425	140
461.491	-327
461.505	-249
461.559	1091
461.585	1296
461.628	1338
461.665	2253
461.696	2841
461.745	3209
461.764	2739
461.825	675
461.832	669
461.901	-0
461.905	58
461.969	-66
461.985	-330
462.037	156
462.065	665
462.105	290
462.145	7
462.173	577
462.225	1210
462.241	1086
462.305	1020
462.310	997
462.378	558
462.385	452
462.446	-52
462.465	-94
462.514	136
462.545	304
462.582	449
462.625	401
462.650	167
462.705	-34
462.718	85
462.785	525
462.786	526
462.854	559
462.865	557
462.922	703
462.945	855
462.990	591
463.025	112
463.058	-7
463.104	-46
463.126	-122
463.184	-4
463.194	156
463.262	633
463.264	666
463.330	499
463.344	470
463.398	1603
463.424	1965
463.466	1044
463.504	369
463.533	617
463.583	1039
463.601	1008
463.663	702
463.669	706
463.737	896
463.743	912
463.805	1807
463.823	2031
463.873	2765
463.903	3298
463.940	3544
463.982	3797
464.008	2871
464.062	790
464.076	810
464.142	851
464.144	845
464.211	421
464.221	392
464.279	565
464.301	545
464.347	904
464.381	1369
464.414	1103
464.461	688
464.482	831
464.540	1038
464.550	1073
464.617	1152
464.620	1164
464.685	1589
464.699	1604
464.753	1795
464.779	1997
464.820	2271
464.859	2449
464.888	2304
464.938	2027
464.956	2199
465.018	2705
465.023	2654
465.091	1892
465.098	1818
465.158	1458
465.177	1377
465.226	1752
465.257	1868
465.293	1535
465.336	1275
465.361	1659
465.416	2358
465.428	2475
465.495	3268
465.496	3285
465.563	4797
465.575	5091
465.631	5318
465.654	5389
465.698	3264
465.734	1405
465.765	1691
465.813	2079
465.833	2041
465.893	2166
465.900	2125
465.968	1494
465.972	1452
466.035	1326
466.052	1282
466.102	1694
466.131	1945
466.170	1976
466.210	1967
466.237	2251
466.290	2805
466.304	2764
466.369	2525
466.372	2537
466.439	2782
466.449	2793
466.506	2847
466.528	2877
466.573	3874
466.607	4616
466.641	5878
466.687	7644
466.708	7898
466.766	8528
466.775	7923
466.842	3243
466.845	3015
466.909	2711
466.925	2637
466.977	3308
467.004	3684
467.044	3316
467.083	2927
467.111	3510
467.163	4584
467.178	4543
467.242	4336
467.245	4339
467.312	4263
467.321	4247
467.379	3211
467.400	2829
467.446	3031
467.480	3171
467.559	3528
467.638	3198
467.717	2900
467.796	3468
467.875	2514
467.955	2456
468.034	5064
468.113	7813
468.192	10822
468.271	2872
468.350	2464
468.429	2672
468.508	3113
468.588	1808
468.667	1748
468.746	2074
468.825	2482
468.904	3008
468.983	3044
469.062	3947
469.141	3561
469.220	2763
469.299	2058
469.378	2412
469.456	4035
469.535	2854
469.614	2882
469.693	1954
469.772	3762
469.851	3343
469.930	2466
470.009	2426
470.088	2757
470.166	2342
470.245	3043
470.324	2822
470.403	2988
470.482	2209
470.560	1804
470.639	1848
470.718	2466
470.797	1747
470.875	2159
470.954	3275
471.033	3417
471.111	2433
471.190	1740
471.269	1408
471.347	2096
471.426	2859
471.505	2568
471.583	3375
471.662	2494
471.740	1698
471.819	2486
471.898	1480
471.976	1549
472.055	2229
472.133	2218
472.212	3578
472.290	2484
472.369	2046
472.447	2595
472.526	1267
472.604	2651
472.683	2761
472.761	1634
472.839	1896
472.918	1909
472.996	1979
473.075	2183
473.153	1925
473.231	1580
473.310	2497
473.388	2221
473.466	2114
473.545	3103
473.623	3526
473.701	2477
473.780	1485
473.858	764
473.936	3771
474.014	2087
474.093	2578
474.171	2803
474.249	3641
474.327	1833
474.405	1282
474.484	1805
474.562	1307
474.640	1676
474.718	1619
474.796	2367
474.874	2518
474.952	1947
475.030	1106
475.108	1320
475.187	2058
475.265	2108
475.343	3137
475.421	2617
475.499	1180
475.577	2400
475.655	3304
475.733	3368
475.811	5704
475.889	5206
475.966	3020
476.044	1491
476.122	1189
476.200	1510
476.278	842
476.356	1608
476.434	2106
476.512	1712
476.590	1852
476.667	2642
476.745	1257
476.823	2148
476.901	1457
476.979	1634
477.056	1557
477.134	1655
477.212	1484
477.290	2701
477.367	1513
477.445	1974
477.523	850
477.601	1128
477.678	1720
477.756	1675
477.834	1341
477.911	1482
477.989	1725
478.066	1489
478.144	1734
478.222	1234
478.299	1678
478.377	1888
478.454	1501
478.532	1540
478.609	1209
478.687	2547
478.764	831
478.842	1862
478.919	1870
478.997	2050
479.074	1268
479.152	1952
479.229	2461
479.307	1081
479.384	708
479.461	1635
479.539	859
479.616	1834
479.694	1950
479.771	1500
479.848	330
479.926	421
480.003	2961
480.080	1636
480.157	1825
480.235	820
480.312	1299
480.389	1458
480.467	1369
480.544	2499
480.621	1591
480.698	1067
480.775	1638
480.853	1160
480.930	1227
481.007	2145
481.084	1342
481.161	1720
481.238	1526
481.315	1156
481.392	775
481.470	1571
481.547	1032
481.624	905
481.701	1505
481.778	1400
481.855	1534
481.932	1437
482.009	2905
482.086	615
482.163	839
482.240	1442
482.317	2175
482.393	1176
482.470	1219
482.547	1323
482.624	1250
482.701	1119
482.778	1014
482.855	659
482.932	1405
483.009	1298
483.085	1939
483.162	423
483.239	1618
483.316	592
483.393	342
483.469	340
483.546	1125
483.623	1360
483.699	825
483.776	969
483.853	1590
483.930	2851
484.006	7104
484.083	9227
484.160	7265
484.236	11488
484.313	8736
484.389	5906
484.466	6569
484.543	4459
484.619	4340
484.696	5460
484.772	5108
484.849	5216
484.925	4792
485.002	5327
485.078	4697
485.155	4878
485.231	3239
485.308	4008
485.384	4023
485.461	4552
485.537	6304
485.614	8470
485.690	4213
485.766	4789
485.843	4102
485.919	4702
485.995	4747
486.072	4333
486.148	4481
486.224	3869
486.301	3802
486.377	5183
486.453	3375
486.530	5812
486.606	7396
486.682	6437
486.758	6513
486.835	6446
486.911	5018
486.987	9009
487.063	6993
487.139	7625
487.215	6048
487.292	5501
487.368	4183
487.444	4695
487.520	4034
487.596	3333
487.672	5792
487.748	6773
487.824	7377
487.900	3922
487.976	4535
488.052	3778
488.128	4654
488.204	3310
488.280	4187
488.356	5540
488.432	7807
488.508	9058
488.584	3513
488.660	3540
488.736	3373
488.812	3913
488.888	4523
488.964	4920
489.039	7684
489.115	11753
489.191	6767
489.267	3966
489.343	3959
489.418	3123
489.494	2562
489.570	1684
489.646	5020
489.722	3097
489.797	3814
489.873	4933
489.949	8429
490.024	5292
490.100	1983
490.176	3191
490.251	2969
490.327	4137
490.403	2167
490.478	2806
490.554	1991
490.629	2551
490.705	1739
490.781	2952
490.856	1787
490.932	3168
491.007	2674
491.083	1934
491.158	1436
491.234	3507
491.309	6099
491.385	3717
491.460	1934
491.536	2921
491.611	2506
491.686	2794
491.762	3432
491.837	4966
491.913	7907
491.988	10410
492.063	10842
492.139	4129
492.214	2442
492.289	1838
492.365	1821
492.440	1947
492.515	1462
492.590	1795
492.666	160
492.741	1571
492.816	3042
492.891	1153
492.967	2787
493.042	1053
493.117	1545
493.192	2058
493.267	5101
493.342	13820
493.418	14035
493.493	1996
493.568	1485
493.643	824
493.718	1578
493.793	2714
493.868	3604
493.943	1626
494.018	2518
494.093	989
494.168	1474
494.243	-82
494.318	1497
494.393	1669
494.468	1087
494.543	1507
494.618	1392
494.693	1209
494.768	1282
494.842	351
494.917	1030
494.992	715
495.067	1249
495.142	985
495.217	1043
495.292	1311
495.366	1724
495.441	1487
495.516	2624
495.591	2662
495.665	11208
495.740	19013
495.815	4876
495.890	1706
495.964	-212
496.039	3559
496.114	1809
496.188	2142
496.263	1393
496.338	842
496.412	2103
496.487	2377
496.561	2225
496.636	1883
496.710	1684
496.785	2243
496.860	2538
496.934	1380
497.009	2123
497.083	1668
497.158	1917
497.232	2530
497.307	3305
497.381	3707
497.455	3050
497.530	4140
497.604	2487
497.679	4201
497.753	6201
497.827	6432
497.902	6436
497.976	8189
498.050	20537
498.125	57464
498.199	38727
498.273	9284
498.348	7869
498.422	6412
498.496	6003
498.570	5252
498.645	3442
498.719	3240
498.793	4771
498.867	5299
498.941	7649
499.016	25484
499.090	51496
499.164	9713
499.238	2670
499.312	2319
499.386	3109
499.460	3915
499.534	2469
499.609	1532
499.683	3807
499.757	3764
499.831	12128
499.905	38217
499.979	20733
500.053	3873
500.127	3709
500.201	2303
500.275	1560
500.349	2335
500.422	1593
500.496	3429
500.570	8045
500.644	22867
500.718	31005
500.792	4372
500.866	2460
500.940	2783
501.013	2646
501.087	1477
501.161	4132
501.235	3081
501.309	14006
501.382	32277
501.456	18816
501.530	4962
501.603	7953
501.677	2005
501.751	602
501.825	3110
501.898	5077
501.972	12086
502.046	4902
502.119	787
502.193	5704
502.266	12368
502.340	3344
502.413	6081
502.487	9545
502.561	3826
502.634	1044
502.708	1495
502.781	73
502.855	793
502.928	111
503.002	1435
503.075	629
503.149	1434
503.222	758
503.295	927
503.369	2110
503.442	1857
503.516	10698
503.589	19748
503.662	8684
503.736	4150
503.809	10330
503.882	6404
503.956	12649
504.029	6525
504.102	2475
504.175	3222
504.249	-155
504.322	1264
504.395	1275
504.468	923
504.542	32
504.615	-324
504.688	772
504.761	-1637
504.834	2267
504.907	1502
504.980	1390
505.053	501
505.127	-951
505.200	3012
505.273	1083
505.346	654
505.419	-322
505.492	1440
505.565	-117
505.638	373
505.711	-393
505.784	-969
505.857	-184
505.930	1753
506.003	-747
506.076	2178
506.149	1324
506.221	-569
506.294	2807
506.367	5113
506.440	17045
506.513	4766
506.586	1377
506.659	238
506.731	657
506.804	448
506.877	196
506.950	831
507.022	1074
507.095	-285
507.168	813
507.241	943
507.313	641
507.386	-1360
507.459	1787
507.531	-240
507.604	-218
507.677	1226
507.749	-845
507.822	2196
507.894	2711
507.967	4437
508.040	508
508.112	2109
508.185	1644
508.257	-195
508.330	2513
508.402	769
508.475	1316
508.547	992
508.620	1630
508.692	1897
508.765	1150
508.837	157
508.909	1112
508.982	489
509.054	1490
509.127	573
509.199	968
509.271	-803
509.344	439
509.416	658
509.488	387
509.560	1330
509.633	766
509.705	980
509.777	1231
509.849	1927
509.922	-536
509.994	495
510.066	1189
510.138	275
510.210	5411
510.283	2429
510.355	2482
510.427	2021
510.499	1727
510.571	1475
510.643	1053
510.715	3621
510.787	67
510.859	1973
510.931	1056
511.003	2262
511.076	2000
511.148	729
511.219	1548
511.291	2935
511.363	1845
511.435	301
511.507	150
511.579	2710
511.651	1930
511.723	405
511.795	-650
511.867	722
511.939	1441
512.010	1594
512.082	2258
512.154	-479
512.226	1634
512.298	3386
512.369	3262
512.441	3276
512.513	2439
512.585	113
512.656	2879
512.728	1547
512.800	860
512.871	2047
512.943	1936
513.015	407
513.086	1063
513.158	925
513.230	721
513.301	1297
513.373	2228
513.444	978
513.516	1246
513.588	16
513.659	2022
513.731	1362
513.802	114
513.874	4754
513.945	2373
514.016	914
514.088	1775
514.159	429
514.231	2299
514.302	2374
514.374	3067
514.445	70
514.516	4921
514.588	755
514.659	1296
514.730	2709
514.802	2746
514.873	1608
514.944	4735
515.016	1931
515.087	1613
515.158	2724
515.229	4066
515.301	2170
515.372	3878
515.443	1308
515.514	2269
515.585	-138
515.656	1625
515.728	1308
515.799	487
515.870	1247
515.941	1386
516.012	153
516.083	2481
516.154	464
516.225	2188
516.296	3002
516.367	1415
516.438	1340
516.509	1472
516.580	2889
516.651	13275
516.722	28611
516.793	8103
516.864	2711
516.935	3398
517.006	3908
517.077	4913
517.148	11978
517.219	37923
517.289	36025
517.360	16701
517.431	4260
517.502	874
517.573	2200
517.643	1986
517.714	344
517.785	2123
517.856	1205
517.926	3207
517.997	3022
518.068	1584
518.138	5258
518.209	6239
518.280	30159
518.350	75332
518.421	12942
518.492	3165
518.562	2023
518.633	816
518.703	-550
518.774	3541
518.845	2620
518.915	2443
518.986	1437
519.056	3017
519.127	4463
519.197	7576
519.268	17334
519.338	8163
519.408	2143
519.479	2273
519.549	575
519.620	3319
519.690	895
519.760	1677
519.831	277
519.901	200
519.971	1193
520.042	-48
520.112	81
520.182	1688
520.253	1763
520.323	1490
520.393	908
520.463	4675
520.534	-846
520.604	5571
520.674	1740
520.744	1461
520.814	4209
520.885	3896
520.955	7805
521.025	19665
521.095	2794
521.165	1772
521.235	328
521.305	54
521.375	1002
521.445	1681
521.515	284
521.585	2507
521.655	-715
521.725	2101
521.795	2199
521.865	-1387
521.935	3894
522.005	374
522.075	34
522.145	1217
522.215	-83
522.285	1353
522.355	2148
522.424	4446
522.494	1920
522.564	810
522.634	4192
522.704	10155
522.774	671
522.843	1858
522.913	530
522.983	571
523.053	-68
523.122	1149
523.192	728
523.262	5215
523.331	2194
523.401	1640
523.471	225
523.540	339
523.610	-1239
523.680	651
523.749	493
523.819	797
523.888	-187
523.958	-685
524.027	1131
524.097	786
524.166	396
524.236	-441
524.305	1579
524.375	-586
524.444	-1069
524.514	3000
524.583	368
524.653	-641
524.722	1115
524.791	-1147
524.861	1685
524.930	-900
524.999	-654
525.069	1735
525.138	1205
525.207	244
525.277	96
525.346	536
525.415	586
525.484	608
525.554	-734
525.623	457
525.692	-413
525.761	392
525.830	453
525.900	298
525.969	736
526.038	1251
526.107	430
526.176	5732
526.245	1691
526.314	2839
526.383	4588
526.452	1525
526.522	8557
526.591	6590
526.660	2255
526.729	120
526.797	3333
526.867	7615
526.935	34896
527.004	21828
527.073	5680
527.142	183
527.211	389
527.280	1488
527.349	882
527.418	-919
527.487	860
527.555	-720
527.624	-784
527.693	-1364
527.762	1090
527.831	-1133
527.899	306
527.968	32
528.037	-1646
528.106	1586
528.174	784
528.243	1001
528.312	1291
528.380	1924
528.449	-258
528.518	1369
528.586	-1407
528.655	1519
528.723	227
528.792	-488
528.861	-1199
528.929	-430
528.998	-204
529.066	636
529.135	-247
529.203	-1306
529.272	-1322
529.340	41
529.409	926
529.477	-596
529.545	-1007
529.614	1822
529.682	-1670
529.751	-365
529.819	2009
529.887	-734
529.956	-211
530.024	516
530.092	-713
530.161	1019
530.229	-34
530.297	-1139
530.365	424
530.434	485
530.502	-1066
530.570	487
530.638	-1189
530.707	356
530.775	1392
530.843	-948
530.911	-530
530.979	-356
531.047	-1110
531.115	-138
531.183	-394
531.252	-40
531.320	-713
531.388	-1390
531.456	-488
531.524	-1593
531.592	417
531.660	2092
531.728	-1134
531.796	-1198
531.864	-275
531.932	-421
532.000	-991
532.067	43
532.135	540
532.203	1058
532.271	-1411
532.339	1985
532.407	2998
532.475	920
532.542	406
532.610	210
532.678	8
532.746	13082
532.814	17231
532.881	1502
532.949	66
533.017	552
533.084	1291
533.152	-352
533.220	53
533.287	-545
533.355	289
533.423	-233
533.490	-777
533.558	-592
533.625	-53
533.693	-903
533.761	216
533.828	751
533.896	-1676
533.963	2541
534.031	2147
534.098	2654
534.166	-720
534.233	-324
534.300	771
534.368	208
534.435	-288
534.503	101
534.570	335
534.637	-888
534.705	-1055
534.772	-420
534.840	-725
534.907	2830
534.974	1066
535.041	-775
535.109	274
535.176	-120
535.243	446
535.310	-196
535.378	-1117
535.445	-659
535.512	-482
535.579	412
535.646	-1295
535.714	-675
535.781	417
535.848	260
535.915	818
535.982	26
536.049	37
536.116	1132
536.183	-774
536.250	291
536.317	-855
536.384	707
536.451	516
536.518	-192
536.585	-1474
536.652	1750
536.719	499
536.786	-718
536.853	175
536.920	1549
536.987	1462
537.053	1789
537.120	12924
537.187	5499
537.254	-1049
537.321	-619
537.388	1037
537.454	-1007
537.521	-265
537.588	-348
537.654	630
537.721	698
537.788	723
537.855	327
537.921	-581
537.988	-153
538.055	1259
538.121	-552
538.188	125
538.254	830
538.321	1519
538.388	954
538.454	-344
538.521	200
538.587	-271
538.654	-323
538.720	354
538.787	-913
538.853	-476
538.920	548
538.986	-8
539.053	-299
539.119	-133
539.185	457
539.252	1731
539.318	701
539.385	1441
539.451	-402
539.517	914
539.583	1085
539.650	3522
539.716	5651
539.782	1249
539.849	-1077
539.915	448
539.981	-653
540.047	-171
540.114	127
540.180	1050
540.246	-876
540.312	657
540.378	898
540.444	1855
540.510	3539
540.576	6831
540.643	427
540.709	-1072
540.775	-68
540.841	318
540.907	1589
540.973	1077
541.039	368
541.105	814
541.171	329
541.237	-1084
541.303	1197
541.369	1307
541.435	468
541.500	1372
541.566	-671
541.632	475
541.698	-1041
541.764	1018
541.830	-74
541.896	-1249
541.961	918
542.027	-887
542.093	254
542.159	587
542.224	-967
542.290	1527
542.356	1427
542.421	1365
542.487	746
542.553	133
542.618	204
542.684	402
542.750	257
542.815	1362
542.881	1968
542.947	7467
543.012	2604
543.078	97
543.143	-213
543.209	993
543.274	-171
543.340	796
543.405	2746
543.471	1505
543.536	-533
543.602	661
543.667	-1392
543.732	1665
543.798	-1016
543.863	634
543.928	-667
543.994	-532
544.059	311
544.124	828
544.190	320
544.255	-10
544.320	542
544.386	-198
544.451	662
544.516	1031
544.581	1006
544.646	4569
544.712	5238
544.777	1329
544.842	735
544.907	-620
544.972	-273
545.037	279
545.102	1223
545.168	4
545.233	855
545.298	1304
545.363	768
545.428	498
545.493	4185
545.558	3743
545.623	1142
545.688	293
545.753	390
545.818	108
545.883	1024
545.947	-313
546.012	344
546.077	-485
546.142	505
546.207	-269
546.272	510
546.337	-242
546.401	760
546.466	378
546.531	-133
546.596	-219
546.661	1374
546.725	941
546.790	78
546.855	687
546.919	-549
546.984	233
547.049	-148
547.113	302
547.178	-295
547.243	1368
547.307	697
547.372	609
547.436	642
547.501	-117
547.565	594
547.630	1019
547.695	391
547.759	955
547.823	117
547.888	202
547.952	313
548.017	1297
548.081	844
548.146	1550
548.210	1649
548.274	-405
548.339	164
548.403	1333
548.468	727
548.532	-27
548.596	792
548.660	30
548.725	735
548.789	498
548.853	2664
548.917	1980
548.982	1909
549.046	459
549.110	18
549.174	841
549.238	254
549.303	539
549.367	1872
549.431	480
549.495	14
549.559	-767
549.623	1430
549.687	1409
549.751	1456
549.815	1016
549.879	784
549.943	-253
550.007	915
550.071	489
550.135	1680
550.199	330
550.263	464
550.327	1281
550.391	327
550.455	829
550.519	1164
550.582	1254
550.646	1501
550.710	1135
550.774	1497
550.838	942
550.901	969
550.965	1155
551.029	1464
551.093	2527
551.156	2507
551.220	4338
551.284	2959
551.347	2687
551.411	6121
551.475	3135
551.538	1155
551.602	1399
551.666	631
551.729	-463
551.793	991
551.856	1097
551.920	691
551.983	1261
552.047	846
552.110	1581
552.174	325
552.237	843
552.301	1114
552.364	1116
552.428	1652
552.491	452
552.554	576
552.618	774
552.681	1536
552.745	330
552.808	1989
552.871	1704
552.934	2066
552.998	1716
553.061	1302
553.124	1186
553.187	1352
553.251	680
553.314	1546
553.377	1904
553.440	4781
553.503	16974
553.567	14456
553.630	1535
553.693	1467
553.756	961
553.819	1177
553.882	1326
553.945	1310
554.008	642
554.071	-46
554.134	1212
554.197	751
554.260	1130
554.323	2004
554.386	659
554.449	1384
554.512	926
554.575	180
554.638	390
554.701	268
554.764	1318
554.827	1705
554.889	-158
554.952	266
555.015	302
555.078	183
555.141	33
555.203	172
555.266	-309
555.329	851
555.391	-423
555.454	1104
555.517	-12
555.580	257
555.642	756
555.705	-84
555.768	276
555.830	718
555.893	684
555.955	1149
556.018	312
556.080	398
556.143	476
556.206	807
556.268	518
556.330	1354
556.393	325
556.455	875
556.518	1203
556.580	624
556.643	412
556.705	252
556.767	-97
556.830	239
556.892	323
556.955	610
557.017	632
557.079	390
557.142	559
557.204	748
557.266	1850
557.328	1559
557.391	-332
557.453	-280
557.515	-41
557.577	73
557.639	6
557.701	592
557.764	-646
557.826	-213
557.888	525
557.950	805
558.012	461
558.074	219
558.136	1991
558.198	3313
558.260	251
558.322	347
558.384	1717
558.446	1633
558.508	415
558.570	2110
558.632	2280
558.694	2998
558.756	3572
558.818	11912
558.880	16876
558.942	3853
559.003	3636
559.065	1129
559.127	51
559.189	681
559.251	1177
559.312	1029
559.374	5558
559.436	11366
559.498	2898
559.559	196
559.621	986
559.683	1934
559.744	3554
559.806	7146
559.868	5424
559.929	835
559.991	1539
560.052	997
560.114	3318
560.176	1648
560.237	2788
560.299	2787
560.360	-48
560.422	131
560.483	1350
560.545	301
560.606	1266
560.667	762
560.729	607
560.790	579
560.852	1051
560.913	946
560.974	-174
561.036	568
561.097	620
561.158	672
561.220	484
561.281	11
561.342	601
561.403	1841
561.465	1263
561.526	3121
561.587	4235
561.648	-13
561.709	1214
561.771	563
561.832	449
561.893	909
561.954	1711
562.015	1484
562.076	788
562.137	739
562.198	243
562.259	1625
562.320	453
562.381	443
562.442	1528
562.503	802
562.564	1108
562.625	1701
562.686	689
562.747	843
562.808	914
562.869	754
562.930	1120
562.991	1250
563.051	1205
563.112	1114
563.173	1080
563.234	619
563.294	312
563.355	1221
563.416	935
563.477	1288
563.537	921
563.598	985
563.659	720
563.720	954
563.780	1433
563.841	1033
563.901	1133
563.962	1143
564.023	1065
564.083	1027
564.144	1141
564.204	699
564.265	515
564.325	2054
564.386	3113
564.446	1242
564.507	1100
564.567	1022
564.628	1156
564.688	1805
564.749	662
564.809	2030
564.869	1960
564.930	1234
564.990	1170
565.050	1757
565.111	1410
565.171	1791
565.231	1875
565.292	2528
565.352	-180
565.412	1416
565.472	904
565.532	1102
565.593	528
565.653	773
565.713	592
565.773	2307
565.833	1512
565.893	2313
565.953	1484
566.013	1811
566.074	2548
566.134	3318
566.194	2823
566.254	2768
566.314	1868
566.374	2917
566.434	1796
566.494	1833
566.554	2056
566.614	2660
566.673	2579
566.733	2825
566.793	3002
566.853	3658
566.913	3078
566.973	3797
567.033	3440
567.092	3493
567.152	3243
567.212	3847
567.272	4185
567.331	4177
567.391	4281
567.451	5192
567.511	5598
567.570	3786
567.630	4258
567.690	4114
567.749	4706
567.809	5127
567.868	6101
567.928	6736
567.988	7502
568.047	9509
568.107	11234
568.166	17169
568.226	26553
568.285	32721
568.345	27110
568.404	21931
568.464	18960
568.523	18085
568.582	17834
568.642	21160
568.701	27672
568.761	41721
568.820	57249
568.879	51011
568.939	37522
568.998	29160
569.057	22814
569.116	18655
569.176	14831
569.235	13408
569.294	10539
569.353	8850
569.413	9262
569.472	6449
569.531	6034
569.590	4907
569.649	5575
569.708	4412
569.767	4941
569.827	4975
569.886	3601
569.945	3322
570.004	3819
570.063	3131
570.122	3505
570.181	3579
570.240	3355
570.299	3775
570.358	3093
570.417	2723
570.475	2037
570.534	3166
570.593	2944
570.652	2959
570.711	3070
570.770	1658
570.829	2500
570.887	2433
570.946	2726
571.005	1816
571.064	1568
571.122	3100
571.181	1741
571.240	1879
571.299	2672
571.357	2416
571.416	1831
571.475	2670
571.533	2114
571.592	1856
571.650	2272
571.709	1218
571.768	1302
571.826	1637
571.885	2707
571.943	1958
572.002	1400
572.060	2314
572.119	2051
572.177	2783
572.236	1718
572.294	1446
572.352	1641
572.411	1816
572.469	1101
572.528	1845
572.586	1948
572.644	1655
572.703	2410
572.761	1322
572.819	1998
572.877	2007
572.936	1852
572.994	2178
573.052	2360
573.110	1319
573.169	2023
573.227	1288
573.285	1607
573.343	1751
573.401	1877
573.459	1663
573.517	1432
573.576	1917
573.634	1746
573.692	1438
573.750	1281
573.808	1958
573.866	2364
573.924	2842
573.982	2081
574.040	2268
574.098	1647
574.155	1635
574.213	1460
574.271	1750
574.329	1663
574.387	1689
574.445	1327
574.503	2330
574.560	1090
574.618	1674
574.676	1927
574.734	1986
574.792	1741
574.849	1862
574.907	1861
574.965	1742
575.022	1026
575.080	1226
575.138	2294
575.195	1229
575.253	1145
575.311	1424
575.368	2195
575.426	1688
575.483	2906
575.541	2267
575.598	1244
575.656	1571
575.713	1479
575.771	2069
575.828	1993
575.886	2021
575.943	1705
576.001	1360
576.058	1619
576.115	1333
576.173	2449
576.230	2895
576.287	2572
576.345	2105
576.402	2608
576.459	1987
576.517	1643
576.574	2096
576.631	2276
576.688	2613
576.746	2050
576.803	2710
576.860	1016
576.917	3339
576.974	1968
577.031	2127
577.089	2930
577.146	2902
577.203	2636
577.260	2501
577.317	1630
577.374	2576
577.431	2173
577.488	2946
577.545	2527
577.602	2726
577.659	2997
577.716	3117
577.773	2230
577.830	2546
577.886	2597
577.943	2168
578.000	2570
578.057	2848
578.114	3111
578.171	3595
578.227	4128
578.284	5095
578.341	3737
578.398	3258
578.454	3415
578.511	3197
578.568	3066
578.625	2034
578.681	3174
578.738	3104
578.794	3305
578.851	3165
578.908	3237
578.964	3156
579.021	3734
579.077	2171
579.134	2942
579.190	3550
579.247	3422
579.303	3017
579.360	1989
579.416	2863
579.473	2896
579.529	3016
579.586	3396
579.642	3038
579.698	3560
579.755	3480
579.811	4052
579.867	3687
579.924	3829
579.980	3236
580.036	5219
580.093	6239
580.149	8005
580.205	7675
580.261	6143
580.317	5530
580.374	4948
580.430	4982
580.486	4937
580.542	3941
580.598	3459
580.619	3930
580.654	4751
580.692	3908
580.710	3490
580.765	4260
580.767	4285
580.823	3869
580.838	3941
580.879	4127
580.911	3558
580.935	3140
580.984	3444
580.991	3494
581.047	4765
581.057	4610
581.103	3909
581.130	4138
581.159	4339
581.203	4849
581.215	5002
581.270	4619
581.276	4623
581.326	4642
581.349	4672
581.382	4730
581.422	4426
581.438	4308
581.494	4292
581.494	4288
581.550	3875
581.567	3849
581.606	3777
581.640	4298
581.661	4628
581.713	5086
581.717	5122
581.773	4734
581.786	4840
581.829	5197
581.859	4941
581.885	4735
581.932	4791
581.940	4811
581.996	5110
582.004	5079
582.052	4814
582.077	4651
582.107	4519
582.150	4474
582.163	4433
582.219	4649
582.223	4658
582.274	4904
582.296	4764
582.330	4397
582.368	4415
582.386	4523
582.441	5242
582.441	5242
582.497	4676
582.514	5052
582.552	5844
582.587	5962
582.608	6021
582.659	5116
582.663	5047
582.719	5893
582.732	5832
582.774	5709
582.805	5617
582.830	5526
582.877	6396
582.885	6532
582.941	5559
582.950	5674
582.996	6284
583.023	6127
583.052	6049
583.095	6776
583.107	6995
583.162	7977
583.168	8045
583.218	8322
583.240	7801
583.273	7096
583.313	7246
583.328	7296
583.384	7171
583.385	7178
583.439	7153
583.458	6789
583.494	6410
583.531	6730
583.549	6824
583.603	6872
583.605	6871
583.660	7341
583.676	7183
583.715	6883
583.748	6873
583.770	6884
583.820	7432
583.825	7480
583.881	6836
583.893	6865
583.936	6988
583.965	6891
583.991	6837
584.038	7544
584.046	7655
584.101	7776
584.110	7768
584.156	7815
584.183	7871
584.211	7997
584.255	8708
584.266	8771
584.321	7614
584.328	7625
584.376	8345
584.400	8483
584.431	8568
584.472	8625
584.486	8611
584.541	9132
584.545	9124
584.596	9040
584.617	9011
584.651	9156
584.689	9630
584.706	9639
584.761	9443
584.762	9439
584.816	9747
584.834	9838
584.871	9836
584.906	10158
584.926	10429
584.978	9699
584.980	9687
585.035	10575
585.051	10864
585.090	11234
585.123	11259
585.145	11289
585.195	11908
585.200	12005
585.254	12062
585.267	12365
585.309	13066
585.340	13022
585.364	12870
585.412	12801
585.419	12828
585.473	13625
585.484	13616
585.528	13703
585.556	13939
585.583	14501
585.628	15612
585.637	15888
585.692	19484
585.700	19842
585.747	21476
585.772	20632
585.801	18216
585.845	15950
585.856	15820
585.910	16121
585.917	16141
585.965	16214
585.989	16154
586.019	16228
586.061	16731
586.074	16933
586.128	17490
586.133	17537
586.183	18090
586.205	18374
586.237	18723
586.277	18817
586.292	18920
586.346	19393
586.349	19415
586.401	19708
586.421	19967
586.455	20571
586.493	21286
586.509	21818
586.564	23383
586.565	23430
586.618	26342
586.637	26674
586.672	25846
586.709	24925
586.727	24736
586.781	25289
586.781	25304
586.835	26469
586.853	26671
586.889	27071
586.925	27450
586.944	27885
586.996	29670
586.998	29717
587.052	30727
587.068	30847
587.106	31601
587.140	33043
587.161	33884
587.212	34927
587.215	35005
587.269	36984
587.284	37405
587.323	38726
587.356	39808
587.377	40431
587.427	42820
587.431	43042
587.485	45239
587.499	45917
587.539	47981
587.571	49809
587.593	51273
587.643	53649
587.648	53942
587.702	58174
587.715	59079
587.755	62090
587.786	64891
587.810	67084
587.858	70719
587.864	71367
587.917	78346
587.930	80013
587.971	85200
588.001	89360
588.025	93083
588.073	99599
588.079	100666
588.133	111051
588.145	113474
588.187	123979
588.217	131570
588.241	138419
588.288	151589
588.295	153843
588.348	173335
588.360	177464
588.402	195625
588.431	208345
588.456	222400
588.503	250461
588.510	255388
588.564	293957
588.575	302081
588.617	345500
588.646	375448
588.671	406105
588.718	463089
588.725	472054
588.778	535609
588.789	546891
588.832	557883
588.861	560408
588.886	523353
588.932	433791
588.939	428759
588.993	403844
589.004	404333
589.047	517584
589.075	578620
589.100	587391
589.147	592944
589.154	586857
589.207	531008
589.218	519256
589.261	496250
589.290	481128
589.314	486738
589.361	498771
589.368	504644
589.421	548459
589.433	556474
589.475	552694
589.504	541846
589.528	505620
589.576	430455
589.582	438467
589.635	525378
589.647	539461
589.689	538968
589.718	534027
589.742	494473
589.790	411948
589.795	404965
589.849	332729
589.861	315852
589.902	278222
589.932	249560
589.955	234536
590.004	203007
590.009	200999
590.062	177208
590.075	171183
590.115	156440
590.146	145238
590.168	139313
590.218	125157
590.222	124463
590.275	114332
590.289	111562
590.328	104548
590.360	98651
590.381	96024
590.431	89639
590.435	89349
590.488	82779
590.503	80891
590.541	76862
590.574	72975
590.594	71529
590.645	68172
590.647	68144
590.700	65051
590.716	63990
590.753	61563
590.787	59375
590.806	58226
590.859	54834
590.859	54866
590.912	52509
590.930	51807
590.965	50895
591.001	49703
591.018	48803
591.071	45877
591.072	45785
591.124	44275
591.143	43634
591.177	42923
591.214	42040
591.230	41882
591.283	41312
591.285	41224
591.336	39372
591.356	38501
591.389	37861
591.427	37153
591.442	37026
591.495	36250
591.498	36134
591.547	34894
591.569	34340
591.600	33790
591.640	32728
591.653	32576
591.706	31939
591.711	31816
591.759	31879
591.782	31857
591.811	31704
591.853	31252
591.864	31141
591.917	30390
591.924	30228
591.969	29845
591.995	29539
592.022	29443
592.066	29116
592.075	29119
592.127	28876
592.137	28772
592.180	28272
592.208	27845
592.233	27153
592.279	25736
592.285	25738
592.338	25406
592.350	25287
592.390	25002
592.421	24728
592.443	24589
592.491	24161
592.495	24132
592.548	23217
592.562	22934
592.600	23544
592.633	24003
592.653	23554
592.704	22163
592.705	22297
592.775	22657
592.846	21859
592.916	22445
592.987	22183
593.058	20501
593.128	20516
593.199	19887
593.270	19633
593.341	18717
593.411	18606
593.482	19168
593.553	19139
593.623	18459
593.694	17589
593.764	17739
593.835	16515
593.906	16842
593.976	17298
594.047	17261
594.117	17676
594.188	17631
594.258	16288
594.329	15908
594.399	15393
594.470	15394
594.540	15256
594.611	16073
594.681	14747
594.751	14593
594.822	15214
594.892	15334
594.963	14881
595.033	14714
595.103	14608
595.174	15650
595.244	15739
595.314	16327
595.384	13230
595.455	14090
595.525	14165
595.595	13613
595.665	14334
595.736	14028
595.806	13605
595.876	13243
595.946	13180
596.016	13953
596.087	12956
596.157	13325
596.227	12429
596.297	13772
596.367	13597
596.437	14074
596.507	14182
596.577	15209
596.647	13578
596.717	13482
596.787	12495
596.857	13152
596.927	13096
596.997	12984
597.067	13050
597.137	14304
597.207	13262
597.277	13388
597.347	13066
597.417	12796
597.487	13076
597.557	12761
597.626	12609
597.696	12324
597.766	13270
597.836	14289
597.906	11230
597.975	12428
598.045	11086
598.115	11907
598.185	11530
598.254	12299
598.324	12966
598.394	12243
598.464	12498
598.533	11628
598.603	12184
598.672	11135
598.742	12066
598.812	11905
598.881	11438
598.951	11397
599.020	11494
599.090	12094
599.159	12279
599.229	11257
599.299	10549
599.368	10919
599.437	11766
599.507	11153
599.576	11219
599.646	12474
599.715	12304
599.785	11036
599.854	10631
599.924	11416
599.993	11139
600.062	10783
600.132	10513
600.201	11122
600.270	11092
600.340	11770
600.409	10671
600.478	11158
600.547	11199
600.617	11369
600.686	10894
600.755	10894
600.824	10851
600.894	11067
600.963	10647
601.032	10535
601.101	10460
601.170	10249
601.239	9745
601.308	11128
601.378	10797
601.447	10209
601.516	10175
601.585	11187
601.654	9945
601.723	9758
601.792	10341
601.861	11338
601.930	12109
601.999	11567
602.068	10135
602.137	10929
602.206	11218
602.275	10932
602.343	10180
602.412	11462
602.481	10835
602.550	10721
602.619	10353
602.688	11001
602.756	10822
602.825	10865
602.894	11014
602.963	10829
603.032	10987
603.100	10927
603.169	10484
603.238	10502
603.307	10230
603.375	11694
603.444	11747
603.513	10563
603.581	10943
603.650	11037
603.719	10459
603.787	10166
603.856	9453
603.924	10785
603.993	10575
604.061	10390
604.130	9729
604.198	10255
604.267	10503
604.335	10243
604.404	10365
604.472	10864
604.541	10686
604.609	10380
604.678	10705
604.746	11220
604.815	11833
604.883	11087
604.951	11073
605.020	10222
605.088	10337
605.156	9779
605.225	10688
605.293	9950
605.361	10596
605.429	9755
605.498	9817
605.566	10896
605.634	10880
605.702	10697
605.771	11101
605.839	10905
605.907	10720
605.975	10960
606.043	9483
606.111	10402
606.180	10675
606.248	11611
606.316	11481
606.384	10223
606.452	10485
606.520	10246
606.588	9540
606.656	8855
606.724	8826
606.792	9012
606.860	8501
606.928	7488
606.996	7811
607.064	7759
607.132	7693
607.200	7543
607.267	7539
607.335	7738
607.403	8317
607.471	7284
607.539	7728
607.607	8077
607.674	7279
607.742	7863
607.810	7773
607.878	7595
607.946	7392
608.013	7744
608.081	8325
608.149	8005
608.216	7456
608.284	9397
608.352	7926
608.419	7529
608.487	10105
608.555	8817
608.622	8409
608.690	8425
608.757	8560
608.825	8244
608.893	8854
608.960	8530
609.028	8710
609.095	9831
609.163	7663
609.230	7508
609.298	7942
609.365	7873
609.432	7365
609.500	9378
609.567	9504
609.635	9454
609.702	9508
609.769	9131
609.837	7567
609.904	8414
609.971	6922
610.039	9950
610.106	11094
610.173	15639
610.241	32723
610.308	39420
610.375	25365
610.442	9923
610.509	8390
610.577	9582
610.644	7617
610.711	8551
610.778	8859
610.845	8101
610.912	8427
610.980	9551
611.047	11035
611.114	10544
611.181	7202
611.248	7390
611.315	9253
611.382	7721
611.449	8113
611.516	9490
611.583	8938
611.650	9398
611.717	7925
611.784	8325
611.851	8800
611.918	9681
611.984	9062
612.051	13706
612.118	21280
612.185	46432
612.252	29709
612.319	10619
612.386	9464
612.452	9171
612.519	9324
612.586	10640
612.653	9405
612.719	8998
612.786	7793
612.853	8364
612.919	8101
612.986	9444
613.053	7735
613.120	7610
613.186	7397
613.253	8920
613.319	7724
613.386	8133
613.453	8297
613.519	8609
613.586	8487
613.652	10675
613.719	9035
613.785	9260
613.852	7984
613.918	7497
613.985	9367
614.051	10607
614.118	14802
614.184	14259
614.250	8029
614.317	7760
614.383	7739
614.449	8024
614.516	8143
614.582	7904
614.648	6787
614.715	8212
614.781	7950
614.847	9345
614.914	7857
614.980	7422
615.046	8042
615.112	8857
615.179	7958
615.245	10664
615.311	13269
615.377	23593
615.443	25477
615.509	13828
615.575	10283
615.642	9275
615.708	10122
615.774	9773
615.840	11654
615.906	14790
615.972	24687
616.038	49060
616.104	58691
616.170	71016
616.236	52282
616.302	17725
616.368	12503
616.434	8953
616.500	9947
616.565	10287
616.631	9936
616.697	9333
616.763	10012
616.829	11780
616.895	16709
616.961	14950
617.026	9564
617.092	8429
617.158	8048
617.224	8925
617.289	8313
617.355	7709
617.421	6812
617.487	9131
617.552	8439
617.618	7068
617.684	6864
617.749	10165
617.815	8133
617.880	7572
617.946	7400
618.012	8797
618.077	7727
618.143	7713
618.208	7663
618.274	8423
618.339	9006
618.405	7129
618.470	8030
618.536	8317
618.601	7658
618.667	7124
618.732	7770
618.798	7946
618.863	8013
618.928	7227
618.994	8002
619.059	9503
619.124	9531
619.190	7707
619.255	7441
619.320	7635
619.386	7295
619.451	7381
619.516	7999
619.581	7872
619.647	7652
619.712	7767
619.777	7575
619.842	8313
619.907	8517
619.972	7452
620.038	7797
620.103	7819
620.168	7557
620.233	8305
620.298	6689
620.363	7632
620.428	7640
620.493	7857
620.558	7102
620.623	7462
620.688	7618
620.753	8151
620.818	8010
620.883	7449
620.948	7932
621.013	8264
621.078	7219
621.143	6795
621.207	9029
621.272	8526
621.337	7918
621.402	8804
621.467	9876
621.532	10245
621.596	8989
621.661	8483
621.726	8442
621.791	7872
621.855	8957
621.920	9013
621.985	8170
622.049	9219
622.114	8801
622.179	9824
622.243	9152
622.308	8124
622.373	10823
622.437	9593
622.502	9552
622.566	8896
622.631	7631
622.695	10870
622.760	9085
622.824	9334
622.889	8838
622.953	9156
623.018	11395
623.082	10678
623.147	8455
623.211	8648
623.276	8958
623.340	8208
623.404	8730
623.469	9381
623.533	9112
623.597	8121
623.662	8309
623.726	7814
623.790	7619
623.854	8248
623.919	8468
623.983	7570
624.047	7680
624.111	8071
624.176	8075
624.240	8352
624.304	9280
624.368	8652
624.432	8833
624.496	8523
624.560	8353
624.625	7288
624.689	7960
624.753	8266
624.817	8564
624.881	7280
624.945	7582
625.009	8288
625.073	8330
625.137	7493
625.201	8924
625.265	8240
625.329	7986
625.393	7084
625.456	7608
625.520	8146
625.584	7229
625.648	8991
625.712	10669
625.776	17156
625.839	18845
625.903	9936
625.967	7553
626.031	11584
626.095	13285
626.158	6848
626.222	6246
626.286	7725
626.349	6792
626.413	4899
626.477	7252
626.540	6628
626.604	6330
626.668	6839
626.731	6085
626.795	6347
626.858	6490
626.922	5127
626.986	6169
627.049	4608
627.113	6823
627.176	6650
627.240	5466
627.303	5886
627.366	6135
627.430	6222
627.493	5689
627.557	5212
627.620	6930
627.684	5795
627.747	5450
627.810	3938
627.874	5851
627.937	4637
628.000	7459
628.064	5946
628.127	4219
628.190	5854
628.253	4797
628.317	4725
628.380	5824
628.443	5071
628.506	5376
628.569	5292
628.632	4794
628.696	5114
628.759	4995
628.822	4225
628.885	4743
628.948	5552
629.011	4810
629.074	5027
629.137	4462
629.200	3473
629.263	6628
629.326	3498
629.389	4221
629.452	5176
629.515	4644
629.578	4636
629.641	4917
629.704	4785
629.767	4690
629.830	4859
629.892	4093
629.955	4863
630.018	6053
630.081	3385
630.144	4981
630.207	3110
630.269	6495
630.332	4732
630.395	4655
630.458	4037
630.520	3870
630.583	5958
630.646	5093
630.708	3539
630.771	3318
630.834	5095
630.896	3174
630.959	4786
631.021	3395
631.084	4176
631.146	4470
631.209	5767
631.272	3298
631.334	4046
631.397	3314
631.459	3705
631.522	4170
631.584	3516
631.646	4338
631.709	3766
631.771	4421
631.834	3917
631.896	4266
631.958	3692
632.021	4526
632.083	3394
632.145	3492
632.208	3657
632.270	4909
632.332	3133
632.395	3000
632.457	4159
632.519	4116
632.581	5361
632.643	2428
632.706	4875
632.768	2807
632.830	5052
632.892	3580
632.954	3653
633.016	4537
633.078	3365
633.141	3327
633.203	4072
633.265	4100
633.327	3880
633.389	2381
633.451	4291
633.513	3204
633.575	4456
633.637	3259
633.698	3134
633.760	4311
633.822	3615
633.884	3551
633.946	4084
634.008	3065
634.070	3594
634.132	4488
634.193	2911
634.255	3749
634.317	2975
634.379	4301
634.441	2858
634.502	2274
634.564	3552
634.626	3001
634.687	3972
634.749	3779
634.811	4292
634.873	3192
634.934	3232
634.996	3700
635.057	2961
635.119	2497
635.181	2549
635.242	4437
635.304	1890
635.365	5962
635.427	2794
635.488	3274
635.550	2227
635.611	3395
635.673	1046
635.734	3952
635.796	2848
635.857	3825
635.918	1272
635.980	4289
636.041	2131
636.102	3483
636.164	3264
636.225	3452
636.286	2098
636.348	3526
636.409	3348
636.470	1917
636.531	3438
636.593	2726
636.654	3266
636.715	3193
636.776	2566
636.838	1876
636.899	4036
636.960	2607
637.021	2037
637.082	2475
637.143	2976
637.204	1977
637.265	2307
637.326	2989
637.387	3403
637.448	1415
637.509	3526
637.570	2803
637.631	4050
637.692	1672
637.753	1537
637.814	2441
637.875	3333
637.936	3580
637.997	2894
638.058	1635
638.119	2801
638.179	2180
638.240	2316
638.301	2559
638.362	1820
638.423	1737
638.483	2688
638.544	1246
638.605	3563
638.666	1849
638.726	2979
638.787	3534
638.848	2066
638.908	2730
638.969	2552
639.030	2032
639.090	1833
639.151	1937
639.211	2670
639.272	1851
639.332	3446
639.393	2518
639.453	958
639.514	1644
639.574	2758
639.635	1078
639.695	4045
639.756	911
639.816	3362
639.877	2200
639.937	4011
639.997	3607
640.058	1198
640.118	1773
640.178	2264
640.239	2281
640.299	2319
640.359	1774
640.420	1862
640.480	2469
640.540	1635
640.600	1680
640.661	2750
640.721	1192
640.781	3742
640.841	604
640.901	3531
640.961	3044
641.021	2810
641.082	789
641.142	2395
641.202	3011
641.262	95
641.322	2377
641.382	805
641.442	2606
641.502	2034
641.562	3317
641.622	1875
641.682	2332
641.742	1696
641.802	1610
641.861	2474
641.921	1340
641.981	2516
642.041	2379
642.101	1937
642.161	16
642.221	1642
642.280	2292
642.340	2063
642.400	504
642.460	2898
642.519	1771
642.579	1833
642.639	2748
642.698	229
642.758	3343
642.818	2572
642.877	1676
642.937	1704
642.997	2518
643.056	2768
643.116	857
643.175	3137
643.235	1002
643.294	1061
643.354	2047
643.414	1878
643.473	2504
643.532	1602
643.592	807
643.651	2966
643.711	5532
643.770	8873
643.830	18396
643.889	36454
643.948	7668
644.008	3273
644.067	1774
644.126	1253
644.186	703
644.245	1948
644.304	1050
644.363	3113
644.423	-661
644.482	1666
644.541	2480
644.600	-39
644.659	1700
644.719	1197
644.778	1943
644.837	1970
644.896	3875
644.955	6415
645.014	1934
645.073	2439
645.132	728
645.191	1877
645.250	905
645.309	2202
645.368	1582
645.427	1868
645.486	492
645.545	2547
645.604	205
645.663	2159
645.722	1699
645.781	1455
645.840	1351
645.898	1167
645.957	3136
646.016	2362
646.075	4138
646.134	7273
646.192	16174
646.251	23595
646.310	2856
646.369	1741
646.427	1575
646.486	856
646.545	1524
646.603	1835
646.662	1851
646.721	1002
646.779	352
646.838	-66
646.896	1931
646.955	1078
647.014	1640
647.072	1941
647.131	4386
647.189	2445
647.248	905
647.306	1830
647.365	1423
647.423	-246
647.481	1958
647.540	-698
647.598	235
647.657	1368
647.715	1786
647.773	1115
647.832	2033
647.890	-53
647.948	-135
648.007	1183
648.065	-203
648.123	-186
648.181	1999
648.240	2435
648.298	448
648.356	1339
648.414	1238
648.472	1098
648.531	1474
648.589	847
648.647	504
648.705	1108
648.763	910
648.821	998
648.879	591
648.937	707
648.995	670
649.053	147
649.111	897
649.169	1404
649.227	2220
649.285	4155
649.343	13070
649.401	6072
649.459	3352
649.516	2911
649.574	202
649.632	4711
649.690	4953
649.748	2747
649.806	2135
649.863	5176
649.921	3510
649.979	769
650.037	1155
650.094	-649
650.152	711
650.210	-182
650.268	996
650.325	1165
650.383	1178
650.440	-93
650.498	369
650.556	1047
650.613	-446
650.671	375
650.728	1105
650.786	66
650.843	438
650.901	-674
650.958	728
651.016	1056
651.073	548
651.131	52
651.188	-103
651.246	891
651.303	-97
651.360	1114
651.418	408
651.475	732
651.532	267
651.590	1321
651.647	-120
651.704	450
651.762	108
651.819	-258
651.876	207
651.933	671
651.990	1172
652.048	-291
652.105	729
652.162	1536
652.219	462
652.276	899
652.333	188
652.390	-637
652.448	591
652.505	866
652.562	85
652.619	696
652.676	2447
652.733	2856
652.790	775
652.847	-188
652.904	172
652.961	148
653.017	57
653.074	1423
653.131	-177
653.188	-60
653.245	194
653.302	73
653.359	420
653.415	325
653.472	-57
653.529	1147
653.586	-348
653.642	-76
653.699	634
653.756	-605
653.813	-184
653.869	478
653.926	-1289
653.983	364
654.039	499
654.096	352
654.152	1506
654.209	-18
654.266	369
654.322	-1572
654.379	689
654.435	830
654.492	731
654.548	1215
654.605	-160
654.661	1612
654.717	424
654.774	196
654.830	-153
654.887	-504
654.943	763
655.000	-28
655.056	84
655.112	665
655.168	-418
655.225	-19
655.281	363
655.337	64
655.394	548
655.450	420
655.506	-495
655.562	633
655.618	2059
655.675	-390
655.731	413
655.787	187
655.843	594
655.899	-298
655.955	-33
656.011	233
656.067	-1103
656.123	611
656.179	-399
656.235	964
656.291	-1202
656.347	1119
656.403	-176
656.459	-96
656.515	-394
656.571	37
656.627	-33
656.683	316
656.739	157
656.795	768
656.850	-1069
656.906	560
656.962	486
657.018	45
657.074	-602
657.129	396
657.185	188
657.241	116
657.297	-111
657.352	-133
657.408	344
657.464	94
657.519	-265
657.575	-403
657.630	-248
657.686	161
657.742	387
657.797	-14
657.853	-291
657.908	867
657.964	-860
658.019	192
658.075	-663
658.130	88
658.186	-1100
658.241	231
658.297	-960
658.352	-297
658.407	-51
658.463	-1117
658.518	145
658.573	-6
658.629	-730
658.684	-806
658.739	156
658.795	-310
658.850	136
658.905	-669
658.960	-880
659.016	235
659.071	-248
659.126	-619
659.181	-382
659.236	1050
659.291	1056
659.346	-603
659.401	-322
659.457	795
659.512	196
659.567	1206
659.622	112
659.677	118
659.732	-908
659.787	-32
659.842	-157
659.897	144
659.952	20
660.007	-179
660.061	-152
660.116	-808
660.171	-518
660.226	-770
660.281	273
660.336	-94
660.391	-707
660.445	-1159
660.500	-37
660.555	106
660.610	-322
660.664	792
660.719	-49
660.774	93
660.828	633
660.883	-537
660.938	132
660.992	-1277
661.047	-837
661.101	-35
661.156	-764
661.211	-215
661.265	-872
661.320	-389
661.374	47
661.429	-319
661.483	201
661.538	-1115
661.592	-455
661.647	-701
661.701	-491
661.755	928
661.810	-75
661.864	-208
661.919	-761
661.973	-394
662.027	-565
662.081	-687
662.136	-451
662.190	-537
662.244	-158
662.299	-284
662.353	-129
662.407	-831
662.461	707
662.515	-640
662.569	-938
662.624	484
662.678	-878
662.732	-597
662.786	-564
662.840	-869
662.894	-428
662.948	-606
663.002	130
663.056	996
663.110	-1281
663.164	-488
663.218	-427
663.272	-413
663.326	-25
663.380	-163
663.434	-541
663.488	-588
663.542	-390
663.595	-526
663.649	-1349
663.703	106
663.757	-949
663.811	-792
663.864	-832
663.918	-318
663.972	-478
664.026	-448
664.079	-745
664.133	-457
664.187	-1195
664.240	-833
664.294	-481
664.348	707
664.401	341
664.455	-421
664.508	-485
664.562	59
664.615	-296
664.669	-538
664.722	-79
664.776	-374
664.829	-805
664.883	-377
664.936	-1075
664.990	-170
665.043	-438
665.097	-1188
665.150	-530
665.203	87
665.257	-579
665.310	-190
665.363	-1205
665.417	-139
665.470	-584
665.523	-1031
665.576	-1184
665.630	-33
665.683	-342
665.736	-749
665.789	-807
665.842	-1158
665.895	-1068
665.949	-225
666.002	-711
666.055	-461
666.108	343
666.161	-14
666.214	-77
666.267	-112
666.320	146
666.373	-448
666.426	73
666.479	-33
666.532	-668
666.585	-527
666.638	166
666.691	-369
666.744	-835
666.796	-1358
666.849	-601
666.902	-232
666.955	-766
667.008	-1263
667.060	-1373
667.113	-811
667.166	-415
667.219	-6
667.271	-690
667.324	-594
667.377	8
667.430	34
667.482	92
667.535	524
667.587	-417
667.640	-674
667.693	-1070
667.745	881
667.798	835
667.850	-584
667.903	26
667.955	-541
668.008	-416
668.060	-356
668.113	-164
668.165	267
668.218	53
668.270	332
668.322	-746
668.375	-384
668.427	-19
668.479	-624
668.532	-36
668.584	-265
668.636	-828
668.689	535
668.741	-223
668.793	-255
668.845	-224
668.898	73
668.950	-549
669.002	-351
669.054	-539
669.106	-617
669.158	190
669.211	-99
669.263	-979
669.315	998
669.367	81
669.419	-197
669.471	1141
669.523	-38
669.575	105
669.627	-249
669.679	-966
669.731	-419
669.783	94
669.835	130
669.886	-80
669.938	-180
669.990	-615
670.042	-397
670.094	10
670.146	-244
670.197	218
670.249	785
670.301	469
670.353	1945
670.404	3318
670.456	5593
670.508	10486
670.560	19031
670.611	34093
670.663	62526
670.715	145984
670.766	198415
670.818	58940
670.869	11347
670.921	4631
670.972	4291
671.024	731
671.075	1367
671.127	1145
671.178	58
671.230	-130
671.281	-332
671.333	181
671.384	-934
671.436	43
671.487	326
671.538	-795
671.590	3
671.641	571
671.692	474
671.744	1252
671.795	791
671.846	-301
671.897	-107
671.949	-628
672.000	-584
672.051	-590
672.102	-98
672.153	-650
672.204	-393
672.256	-126
672.307	-568
672.358	-415
672.409	-234
672.460	-217
672.511	-745
672.562	-885
672.613	-328
672.664	-817
672.715	-799
672.766	-921
672.817	-1062
672.868	-1181
672.919	-655
672.970	-427
673.021	-1092
673.071	-1161
673.122	0
673.173	-293
673.224	-1099
673.275	-1410
673.326	-734
673.376	-680
673.427	-273
673.478	-1018
673.528	-27
673.579	-789
673.630	-151
673.680	-741
673.731	216
673.782	-1118
673.832	-1077
673.883	-1103
673.934	-1070
673.984	-756
674.035	-551
674.085	-417
674.136	-408
674.186	-1222
674.237	-912
674.287	-547
674.338	-963
674.388	-1496
674.438	-1352
674.489	-673
674.539	-404
674.589	-936
674.640	-1052
674.690	-108
674.740	-1244
674.791	-974
674.841	-116
674.891	-479
674.942	91
674.992	-1471
675.042	-1065
675.092	-937
675.142	-1315
675.193	-863
675.243	-1075
675.293	-953
675.343	-1516
675.393	-1871
675.443	-1226
675.493	-676
675.543	-1710
675.593	-1394
675.643	-1211
675.693	-910
675.743	-20
675.793	-1082
675.843	-1209
675.893	-946
675.943	-743
675.993	-1007
676.043	-946
676.093	-1023
676.142	-537
676.192	-1106
676.242	-459
676.292	-1524
676.341	-869
676.391	-1686
676.441	-2252
676.491	-1308
676.540	-1580
676.590	-1430
676.640	-1038
676.689	-340
676.739	-1530
676.789	-1242
676.838	-959
676.888	-1559
676.937	-1422
676.987	-1602
677.037	-1128
677.086	-268
677.136	-1353
677.185	-1446
677.235	-1571
677.284	-852
677.333	-1413
677.383	-1303
677.432	-1152
677.482	-1107
677.531	-695
677.580	-2059
677.630	-985
677.679	-1558
677.728	-415
677.778	-1114
677.827	-1275
677.876	-1178
677.925	-1556
677.975	-1813
678.024	-1219
678.073	-2243
678.122	-1872
678.171	-1646
678.220	-196
678.269	-1272
678.319	-1608
678.368	-1593
678.417	-1260
678.466	-856
678.515	-701
678.564	-1656
678.613	-933
678.662	-1287
678.711	-1247
678.760	-1183
678.809	-1035
678.857	-1873
678.906	-1732
678.955	-551
679.004	-699
679.053	-1606
679.102	-1598
679.151	-2097
679.199	-1344
679.248	-1173
679.297	-1184
679.346	-1546
679.394	-1717
679.443	-1529
679.492	-1093
679.540	-778
679.589	-1045
679.638	-1966
679.686	-1392
679.735	-866
679.784	-1554
679.832	-1422
679.881	-1353
679.929	-1456
679.978	-1520
680.026	-2376
680.075	-455
680.123	-1644
680.172	-1644
680.220	-1588
680.268	-1355
680.317	-1251
680.365	-1710
680.414	-2086
680.462	-1765
680.510	-1131
680.559	-1514
680.607	-1249
680.655	-1119
680.703	-1465
680.752	-1313
680.800	-1429
680.848	-1713
680.896	-1162
680.945	-1530
680.993	-1516
681.041	-1075
681.089	-1335
681.137	-370
681.185	-1542
681.233	-2001
681.258	-1547
681.281	-1146
681.329	-1385
681.377	-1930
681.380	-1836
681.425	-666
681.473	-469
681.502	-442
681.521	-483
681.569	-1278
681.617	-780
681.624	-853
681.665	-1534
681.713	-546
681.745	-969
681.761	-1210
681.809	-698
681.857	-92
681.867	-259
681.904	-964
681.952	-442
681.989	-886
682.000	-1061
682.048	-910
682.096	-934
682.111	-646
682.143	-99
682.191	41
682.233	494
682.239	532
682.286	-328
682.334	-429
682.354	-278
682.382	-156
682.430	411
682.476	822
682.477	809
682.525	-292
682.572	251
682.598	231
682.620	148
682.667	428
682.715	473
682.720	507
682.763	579
682.810	75
682.841	291
682.857	379
682.905	332
682.952	764
682.963	717
683.000	402
683.047	633
683.085	1818
683.095	2123
683.142	868
683.190	1611
683.206	1383
683.237	892
683.284	979
683.328	906
683.332	877
683.379	963
683.426	1034
683.449	1213
683.473	1390
683.521	1505
683.568	1217
683.571	1249
683.615	1425
683.662	1684
683.693	1545
683.709	1404
683.757	1709
683.804	1586
683.814	1692
683.851	1982
683.898	2741
683.936	2490
683.945	2404
683.992	2080
684.039	2051
684.057	2135
684.086	2279
684.133	1359
684.179	2240
684.180	2247
684.227	2490
684.274	2048
684.300	2205
684.321	2345
684.368	1956
684.415	2899
684.422	2869
684.462	2545
684.509	2599
684.543	2646
684.556	2664
684.603	2631
684.649	2660
684.665	2780
684.696	2988
684.743	3178
684.786	3115
684.790	3087
684.837	3056
684.883	3723
684.908	3535
684.930	3360
684.977	3125
685.023	3562
685.029	3533
685.070	3175
685.117	3557
685.150	3344
685.164	3266
685.210	4459
685.257	4172
685.272	4094
685.303	3816
685.350	3902
685.393	4049
685.396	4058
685.443	3662
685.490	4287
685.514	4230
685.536	4067
685.583	3773
685.629	3767
685.636	3767
685.675	3978
685.722	4473
685.757	4731
685.768	4726
685.815	4199
685.861	4561
685.878	4383
685.908	4235
685.954	4423
686.000	4756
686.000	4750
686.047	5203
686.093	4909
686.121	5080
686.139	5215
686.185	5134
686.232	4443
686.242	4601
686.278	5109
686.324	5007
686.363	5034
686.370	5054
686.416	4992
686.463	5548
686.484	5412
686.509	5140
686.555	4667
686.601	4943
686.606	4971
686.647	5300
686.693	4953
686.727	5171
686.739	5255
686.785	5277
686.831	5541
686.848	5540
686.877	5450
686.923	5456
686.969	5733
686.969	5733
687.015	5137
687.061	5645
687.090	5579
687.107	5518
687.153	5408
687.199	5624
687.211	5526
687.245	5356
687.291	5550
687.332	5765
687.336	5784
687.382	5668
687.428	6062
687.453	6200
687.474	6249
687.520	6090
687.565	5840
687.574	5796
687.611	5779
687.657	5409
687.695	6457
687.702	6666
687.748	6673
687.794	6871
687.816	7062
687.839	7133
687.885	7464
687.931	6961
687.937	6947
687.976	6821
688.022	7153
688.058	6523
688.067	6405
688.113	6677
688.158	6417
688.179	6530
688.204	6715
688.249	7451
688.295	7211
688.300	7202
688.340	7220
688.386	7539
688.421	7554
688.431	7481
688.477	7190
688.522	7150
688.542	7148
688.567	7412
688.613	7383
688.658	7433
688.663	7451
688.703	7433
688.749	7507
688.784	7476
688.794	7512
688.839	7530
688.884	7768
688.905	7702
688.930	7505
688.975	8052
689.020	7486
689.026	7475
689.065	7684
689.110	7751
689.146	8078
689.155	8098
689.201	7957
689.246	7260
689.267	7057
689.291	7204
689.336	7986
689.381	8325
689.388	8371
689.426	8243
689.471	8034
689.509	8196
689.516	8263
689.561	7869
689.606	8069
689.630	8120
689.651	8154
689.696	7881
689.741	7952
689.750	7994
689.785	8236
689.830	8299
689.871	8373
689.875	8390
689.920	8387
689.965	8129
689.992	7908
690.010	7906
690.054	8691
690.099	8559
690.112	8685
690.144	8678
690.189	7979
690.233	8160
690.233	8178
690.278	8688
690.323	9362
690.354	9371
690.367	9342
690.412	9871
690.457	10170
690.474	10356
690.501	10570
690.546	10332
690.590	10527
690.595	10484
690.635	10652
690.680	11357
690.716	11209
690.724	11403
690.769	13487
690.813	15406
690.836	16073
690.857	17759
690.902	21561
690.946	25762
690.957	26708
690.991	36434
691.035	49387
691.077	61751
691.080	61735
691.124	57791
691.168	54142
691.198	51853
691.213	48172
691.257	37200
691.301	25700
691.318	21240
691.346	19492
691.390	16879
691.434	14560
691.439	14184
691.478	13261
691.522	12908
691.559	12423
691.567	12432
691.611	12049
691.655	11830
691.680	11640
691.699	11551
691.743	11647
691.787	11539
691.800	11411
691.831	11345
691.875	11333
691.919	11573
691.921	11546
691.964	11380
692.008	11177
692.041	11163
692.052	11190
692.096	11051
692.139	11003
692.162	10933
692.183	10922
692.227	10823
692.271	10938
692.282	10866
692.315	10954
692.359	11319
692.402	11409
692.403	11435
692.447	11614
692.490	11704
692.523	11607
692.534	11557
692.578	11331
692.622	11458
692.643	11375
692.666	11475
692.709	11658
692.753	11781
692.763	11814
692.797	12059
692.840	11986
692.884	12271
692.884	12303
692.928	12280
692.971	12771
693.004	12644
693.015	12577
693.059	12446
693.102	12987
693.124	12672
693.146	12535
693.189	12778
693.233	12868
693.245	12832
693.276	13521
693.320	15007
693.363	15603
693.365	15612
693.407	17388
693.450	19230
693.485	20198
693.493	20775
693.537	23957
693.580	27023
693.605	28842
693.624	33032
693.667	42909
693.710	52767
693.725	56279
693.753	74938
693.797	103541
693.840	132781
693.845	135851
693.883	127850
693.926	119077
693.966	111219
693.970	109003
694.013	83677
694.056	57885
694.086	40151
694.099	38292
694.142	32188
694.185	25928
694.206	22926
694.229	21944
694.272	20153
694.315	18346
694.326	17761
694.358	17329
694.401	16836
694.444	16453
694.446	16389
694.487	15884
694.530	14948
694.566	14445
694.573	14474
694.616	14364
694.659	14416
694.686	14430
694.702	14410
694.745	13824
694.787	13478
694.806	13342
694.830	13408
694.873	13418
694.916	13108
694.926	13072
694.959	13081
695.002	13108
695.044	12806
695.046	12768
695.087	13202
695.130	13715
695.166	13898
695.172	13904
695.215	13847
695.258	13682
695.286	13596
695.301	13600
695.343	13428
695.386	13426
695.406	13306
695.428	13223
695.471	13147
695.514	12883
695.526	12746
695.556	12966
695.599	13466
695.641	13994
695.646	13993
695.684	13582
695.726	13256
695.766	12688
695.769	12712
695.811	12794
695.854	12668
695.886	12728
695.896	12886
695.938	13083
695.981	13397
696.005	13551
696.023	13634
696.065	13709
696.108	13945
696.125	13976
696.150	13782
696.192	13314
696.235	12851
696.245	12703
696.277	13380
696.319	14158
696.361	14940
696.365	14979
696.404	15202
696.446	15264
696.485	15207
696.488	15215
696.530	14886
696.572	14481
696.604	14159
696.614	14169
696.656	14034
696.698	13872
696.724	13720
696.740	13829
696.783	13993
696.825	14259
696.844	14304
696.867	14229
696.909	14069
696.951	13669
696.964	13604
696.992	13707
697.034	13617
697.076	13579
697.083	13527
697.118	13839
697.160	14247
697.202	14527
697.203	14496
697.244	14390
697.286	14149
697.323	13821
697.327	13833
697.369	13684
697.411	13461
697.442	13271
697.453	13368
697.494	13508
697.536	13720
697.562	13862
697.578	13878
697.620	13721
697.661	13569
697.682	13474
697.703	13617
697.744	13835
697.786	14055
697.801	14059
697.828	14086
697.869	14082
697.911	14095
697.921	14072
697.952	14248
697.994	14349
698.035	14472
698.040	14444
698.077	14378
698.118	14244
698.160	14136
698.160	14093
698.201	14052
698.243	14009
698.279	13905
698.284	13947
698.325	13978
698.367	13944
698.399	13893
698.408	13914
698.449	13825
698.491	13770
698.518	13661
698.532	13797
698.573	14114
698.614	14402
698.638	14534
698.656	14545
698.697	14460
698.738	14385
698.757	14307
698.779	14417
698.820	14537
698.862	14661
698.877	14665
698.903	14727
698.944	14757
698.985	14781
698.996	14747
699.026	14696
699.067	14563
699.116	14364
699.235	14699
699.354	13935
699.474	14102
699.593	14706
699.713	15279
699.832	15557
699.951	15293
700.070	14079
700.190	13413
700.309	14864
700.428	14145
700.547	13662
700.667	13586
700.786	14416
700.905	14838
701.024	14739
701.143	14587
701.262	13952
701.381	14199
701.500	13839
701.619	12747
701.738	13869
701.857	14585
701.976	12832
702.095	13209
702.214	12901
702.333	13957
702.452	13451
702.571	13882
702.690	12856
702.809	13345
702.928	12581
703.047	13439
703.165	12927
703.284	13901
703.403	13059
703.522	13297
703.640	13673
703.759	14134
703.878	12852
703.997	13059
704.115	12314
704.234	12322
704.353	12952
704.471	12879
704.590	11911
704.708	13201
704.827	12524
704.946	11958
705.064	12504
705.183	12036
705.301	12885
705.420	16493
705.538	16105
705.656	15342
705.775	14646
705.893	19609
706.012	21112
706.130	13673
706.249	13870
706.367	13722
706.485	14425
706.604	14297
706.722	13540
706.840	13543
706.958	14125
707.077	14420
707.195	13383
707.313	13880
707.431	13323
707.549	12990
707.668	13317
707.786	14009
707.904	12775
708.022	12888
708.140	13053
708.258	13444
708.376	13621
708.494	13781
708.612	13356
708.730	16736
708.848	16455
708.966	15023
709.084	13646
709.202	14020
709.320	14038
709.438	15419
709.556	14462
709.674	14937
709.791	14424
709.909	14188
710.027	14313
710.145	13990
710.263	13361
710.380	13911
710.498	13309
710.616	14420
710.733	12588
710.851	13596
710.969	13529
711.086	13155
711.204	14062
711.322	13176
711.439	12698
711.557	13598
711.674	13086
711.792	13564
711.909	13367
712.027	14034
712.144	12854
712.262	12262
712.379	13291
712.497	16585
712.614	17334
712.732	15613
712.849	14391
712.966	13821
713.084	13609
713.201	14922
713.318	15549
713.436	15044
713.553	14523
713.670	14186
713.787	14712
713.905	15166
714.022	13751
714.139	13653
714.256	14034
714.373	14625
714.490	13853
714.608	16101
714.725	28172
714.842	27968
714.959	13287
715.076	13400
715.193	13198
715.310	12473
715.427	13396
715.544	13754
715.661	12466
715.778	13512
715.895	13790
716.011	13974
716.128	13277
716.245	13162
716.362	12996
716.479	12998
716.596	12783
716.713	12876
716.829	12228
716.946	12811
717.063	10890
717.180	11754
717.296	11713
717.413	12518
717.530	11150
717.646	12629
717.763	11512
717.880	10437
717.996	10518
718.113	11093
718.229	10751
718.346	11803
718.462	11248
718.579	12203
718.695	12603
718.812	11707
718.928	11056
719.045	11530
719.161	10755
719.277	11415
719.394	10940
719.510	12175
719.626	11412
719.743	13121
719.859	11368
719.975	11315
720.092	13862
720.208	18747
720.324	11886
720.440	10868
720.557	11139
720.673	11686
720.789	12642
720.905	15820
721.021	11953
721.137	10429
721.253	11040
721.369	9968
721.486	10613
721.602	12230
721.718	9996
721.834	9548
721.950	9482
722.066	9811
722.181	9575
722.297	10370
722.413	9341
722.529	9972
722.645	10077
722.761	9356
722.877	9727
722.993	10071
723.108	10194
723.224	9743
723.340	9498
723.456	10032
723.571	10439
723.687	9144
723.803	9294
723.918	8412
724.034	8890
724.150	9815
724.265	9214
724.381	10616
724.497	10180
724.612	9530
724.728	8619
724.843	9897
724.959	8922
725.074	10206
725.190	9899
725.305	9138
725.421	8893
725.536	8513
725.651	8896
725.767	8795
725.882	8157
725.997	9039
726.113	8502
726.228	9209
726.343	8442
726.459	8320
726.574	8792
726.689	8950
726.804	8246
726.920	9813
727.035	8785
727.150	8265
727.265	8289
727.380	8414
727.495	7746
727.610	7988
727.725	8096
727.841	8427
727.956	11783
728.071	11145
728.186	7816
728.301	7237
728.416	8764
728.531	7768
728.645	7709
728.760	8827
728.875	7765
728.990	8009
729.105	6375
729.220	7769
729.335	8220
729.449	7638
729.564	7295
729.679	7666
729.794	6902
729.908	8824
730.023	8291
730.138	7200
730.253	7622
730.367	7484
730.482	7293
730.596	8132
730.711	8153
730.826	8241
730.940	6899
731.055	7493
731.169	6888
731.284	7002
731.398	6851
731.513	7775
731.627	6456
731.742	7525
731.856	6501
731.970	6066
732.085	6536
732.199	7497
732.313	6818
732.428	8642
732.542	10563
732.656	8897
732.771	7236
732.885	7168
732.999	6827
733.113	7087
733.227	6893
733.342	6563
733.456	6117
733.570	6761
733.684	6555
733.798	6956
733.912	6266
734.026	6078
734.140	6812
734.254	7317
734.368	7420
734.482	8397
734.596	6137
734.710	6063
734.824	6676
734.938	6939
735.052	5746
735.166	6498
735.280	6758
735.393	6792
735.507	5854
735.621	7226
735.735	7849
735.849	6829
735.962	6822
736.076	6425
736.190	6050
736.303	7294
736.417	6643
736.531	6286
736.644	6920
736.758	7068
736.872	6794
736.985	7192
737.099	5928
737.212	5902
737.326	6849
737.439	6209
737.553	6089
737.666	6645
737.780	6049
737.893	6315
738.007	6036
738.120	5751
738.233	6025
738.347	5968
738.460	6102
738.573	6811
738.687	5519
738.800	6749
738.913	6724
739.026	6887
739.140	6276
739.253	6738
739.366	6564
739.479	5753
739.592	5614
739.705	6749
739.818	5899
739.932	6240
740.045	5909
740.158	6417
740.271	5524
740.384	5903
740.497	5889
740.610	7049
740.723	6090
740.836	5967
740.949	6211
741.062	6671
741.174	6013
741.287	5690
741.400	5605
741.513	5885
741.626	6161
741.739	5565
741.851	5761
741.964	6220
742.077	5970
742.189	6396
742.302	5992
742.415	5463
742.527	6028
742.640	5885
742.753	6444
742.865	6125
742.978	5732
743.090	5780
743.203	5829
743.316	5921
743.428	5406
743.541	6002
743.653	5798
743.766	6166
743.878	6316
743.990	5927
744.103	6125
744.215	5621
744.327	5410
744.440	6400
744.552	6715
744.664	5816
744.777	5484
744.889	5832
745.001	5886
745.113	6092
745.226	5801
745.338	6504
745.450	5585
745.562	6289
745.674	6404
745.786	6064
745.898	6282
746.010	6226
746.122	5423
746.234	6103
746.347	5628
746.459	6824
746.570	5817
746.682	6262
746.794	5859
746.906	6616
747.018	5652
747.130	6905
747.242	6110
747.354	6010
747.466	6064
747.577	5659
747.689	5623
747.801	6227
747.913	5275
748.024	4921
748.136	6480
748.248	5102
748.359	6133
748.471	6635
748.583	6049
748.694	6340
748.806	7050
748.918	6426
749.029	5262
749.141	5599
749.252	6707
749.364	6378
749.475	5580
749.587	6433
749.698	5796
749.809	6047
749.921	5713
750.032	6538
750.144	5725
750.255	5910
750.366	6142
750.478	6755
750.589	5751
750.700	5908
750.811	6176
750.923	6368
751.034	5975
751.145	6866
751.256	6251
751.367	5800
751.479	5958
751.590	6312
751.701	6277
751.812	6147
751.923	5967
752.034	5815
752.145	5382
752.256	5926
752.367	6022
752.478	5467
752.589	6284
752.700	6910
752.811	5714
752.922	7129
753.032	5799
753.143	5753
753.254	5071
753.365	6226
753.476	6115
753.586	6957
753.697	5777
753.808	5954
753.919	5260
754.029	5678
754.140	6013
754.251	6220
754.361	6109
754.472	7087
754.582	6299
754.693	6704
754.804	7491
754.914	6684
755.025	6098
755.135	6479
755.246	6273
755.356	6672
755.466	6527
755.577	7978
755.687	6232
755.798	7234
755.908	7054
756.018	6587
756.129	6683
756.239	7466
756.349	6959
756.460	6920
756.570	7247
756.680	6293
756.790	6473
756.900	8245
757.011	6871
757.121	7758
757.231	7178
757.341	7440
757.451	6802
757.561	7195
757.671	7629
757.781	6941
757.891	7892
758.001	7218
758.111	8046
758.221	7802
758.331	7740
758.441	7938
758.551	7451
758.661	9039
758.771	8006
758.880	8208
758.990	8263
759.100	8865
759.210	9801
759.320	9123
759.429	9138
759.539	9778
759.649	9599
759.758	10434
759.868	9878
759.978	10028
760.087	9455
760.197	10438
760.307	10687
760.416	10198
760.526	10125
760.635	11549
760.745	12330
760.854	11649
760.964	11263
761.073	11432
761.182	12324
761.292	12824
761.401	13146
761.511	12656
761.620	12633
761.729	15279
761.839	14101
761.948	14586
762.057	14532
762.166	16637
762.276	14070
762.385	17138
762.494	16971
762.603	18037
762.712	18429
762.822	18716
762.931	19795
763.040	20039
763.149	20954
763.258	22729
763.367	23118
763.476	24561
763.585	24483
763.694	27012
763.803	27428
763.912	30627
764.021	30975
764.130	33886
764.238	35647
764.347	38218
764.456	39857
764.565	43687
764.674	48082
764.783	52881
764.891	55972
765.000	65368
765.109	72535
765.217	82682
765.326	92678
765.435	109607
765.543	129134
765.652	151009
765.761	183859
765.869	226150
765.978	276090
766.086	334119
766.195	381569
766.303	382455
766.412	279857
766.520	270697
766.629	365996
766.737	370608
766.846	325837
766.954	268255
767.062	217076
767.171	175969
767.279	143547
767.387	120945
767.496	102288
767.604	89899
767.712	79222
767.820	71445
767.928	65958
768.037	61242
768.145	56666
768.253	55205
768.361	53453
768.469	53553
768.577	53759
768.685	57564
768.793	60020
768.901	66597
769.009	75893
769.117	89278
769.225	109666
769.333	141376
769.441	191362
769.549	258997
769.657	335050
769.765	355302
769.873	261013
769.981	324015
770.088	328469
770.196	263956
770.304	200949
770.412	156863
770.519	123639
770.627	103350
770.735	84541
770.842	73348
770.950	64146
771.058	55238
771.165	51311
771.273	44169
771.380	40365
771.488	37795
771.595	33539
771.703	32768
771.810	30168
771.918	28774
772.025	26462
772.133	23747
772.240	23402
772.348	22266
772.455	22205
772.562	19650
772.670	19020
772.777	19063
772.884	18207
772.991	17036
773.099	15994
773.206	15848
773.313	16586
773.420	15198
773.528	14005
773.635	13192
773.742	13421
773.849	13801
773.956	12256
774.063	12490
774.170	11523
774.277	12378
774.384	10898
774.491	11030
774.598	10892
774.705	10881
774.812	10154
774.919	11541
775.026	10140
775.133	10501
775.239	9371
775.346	9113
775.453	9309
775.560	9440
775.667	9126
775.773	8065
775.880	10403
775.987	9215
776.093	8709
776.200	8611
776.307	8456
776.413	8036
776.520	7466
776.627	9025
776.733	7988
776.840	6274
776.946	8714
777.053	7624
777.159	7188
777.266	6494
777.372	8371
777.478	7414
777.585	7078
777.691	6922
777.798	7002
777.904	7368
778.010	6641
778.117	7283
778.223	6303
778.329	5830
778.435	6826
778.542	6281
778.648	6005
778.754	6044
778.860	6011
778.966	6266
779.072	6384
779.178	6155
779.284	6545
779.391	5925
779.497	5806
779.603	10065
779.708	11081
779.815	24561
779.920	75136
780.026	133170
780.132	32328
780.238	10823
780.344	8345
780.450	7074
780.556	6041
780.661	5386
780.767	5327
780.873	4809
780.979	5557
781.085	5163
781.190	4728
781.296	4262
781.402	3866
781.507	4771
781.613	4269
781.719	4248
781.824	4721
781.930	5245
782.035	4572
782.141	4812
782.246	3865
782.352	4120
782.457	3901
782.563	5050
782.668	3457
782.773	4161
782.879	2876
782.984	4650
783.090	4775
783.195	4317
783.300	3465
783.405	4279
783.511	4041
783.616	4126
783.721	3645
783.826	3820
783.932	3829
784.037	3531
784.142	3916
784.247	3615
784.352	4404
784.457	3450
784.562	3436
784.667	4429
784.772	2791
784.877	3316
784.982	4299
785.087	3031
785.192	3772
785.297	3302
785.402	4418
785.507	3454
785.611	3131
785.716	3563
785.821	4034
785.926	3372
786.031	3098
786.135	3154
786.240	3133
786.345	2035
786.450	3526
786.554	3289
786.659	2711
786.763	2493
786.868	3901
786.973	3156
787.077	2627
787.182	3041
787.286	3102
787.391	2869
787.495	2716
787.600	3566
787.704	2397
787.809	3453
787.913	2441
788.017	3610
788.122	3716
788.226	4066
788.330	2935
788.435	2913
788.539	2403
788.643	3520
788.747	2796
788.852	2947
788.956	3052
789.060	3020
789.164	3178
789.268	2688
789.372	3412
789.476	2723
789.580	2154
789.684	2579
789.788	2517
789.892	2427
789.996	3826
790.100	3460
790.204	2695
790.308	2380
790.412	2295
790.516	3296
790.620	2213
790.724	2666
790.828	3723
790.931	2838
791.035	4173
791.139	2985
791.242	1870
791.346	4217
791.450	2275
791.554	1807
791.657	1832
791.761	3686
791.864	2540
791.968	3318
792.072	2626
792.175	3234
792.279	3157
792.382	3086
792.486	2492
792.589	2431
792.693	2531
792.796	1344
792.899	3699
793.003	3088
793.106	1257
793.209	2880
793.313	3427
793.416	1371
793.519	3812
793.623	3311
793.726	2506
793.829	1998
793.932	2873
794.035	1702
794.138	4589
794.242	3439
794.345	3112
794.448	6753
794.551	12231
794.654	43601
794.757	85834
794.860	20143
794.963	4831
795.066	3409
795.169	4880
795.272	2416
795.375	2599
795.477	2058
795.580	3023
795.683	1989
795.786	2108
795.889	1545
795.991	3331
796.094	2699
796.197	598
796.300	3605
796.402	2131
796.505	2355
796.608	1966
796.710	2525
796.813	1702
796.915	2536
797.018	2851
797.120	2835
797.223	702
797.326	3764
797.428	1547
797.530	2366
797.633	704
797.735	2705
797.838	1669
797.940	2015
798.042	1662
798.145	1843
798.247	2904
798.349	1622
798.452	2941
798.554	1635
798.656	736
798.758	2892
798.860	2289
798.962	2281
799.065	1069
799.167	1079
799.269	2338
799.371	2052
799.473	1950
799.575	840
799.677	1568
799.779	3005
799.881	912
799.983	2175
800.085	1879
800.187	2036
800.289	843
800.390	1873
800.492	2069
800.594	2319
800.696	1906
800.798	2782
800.899	1946
801.001	1496
801.103	956
801.205	1858
801.306	1149
801.408	461
801.509	1481
801.611	1302
801.713	1871
801.814	1343
801.916	1040
802.017	1786
802.119	444
802.220	1982
802.322	500
802.423	2865
802.525	-4
802.626	1683
802.727	2621
802.829	723
802.930	-111
803.031	3028
803.133	1531
803.234	2057
803.335	1906
803.436	751
803.538	1317
803.639	1292
803.740	2289
803.841	662
803.942	694
804.043	2353
804.144	948
804.245	2064
804.346	995
804.447	1217
804.548	1788
804.649	2468
804.750	786
804.851	732
804.952	1048
805.053	1632
805.154	1458
805.255	2072
805.355	1028
805.456	1007
805.557	1024
805.658	863
805.758	2446
805.859	1357
805.960	1332
806.061	1184
806.161	1098
806.262	1417
806.362	1254
806.463	1887
806.564	984
806.664	1160
806.765	1170
806.865	1916
806.966	1165
807.066	685
807.166	1438
807.267	2725
807.367	1382
807.468	2049
807.568	334
807.668	1866
807.769	1920
807.869	1338
807.969	1045
808.069	1412
808.170	1651
808.270	1215
808.370	2443
808.470	960
808.570	40
808.670	862
808.770	1639
808.870	339
808.970	1305
809.070	1041
809.170	839
809.271	1744
809.370	1324
809.470	1581
809.570	1739
809.670	-130
809.770	1419
809.870	2383
809.970	1401
810.070	1161
810.169	1589
810.269	455
810.369	2207
810.469	1901
810.568	315
810.668	1260
810.768	605
810.867	1460
810.967	599
811.066	1570
811.166	963
811.265	1449
811.365	526
811.464	1660
811.564	1939
811.663	1925
811.763	-277
811.862	1313
811.962	1426
812.061	1453
812.160	585
812.260	1889
812.359	1464
812.458	1581
812.557	3886
812.657	3797
812.756	2430
812.855	598
812.954	608
813.053	2038
813.153	1351
813.252	468
813.351	2015
813.450	1197
813.549	860
813.648	1958
813.747	1082
813.846	1902
813.945	1055
814.044	1337
814.143	1107
814.242	2143
814.341	1142
814.439	1750
814.538	1719
814.637	1439
814.736	1173
814.835	2740
814.933	2143
815.032	2491
815.131	1219
815.229	1943
815.328	2357
815.427	1963
815.525	2401
815.624	2215
815.722	462
815.821	2518
815.919	1403
816.018	2473
816.116	2021
816.215	2650
816.313	2237
816.412	2413
816.510	2919
816.609	3356
816.707	2436
816.805	2802
816.904	2537
817.002	2838
817.100	4164
817.198	4615
817.296	4075
817.395	5127
817.493	6552
817.591	6699
817.689	9718
817.787	11745
817.885	18747
817.983	30200
818.081	55034
818.179	108238
818.277	186235
818.375	163708
818.473	85014
818.571	44329
818.669	29699
818.767	24386
818.865	24103
818.963	28310
819.061	36179
819.158	54929
819.256	95762
819.354	162315
819.452	216501
819.549	175140
819.647	108185
819.745	61249
819.842	38765
819.940	26726
820.038	19034
820.135	15071
820.233	13175
820.330	9324
820.428	7605
820.525	7949
820.623	5770
820.720	4773
820.818	5257
820.915	5117
821.012	4608
821.110	2660
821.207	3915
821.304	3423
821.402	2652
821.499	3115
821.596	3612
821.693	2887
821.791	3170
821.888	2471
821.985	3271
822.082	1788
822.179	3231
822.276	2173
822.373	2143
822.470	1287
822.567	1668
822.664	2021
822.761	2548
822.858	211
822.955	2102
823.052	1778
823.149	1083
823.246	1494
823.343	1156
823.440	2420
823.536	1102
823.633	935
823.730	1221
823.827	1746
823.923	1303
824.020	2276
824.117	-316
824.213	761
824.310	2868
824.407	927
824.503	1105
824.600	1883
824.696	403
824.793	2083
824.889	457
824.986	1554
825.082	921
825.179	1659
825.275	1112
825.371	499
825.468	1574
825.564	1244
825.660	1502
825.757	826
825.853	1971
825.949	959
826.045	902
826.142	286
826.238	988
826.334	1393
826.430	-582
826.526	2046
826.622	1204
826.718	876
826.814	-20
826.910	1317
827.006	718
827.102	-156
827.198	1132
827.294	895
827.390	1182
827.486	601
827.582	-555
827.678	361
827.774	1811
827.869	765
827.965	1043
828.061	248
828.157	726
828.252	1218
828.348	-549
828.444	1452
828.539	-954
828.635	105
828.731	1689
828.826	1079
828.922	768
829.017	418
829.113	1158
829.208	365
829.304	185
829.399	1866
829.495	336
829.590	1270
829.685	280
829.781	730
829.876	122
829.971	49
830.066	304
830.162	-20
830.257	249
830.352	14
830.447	1819
830.543	539
830.638	-650
830.733	2091
830.828	-339
830.923	1164
831.018	793
831.113	498
831.208	-1019
831.303	156
831.398	5
831.493	1069
831.588	635
831.683	922
831.778	332
831.873	917
831.967	1200
832.062	-164
832.157	-624
832.252	1639
832.346	170
832.441	1207
832.536	719
832.631	1747
832.725	302
832.820	-489
832.914	416
833.009	205
833.104	754
833.198	1658
833.293	-261
833.387	938
833.482	543
833.576	183
833.670	1079
833.765	286
833.859	-753
833.954	1271
834.048	284
834.142	-69
834.237	-205
834.331	778
834.425	500
834.519	104
834.613	838
834.708	-616
834.802	657
834.896	-145
834.990	785
835.084	988
835.178	-29
835.272	201
835.366	-206
835.460	633
835.554	657
835.648	641
835.742	-749
835.836	590
835.930	-658
836.024	627
836.117	1392
836.211	-27
836.305	644
836.399	1021
836.493	-63
836.586	1040
836.680	-448
836.774	-693
836.867	1073
836.961	-210
837.055	-123
837.148	-228
837.242	366
837.335	253
837.429	644
837.522	-37
837.616	-272
837.709	1228
837.803	-286
837.896	1216
837.989	-533
838.083	553
838.176	1202
838.269	-234
838.363	1453
838.456	-502
838.549	42
838.642	575
838.735	1527
838.829	1421
838.922	-335
839.015	841
839.108	-278
839.201	630
839.294	266
839.387	1109
839.480	-130
839.573	1054
839.666	195
839.759	35
839.852	21
839.945	735
840.038	-373
840.131	652
840.223	178
840.316	642
840.409	-160
840.502	653
840.594	1450
840.687	-419
840.780	977
840.873	330
840.965	146
841.058	947
841.150	699
841.243	-550
841.336	13
841.428	792
841.521	772
841.613	-277
841.706	582
841.798	320
841.890	115
841.983	-563
842.075	1376
842.167	116
842.260	227
842.352	1628
842.444	482
842.537	624
842.629	1072
842.721	394
842.813	-410
842.905	-549
842.997	523
843.090	-321
843.182	87
843.274	-87
843.366	936
843.458	3020
843.550	1874
843.642	27
843.734	494
843.826	35
843.918	454
844.009	436
844.101	448
844.193	-252
844.285	-834
844.377	519
844.469	986
844.560	-96
844.652	-580
844.744	835
844.835	526
844.927	576
845.019	529
845.110	50
845.202	190
845.293	311
845.385	-549
845.476	-418
845.568	1297
845.659	-256
845.751	712
845.842	844
845.934	-269
846.025	-205
846.116	521
846.208	359
846.299	248
846.390	902
846.482	-30
846.573	485
846.664	-249
846.755	320
846.846	810
846.937	-369
847.029	-110
847.120	-431
847.211	140
847.302	823
847.393	-349
847.484	1183
847.575	116
847.666	42
847.757	-88
847.847	694
847.938	341
848.029	336
848.120	-121
848.211	1193
848.302	-59
848.392	-122
848.483	393
848.574	46
848.664	-409
848.755	357
848.846	-35
848.936	123
849.027	36
849.118	-4
849.208	427
849.299	298
849.389	428
849.480	854
849.570	-9
849.661	154
849.751	99
849.841	581
849.932	-717
850.022	-25
850.112	121
850.203	-59
850.293	-469
850.383	242
850.474	394
850.564	-226
850.654	-231
850.744	651
850.834	21
850.924	-683
851.014	-181
851.104	250
851.194	-36
851.284	79
851.374	314
851.464	264
851.554	795
851.644	245
851.734	503
851.824	695
851.914	2721
852.004	5663
852.094	5746
852.183	1299
852.273	480
852.363	-454
852.452	-15
852.542	32
852.632	-635
852.721	218
852.811	-405
852.901	931
852.990	-560
853.080	-500
853.169	-243
853.259	349
853.348	-486
853.438	-127
853.527	-278
853.617	434
853.706	-869
853.795	401
853.885	1194
853.974	165
854.063	2131
854.152	1919
854.242	-55
854.331	-99
854.420	-466
854.509	-271
854.598	-43
854.687	-462
854.777	-501
854.866	-431
854.955	322
855.044	110
855.133	390
855.222	-408
855.311	-64
855.400	249
855.488	-679
855.577	-461
855.666	194
855.755	248
855.844	-34
855.933	-289
856.021	-66
856.110	-766
856.199	-564
856.288	247
856.376	-517
856.465	-463
856.554	-44
856.642	-131
856.731	828
856.819	-469
856.908	-298
856.996	336
857.085	75
857.173	235
857.262	108
857.350	154
857.438	739
857.527	-70
857.615	97
857.703	948
857.792	-399
857.880	-666
857.968	-12
858.056	111
858.145	-123
858.233	-116
858.321	-1489
858.409	68
858.497	-105
858.585	-263
858.673	-43
858.761	-230
858.849	-503
858.937	-277
859.025	-274
859.113	512
859.201	-316
859.289	936
859.377	-608
859.465	275
859.552	-383
859.640	180
859.728	-99
859.816	382
859.903	78
859.991	-39
860.079	643
860.166	-763
860.254	-152
860.342	-134
860.429	-395
860.517	-359
860.604	-171
860.692	544
860.779	-316
860.867	571
860.954	-888
861.042	-384
861.129	45
861.216	-133
861.304	-912
861.391	-498
861.478	1
861.565	-151
861.653	-152
861.740	224
861.827	-170
861.914	-585
862.001	-471
862.089	348
862.176	-71
862.263	-504
862.350	-774
862.437	-656
862.524	-769
862.611	-334
862.698	219
862.785	699
862.871	192
862.958	-523
863.045	-824
863.132	472
863.219	-820
863.306	-470
863.392	-586
863.479	-82
863.566	354
863.652	436
863.739	-549
863.826	280
863.912	81
863.999	-883
864.086	-362
864.172	-898
864.259	-1058
864.345	-2
864.432	-313
864.518	-607
864.604	-691
864.691	-505
864.777	-416
864.863	723
864.950	-157
865.036	-721
865.122	-585
865.209	385
865.295	-626
865.381	-233
865.467	-1042
865.553	705
865.639	-591
865.726	-221
865.812	-109
865.898	1313
865.984	-202
866.070	1432
866.156	869
866.242	645
866.328	117
866.414	-218
866.499	-643
866.585	-541
866.671	447
866.757	305
866.843	-818
866.928	100
867.014	-10
867.100	219
867.186	-907
867.271	97
867.357	99
867.442	46
867.528	-626
867.614	-12
867.699	-640
867.785	537
867.870	-839
867.956	242
868.041	96
868.127	-452
868.212	-77
868.297	464
868.383	-498
868.468	699
868.553	801
868.639	135
868.724	191
868.809	500
868.894	29
868.979	334
869.065	-409
869.150	-748
869.235	-374
869.320	-170
869.405	-533
869.490	-410
869.575	204
869.660	-154
869.745	263
869.830	-397
869.915	-355
870.000	-84
870.085	-405
870.169	-161
870.254	14
870.339	-631
870.424	-1139
870.509	530
870.593	-900
870.678	-24
870.763	-1312
870.847	-90
870.932	-1141
871.016	32
871.101	-806
871.186	-304
871.270	-545
871.355	-3
871.439	340
871.523	-364
871.608	-481
871.692	-22
871.777	-15
871.861	-584
871.945	-372
872.030	-869
872.114	-718
872.198	-471
872.282	-204
872.367	-135
872.451	-653
872.535	-756
872.619	-104
872.703	-549
872.787	-969
872.871	-929
872.955	-320
873.039	-600
873.123	-835
873.207	298
873.291	-802
873.375	-922
873.459	-472
873.543	-1013
873.627	-635
873.711	-938
873.794	-276
873.878	-557
873.962	-1302
874.045	-234
874.129	-569
874.137	-610
874.213	-1017
874.245	-802
874.296	-457
874.352	-534
874.380	-570
874.460	-575
874.464	-576
874.547	-431
874.568	-460
874.631	-560
874.676	-246
874.714	38
874.784	106
874.798	114
874.881	847
874.892	596
874.965	-1128
874.999	-837
875.048	-431
875.107	-626
875.131	-707
875.215	140
875.215	139
875.298	-273
875.323	-330
875.381	-381
875.430	-77
875.465	91
875.538	-184
875.548	-214
875.631	-930
875.646	-892
875.714	-707
875.753	-392
875.798	-86
875.861	-624
875.881	-759
875.964	-279
875.968	-298
876.047	-709
876.076	-492
876.130	-101
876.183	-304
876.213	-399
876.291	-32
876.296	-7
876.379	58
876.398	-69
876.462	-540
876.506	-331
876.545	-101
876.613	-494
876.628	-593
876.711	48
876.721	-24
876.794	-544
876.828	-630
876.877	-805
876.935	-548
876.960	-365
877.043	-403
877.043	-402
877.125	-480
877.150	-240
877.208	367
877.258	-421
877.291	-925
877.365	-411
877.374	-362
877.456	-459
877.472	-353
877.539	128
877.579	-31
877.622	-303
877.687	-547
877.704	-527
877.787	-239
877.794	-293
877.869	-1073
877.901	-950
877.952	-730
878.008	-456
878.034	-382
878.115	-994
878.117	-1000
878.199	-761
878.222	-580
878.282	-354
878.329	-300
878.364	-160
878.437	55
878.447	92
878.529	-830
878.544	-767
878.611	-709
878.651	-787
878.694	-765
878.758	-750
878.776	-719
878.858	229
878.865	231
878.941	94
878.972	-37
879.023	-186
879.078	-530
879.105	-700
879.185	-188
879.187	-177
879.269	-374
879.292	-440
879.351	-563
879.399	-410
879.433	-268
879.506	275
879.516	303
879.598	-837
879.613	-835
879.680	-601
879.720	-675
879.762	-703
879.827	-681
879.844	-688
879.926	-596
879.933	-560
880.007	-108
880.040	-270
880.089	-505
880.147	-500
880.171	-534
880.253	225
880.254	223
880.335	15
880.360	123
880.417	290
880.467	367
880.499	507
880.574	339
880.580	303
880.662	161
880.680	30
880.744	-435
880.787	-137
880.825	149
880.893	-242
880.907	-326
880.989	-317
881.000	-315
881.070	-120
881.106	-112
881.152	-133
881.213	-94
881.233	-40
881.315	199
881.319	225
881.396	348
881.426	111
881.478	-362
881.532	-458
881.559	-381
881.639	-483
881.641	-483
881.722	-241
881.745	-174
881.803	-242
881.852	-460
881.885	-378
881.958	373
881.966	389
882.047	-235
882.064	-248
882.129	-82
882.171	-161
882.210	-179
882.277	43
882.291	67
882.372	-150
882.383	-199
882.454	-173
882.489	-66
882.535	-271
882.596	-529
882.616	-511
882.697	-516
882.702	-486
882.778	47
882.808	113
882.859	89
882.914	32
882.940	15
883.020	-369
883.021	-370
883.102	-83
883.127	-204
883.183	-497
883.233	-680
883.264	-590
883.339	-49
883.345	-51
883.426	-357
883.445	-388
883.507	-232
883.551	-140
883.587	-146
883.657	-252
883.668	-183
883.749	-99
883.763	-8
883.830	-314
883.869	-287
883.910	269
883.975	570
883.991	442
884.072	297
884.081	204
884.152	-396
884.187	-433
884.233	-319
884.292	-273
884.314	-188
884.394	95
884.398	100
884.475	203
884.504	289
884.555	536
884.610	877
884.636	661
884.716	-269
884.716	-266
884.797	-457
884.821	-253
884.877	-197
884.927	-669
884.958	-633
885.033	305
885.038	333
885.118	-96
885.139	-84
885.199	-136
885.244	-197
885.279	-146
885.350	-253
885.359	-200
885.439	292
885.456	392
885.520	223
885.561	228
885.600	297
885.667	279
885.680	246
885.760	33
885.773	-0
885.840	50
885.878	69
885.920	123
885.984	148
886.000	189
886.080	372
886.089	403
886.160	96
886.195	-69
886.240	106
886.300	216
886.320	138
886.400	-142
886.406	-158
886.480	-21
886.511	31
886.560	-241
886.616	-524
886.640	-409
886.720	-184
886.722	-178
886.800	-253
886.827	-293
886.879	-275
886.932	-201
886.959	-41
887.038	317
887.039	320
887.119	347
887.143	448
887.198	594
887.248	575
887.278	483
887.354	198
887.358	192
887.437	141
887.459	108
887.517	572
887.564	994
887.596	754
887.669	53
887.676	60
887.755	210
887.774	270
887.835	359
887.880	397
887.914	314
887.985	10
887.994	-55
888.073	-543
888.090	-675
888.153	-279
888.195	96
888.232	54
888.300	-101
888.311	-128
888.391	-323
888.405	-356
888.470	72
888.510	309
888.549	215
888.615	57
888.628	46
888.708	58
888.720	36
888.787	-379
888.825	-566
888.866	-375
888.930	-116
888.945	-53
889.024	329
889.035	376
889.103	100
889.140	-45
889.182	358
889.245	917
889.261	651
889.340	-548
889.349	-691
889.419	-146
889.454	150
889.498	175
889.559	199
889.577	292
889.656	710
889.664	750
889.735	397
889.768	228
889.814	411
889.873	654
889.978	149
890.083	713
890.187	-54
890.292	-156
890.397	-196
890.501	-21
890.606	-15
890.710	680
890.815	578
890.919	-87
891.024	33
891.128	433
891.233	206
891.337	51
891.442	-56
891.546	-345
891.650	396
891.755	219
891.859	1226
891.963	78
892.068	128
892.172	165
892.276	-434
892.380	481
892.484	873
892.589	-502
892.693	-432
892.797	510
892.901	-238
893.005	-103
893.109	398
893.213	283
893.317	628
893.421	970
893.525	120
893.629	227
893.733	0
893.837	-56
893.941	-384
894.045	1272
894.148	266
894.252	679
894.356	272
894.460	176
894.564	75
894.667	202
894.771	-95
894.875	369
894.978	418
895.082	-50
895.186	981
895.289	928
895.393	343
895.496	-54
895.600	82
895.703	27
895.807	736
895.910	226
896.014	185
896.117	385
896.221	468
896.324	653
896.427	-279
896.531	-104
896.634	-157
896.737	301
896.840	-247
896.944	-155
897.047	-38
897.150	-129
897.253	49
897.356	-198
897.460	-657
897.563	195
897.666	218
897.769	-58
897.872	223
897.975	543
898.078	825
898.181	319
898.284	907
898.387	178
898.490	-9
898.593	7
898.695	273
898.798	733
898.901	681
899.004	707
899.107	598
899.209	307
899.312	-410
899.415	479
899.518	527
899.620	133
899.723	-79
899.826	307
899.928	1019
900.031	-248
900.133	-855
900.236	502
900.338	64
900.441	149
900.543	-227
900.646	722
900.748	-67
900.851	505
900.953	114
901.055	-5
901.158	253
901.260	543
901.362	-12
901.465	-227
901.567	792
901.669	142
901.771	-281
901.873	-162
901.976	-245
902.078	137
902.180	-465
902.282	-358
902.384	-445
902.486	20
902.588	429
902.690	-873
902.792	-384
902.894	-23
902.996	285
903.098	825
903.200	-187
903.302	667
903.404	139
903.505	-90
903.607	130
903.709	347
903.811	322
903.913	359
904.014	-583
904.116	237
904.218	216
904.319	443
904.421	480
904.523	422
904.624	-225
904.726	136
904.827	248
904.929	-595
905.030	83
905.132	-263
905.233	767
905.335	10
905.436	-457
905.537	-431
905.639	823
905.740	-790
905.841	650
905.943	1001
906.044	469
906.145	232
906.247	-433
906.348	-228
906.449	378
906.550	-155
906.651	336
906.752	-11
906.854	7
906.955	59
907.056	-27
907.157	731
907.258	-82
907.359	486
907.460	289
907.561	520
907.662	529
907.762	-123
907.863	318
907.964	148
908.065	268
908.166	457
908.267	-300
908.367	-41
908.468	303
908.569	760
908.670	119
908.770	391
908.871	213
908.971	-422
909.072	-355
909.173	484
909.273	-109
909.374	275
909.474	-752
909.575	242
909.675	-415
909.776	693
909.876	-462
909.977	517
910.077	601
910.177	16
910.278	214
910.378	-266
910.478	-439
910.579	310
910.679	-71
910.779	-727
910.879	-231
910.980	567
911.080	190
911.180	250
911.280	-3
911.380	-204
911.480	-102
911.580	43
911.680	425
911.780	720
911.880	-433
911.980	-24
912.080	-167
912.180	761
912.280	559
912.380	287
912.480	128
912.580	-46
912.679	866
912.779	569
912.879	108
912.979	157
913.078	-146
913.178	1047
913.278	-288
913.377	466
913.477	373
913.577	151
913.676	741
913.776	-43
913.875	550
913.975	-413
914.074	47
914.174	116
914.273	-664
914.373	429
914.472	22
914.572	-121
914.671	312
914.770	-396
914.870	-194
914.969	126
915.068	-527
915.167	834
915.267	-402
915.366	-258
915.465	-34
915.564	543
915.663	17
915.763	10
915.862	-242
915.961	-169
916.060	194
916.159	-103
916.258	-345
916.357	593
916.456	56
916.555	-695
916.654	-243
916.752	182
916.851	352
916.950	-83
917.049	-662
917.148	233
917.247	-546
917.345	709
917.444	-895
917.543	232
917.642	163
917.740	-134
917.839	-480
917.937	-367
918.036	-506
918.135	-395
918.233	-99
918.332	186
918.430	-499
918.529	-168
918.627	-216
918.726	-527
918.824	-277
918.923	-315
919.021	-356
919.119	-399
919.218	-149
919.316	-310
919.414	-350
919.512	452
919.611	-87
919.709	-7
919.807	151
919.905	-220
920.003	-457
920.102	375
920.200	-1173
920.298	194
920.396	-449
920.494	79
920.592	-529
920.690	-138
920.788	-871
920.886	-435
920.984	-770
921.082	-440
921.180	20
921.277	-27
921.375	-17
921.473	-417
921.571	-840
921.669	-148
921.766	-672
921.864	246
921.962	-120
922.060	-490
922.157	-357
922.255	281
922.352	244
922.450	90
922.548	-207
922.645	-513
922.743	10
922.840	-416
922.938	-715
923.035	-203
923.133	-901
923.230	-512
923.327	-440
923.425	356
923.522	-160
923.619	-90
923.717	-930
923.814	-194
923.911	254
924.008	239
924.106	-1007
924.203	-655
924.300	-1216
924.397	-584
924.494	79
924.591	-360
924.688	-35
924.786	160
924.883	-179
924.979	-824
925.077	-677
925.173	-428
925.270	228
925.367	632
925.464	-234
925.561	588
925.658	213
925.755	-231
925.852	-801
925.948	-269
926.045	-81
926.142	-368
926.239	-160
926.335	-418
926.432	8
926.529	-366
926.625	-45
926.722	839
926.818	-218
926.915	-244
927.011	-626
927.108	-586
927.204	-410
927.301	-156
927.397	-445
927.494	40
927.590	-303
927.687	-573
927.783	-662
927.879	-410
927.976	-398
928.072	111
928.168	435
928.264	-658
928.361	74
928.457	24
928.553	-1007
928.649	11
928.745	-782
928.841	298
928.937	-145
929.033	-224
929.129	436
929.225	-851
929.321	49
929.417	-739
929.513	-282
929.609	-417
929.705	-302
929.801	407
929.897	-805
929.993	-148
930.089	-20
930.184	-1062
930.280	-120
930.376	-285
930.471	-194
930.567	312
930.663	-416
930.758	496
930.854	-845
930.950	-536
931.045	-325
931.141	-411
931.236	-259
931.332	-491
931.427	-460
931.523	-604
931.618	-86
931.714	-719
931.809	6
931.905	-648
932.000	-703
932.095	-343
932.191	-328
932.286	-214
932.381	-341
932.476	-920
932.572	-577
932.667	-559
932.762	-810
932.857	-403
932.952	-482
933.047	-1123
933.142	-296
933.237	-765
933.332	-326
933.427	29
933.522	606
933.617	80
933.712	552
933.807	-318
933.902	-843
933.997	65
934.092	-637
934.187	-110
934.282	-715
934.376	-646
934.471	-41
934.566	-73
934.661	-588
934.755	-431
934.850	-269
934.945	-39
935.039	-158
935.134	-532
935.228	-100
935.323	-438
935.417	-66
935.512	232
935.606	-394
935.701	-1463
935.795	-178
935.890	-241
935.984	-76
936.079	-218
936.173	160
936.267	-1086
936.362	-683
936.456	-706
936.550	110
936.644	-259
936.738	-251
936.833	465
936.927	-445
937.021	192
937.115	-182
937.209	-1276
937.303	464
937.397	-161
937.491	39
937.585	-163
937.679	-161
937.773	-966
937.867	-489
937.961	-140
938.055	40
938.149	-225
938.243	-400
938.337	-427
938.430	-734
938.524	-1
938.618	-877
938.712	-509
938.805	-330
938.899	50
938.993	129
939.086	364
939.180	-882
939.274	4
939.367	-81
939.461	0
939.554	-502
939.648	-1072
939.741	-69
939.835	-300
939.928	-475
940.022	1248
940.115	-1071
940.208	-571
940.302	-81
940.395	-932
940.488	-1198
940.582	288
940.675	-627
940.768	284
940.861	-164
940.954	430
941.048	-1417
941.141	-199
941.234	-975
941.327	-300
941.420	666
941.513	-115
941.606	-149
941.699	412
941.792	-580
941.885	-355
941.978	-116
942.071	412
942.164	-756
942.257	-703
942.349	-1114
942.442	-6
942.535	-92
942.628	64
942.721	520
942.813	-1367
942.906	-55
942.999	-1070
943.091	-376
943.184	-88
943.277	-442
943.369	88
943.462	-196
943.554	-591
943.647	-1328
943.739	-637
943.832	-1154
943.924	-863
944.017	243
944.109	-1093
944.201	-56
944.294	-8
944.386	-1269
944.478	103
944.571	-616
944.663	-169
944.755	309
944.847	350
944.940	226
945.032	-823
945.124	-328
945.216	492
945.308	211
945.400	73
945.492	-415
945.584	-776
945.676	-1179
945.768	-630
945.860	-40
945.952	-978
946.044	-159
946.136	-1500
946.228	-646
946.320	92
946.412	-101
946.503	-340
946.595	647
946.687	-919
946.779	-329
946.870	49
946.962	-602
947.054	453
947.145	-1057
947.237	257
947.329	-325
947.420	-754
947.512	-166
947.603	-674
947.695	-385
947.786	-6
947.878	-929
947.969	346
948.061	-600
948.152	-1085
948.243	-185
948.335	-138
948.426	188
948.517	-609
948.609	-1080
948.700	-509
948.791	-960
948.882	609
948.973	-688
949.065	85
949.156	-517
949.247	-860
949.338	-21
949.429	-526
949.520	-506
949.611	-884
949.702	398
949.793	-325
949.884	386
949.975	-30
950.066	-31
950.157	-685
950.247	-12
950.338	-361
950.429	-654
950.520	-53
950.611	-275
950.701	-902
950.792	-720
950.883	56
950.973	230
951.064	-570
951.155	-85
951.245	-649
951.336	-369
951.427	-728
951.517	33
951.608	78
951.698	-669
951.788	-246
951.879	-743
951.969	-493
952.060	-1047
952.150	-482
952.240	-157
952.331	-1725
952.421	72
952.511	-670
952.602	-613
952.692	-613
952.782	-262
952.872	-6
952.962	-277
953.052	-259
953.143	-1138
953.233	-170
953.323	40
953.413	-582
953.503	-511
953.593	-284
953.683	-374
953.773	-1132
953.863	-330
953.953	-1245
954.042	-544
954.132	-92
954.222	-419
954.312	-303
954.402	-77
954.492	-784
954.581	-65
954.671	-374
954.761	-117
954.850	790
954.940	273
955.030	412
955.119	-1033
955.209	-638
955.298	-1446
955.388	-579
955.477	-564
955.567	-317
955.656	-13
955.746	-648
955.835	-763
955.925	-824
956.014	-1005
956.103	-585
956.193	-527
956.282	-136
956.371	-178
956.461	-1016
956.550	-515
956.639	-182
956.728	-1242
956.817	-640
956.906	-540
956.995	-280
957.085	-1564
957.174	-90
957.263	-337
957.352	-715
957.441	-383
957.530	-548
957.619	-619
957.708	-569
957.796	-179
957.885	-716
957.974	-1452
958.063	-209
958.152	-1804
958.241	-868
958.329	-892
958.418	-1176
958.507	-1732
958.596	339
958.684	-1383
958.773	-108
958.861	-367
958.950	417
959.039	-775
959.127	-663
959.216	-124
959.304	-1060
959.393	-1128
959.481	650
959.570	-45
959.658	-927
959.746	-52
959.835	-26
959.923	-890
960.011	-807
960.100	-283
960.188	-517
960.276	-726
960.365	-279
960.453	-775
960.541	-732
960.629	-914
960.717	-155
960.805	-1669
960.893	-729
960.981	-1700
961.069	-327
961.158	-908
961.245	-826
961.333	128
961.421	-1157
961.509	-1192
961.597	-656
961.685	-659
961.773	-394
961.861	-920
961.949	-660
962.036	-1816
962.124	160
962.212	-762
962.299	-713
962.387	-1559
962.475	-589
962.562	-1292
962.650	-113
962.738	-942
962.825	-1256
962.913	-840
963.000	-745
963.088	-836
963.175	-473
963.263	-512
963.350	-634
963.438	-975
963.525	-595
963.612	-175
963.700	-1009
963.787	563
963.874	-1584
963.962	-1195
964.049	-963
964.136	-1215
964.223	-1320
964.310	-1178
964.398	-1350
964.485	-1096
964.572	-637
964.659	-402
964.746	-1043
964.833	-1716
964.920	-1670
965.007	-783
965.094	-224
965.181	-2022
965.268	-1055
965.355	-1029
965.441	-232
965.528	-1406
965.615	119
965.702	-1921
965.789	-436
965.875	-1717
965.962	-1117
966.049	-2012
966.136	-876
966.222	-1492
966.309	-1170
966.395	-1905
966.482	-554
966.569	-1037
966.655	-1360
966.742	-662
966.828	-1233
966.915	-2689
967.001	-1491
967.087	-1585
967.174	-1677
967.260	-718
967.347	-1087
967.433	-1082
967.519	-473
967.605	-1658
967.692	-599
967.778	-1115
967.864	-1823
967.950	-1557
968.036	-1264
968.123	-1542
968.209	-903
968.295	-1806
968.381	-739
968.467	-564
968.553	-2048
968.639	-1153
968.725	-1483
968.811	-1020
968.897	-550
968.983	-1253
969.069	-1435
969.154	-1072
969.240	-197
969.326	-1388
969.412	-720
969.497	-1186
969.583	-1290
969.669	205
969.755	-960
969.840	-1501
969.926	-1100
970.012	-948
970.097	-845
970.183	-2497
970.268	-1456
970.354	-1038
970.439	-1513
970.525	-87
970.610	-2248
970.696	-867
970.781	-926
970.866	-2913
970.952	-782
971.037	-1889
971.122	-813
971.208	-762
971.293	-961
971.378	-2568
971.463	-861
971.549	-364
971.634	-889
971.719	-922
971.804	-948
971.889	-159
971.974	-1615
972.059	-1644
972.144	-415
972.229	-948
972.314	-2119
972.399	-1512
972.484	-1311
972.569	-1203
972.654	-1554
972.739	-802
972.824	-1738
972.908	-1694
972.993	-1603
973.078	-1451
973.163	-1339
973.247	-1166
973.332	-2400
973.417	226
973.501	-1812
973.586	-1414
973.671	-1607
973.755	-1045
973.840	-1102
973.924	-463
974.009	-1353
974.093	-1878
974.178	-226
974.262	-1912
974.346	-1550
974.431	-1737
974.515	-1077
974.600	-1314
974.684	-618
974.768	-1269
974.852	-540
974.937	-1948
975.021	-878
975.105	-620
975.189	-2128
975.273	-1610
975.358	-2161
975.442	-1695
975.526	-914
975.610	-1144
975.694	-1779
975.778	-1181
975.862	-1533
975.946	-3383
976.030	-740
976.114	-2446
976.198	-743
976.281	-1258
976.365	-420
976.449	-1841
976.533	-1740
976.617	-1757
976.700	-1407
976.784	-1249
976.868	-2400
976.951	-1071
977.035	-1659
977.119	-1887
977.202	-1514
977.286	-1302
977.369	-825
977.453	-1188
977.536	-1599
977.620	-1938
977.703	-872
977.787	-2171
977.870	-896
977.953	-564
978.037	-2037
978.120	-1071
978.203	-2227
978.287	-1105
978.370	-843
978.453	-1826
978.536	-1089
978.620	-880
978.703	-1320
978.786	-975
978.869	-1221
978.952	-1738
979.035	-906
979.118	-1418
979.201	-1571
979.284	-925
979.367	-2026
979.450	-1180
979.533	-2103
979.616	-603
979.699	-1603
979.782	-889
979.865	-867
979.948	-1470
980.030	-1644
980.113	-1635
980.196	-1929
980.279	-1682
980.361	-1355
980.444	-948
980.526	-1583
980.609	-1843
980.692	-1508
980.774	-781
980.857	-1942
980.939	-20
981.022	-1982
981.104	-1682
981.187	-1361
981.269	-1426
981.352	-825
981.434	-2070
981.516	-2104
981.599	-31
981.681	-1343
981.763	-1778
981.846	-694
981.928	-1995
982.010	-2130
982.092	-1119
982.174	-739
982.256	-1452
982.339	-1598
982.421	-1129
982.503	-545
982.585	-1511
982.667	-1314
982.749	-851
982.831	-1342
982.913	-2025
982.995	-568
983.077	-1503
983.158	-440
983.240	-2846
983.322	-717
983.404	-721
983.486	-2170
983.568	-1177
983.649	-1532
983.731	-1915
983.813	-1257
983.894	-1596
983.976	-1433
984.058	-2145
984.139	-174
984.221	-2013
984.302	-830
984.384	-1186
984.465	-1850
984.547	-1047
984.628	-1990
984.710	-1204
984.791	-2016
984.872	-1580
984.954	-1048
985.035	-1233
985.116	-1897
985.198	-1608
985.279	-275
985.360	-2281
985.441	-1046
985.522	-498
985.604	-2129
985.685	-2689
985.766	-837
985.847	-209
985.928	-2579
986.009	-1821
986.090	-1512
986.171	-1081
986.252	-1396
986.333	-1202
986.414	-1587
986.495	-1775
986.576	-1992
986.656	-1637
986.737	-1521
986.818	-1216
986.899	-1776
986.980	-1695
987.060	-751
987.141	-2703
987.222	-1309
987.302	-1670
987.383	-1399
987.464	-1880
987.544	-1606
987.625	-1943
987.705	-1297
987.786	-1697
987.866	-1396
987.947	-1619
988.027	-1102
988.108	-1181
988.188	-1387
988.268	-1344
988.349	-1189
988.429	-1415
988.509	-1179
988.589	-1185
988.670	-2890
988.750	-337
988.830	-1710
988.910	-1578
988.990	-1449
989.070	-1074
989.151	-1599
989.231	-1650
989.311	-1039
989.391	-1979
989.471	-1486
989.551	-1600
989.631	-1490
989.711	-1913
989.791	-1808
989.870	-2312
989.950	-47
990.030	-2411
990.110	-1757
990.190	-1729
990.269	-2210
990.349	-2079
990.429	-1210
990.509	-2065
990.588	-1982
990.668	-1677
990.747	-1077
990.827	-941
990.907	-658
990.986	-1910
991.066	-1116
991.145	-1709
991.225	-401
991.304	-2230
991.383	-50
991.463	-1900
991.542	-1829
991.622	-1641
991.701	-1615
991.780	-2372
991.859	-1666
991.939	-1555
992.018	-1360
992.097	-385
992.176	-2506
992.256	-2448
992.335	-1574
992.414	-1344
992.493	-2073
992.572	-1294
992.651	-764
992.730	-2382
992.809	-516
992.888	-2330
992.967	-1566
993.046	-1429
993.125	-1594
993.203	-1524
993.282	-1950
993.361	-1634
993.440	-1490
993.519	-2118
993.597	-1704
993.676	-1989
993.755	-1377
993.834	-700
993.912	-2080
993.991	-913
994.069	-1698
994.148	-2251
994.226	-2090
994.305	-1505
994.384	-1631
994.462	-1300
994.540	-2691
994.619	-1899
994.697	-987
994.776	-1710
994.854	-1921
994.932	-2375
995.011	-2014
995.089	-2561
995.167	-1263
995.245	-1103
995.324	-1765
995.402	-1160
995.480	-1766
995.558	-1331
995.636	-1758
995.714	-989
995.792	-1205
995.870	-1848
995.948	-1402
996.026	-1792
996.104	-2089
996.182	-1163
996.260	-1611
996.338	-1265
996.416	-2838
996.494	-2162
996.572	-1015
996.649	-2373
996.727	-1975
996.805	-1673
996.883	-2157
996.960	-1882
997.038	-1647
997.116	-1272
997.193	-1912
997.271	-1377
997.348	-1781
997.426	-2508
997.504	-1963
997.581	-1063
997.658	-1288
997.736	-2650
997.813	-1918
997.891	-624
997.968	-1712
998.046	-1695
998.123	-1450
998.200	-1720
998.277	-2743
998.355	-918
998.432	-1612
998.509	-1851
998.586	-1587
998.663	-2172
998.741	-2259
998.818	-1638
998.895	-2371
998.972	-1821
999.049	-1332
999.126	-2749
999.203	-1141
999.280	-2113
999.357	-2959
999.434	-2478
999.511	-2026
999.587	-1419
999.664	-2145
999.741	-1408
999.818	-1599
999.895	-1481
999.971	-2591
1000.048	-941
1000.125	-1043
1000.202	-2375
1000.278	-1636
1000.355	-1123
1000.431	-1283
1000.508	-2498
1000.584	-2356
1000.661	-1285
1000.738	-2115
1000.814	-2121
1000.890	-1383
1000.967	-1998
1001.043	-1227
1001.120	-2694
1001.196	-1970
1001.272	-2823
1001.349	-1782
1001.425	-1315
1001.501	-2049
1001.577	-3035
1001.654	-1344
1001.730	-2549
1001.806	-1707
1001.882	-2617
1001.958	-1742
1002.034	-2057
1002.110	-1129
1002.186	-1931
1002.262	-1970
1002.338	-2093
1002.414	-1500
1002.490	-1588
1002.566	-1617
1002.642	-2298
1002.718	-1453
1002.794	-2072
1002.870	-2089
1002.945	-2011
1003.021	-2267
1003.097	-1412
1003.173	-1095
1003.248	-2380
1003.324	-1886
1003.400	-2357
1003.475	-2261
1003.551	-1790
1003.626	-1462
1003.702	-2821
1003.777	-2053
1003.853	-1964
1003.928	-2058
1004.004	-1737
1004.079	-2096
1004.155	-1837
1004.230	-2101
1004.305	-1507
1004.381	-2322
1004.456	-1552
1004.531	-2312
1004.607	-1667
1004.682	-1648
1004.757	-1740
1004.832	-1805
1004.907	-2214
1004.982	-1435
1005.057	-1677
1005.133	-1950
1005.208	-2471
1005.283	-2202
1005.358	-923
1005.433	-2002
1005.508	-1949
1005.583	-2388
1005.657	-2751
1005.732	-1997
1005.807	-2818
1005.882	-801
1005.957	-2042
1006.032	-2160
1006.106	-1794
1006.181	-1598
1006.256	-1372
1006.331	-2429
1006.405	-1775
1006.480	-1735
1006.554	-1851
1006.629	-1614
1006.704	-1773
1006.778	-1399
1006.853	-1553
1006.927	-1872
1007.002	-1484
1007.076	-1420
1007.150	-2184
1007.225	-1186
1007.299	-1682
1007.373	-1871
1007.448	-1429
1007.522	-1393
1007.596	-1320
1007.671	-2129
1007.745	-2256
1007.819	-2311
1007.893	-1859
1007.967	-1766
1008.041	-2886
1008.115	-1106
1008.190	-1781
1008.264	-1892
1008.338	-2969
1008.412	-1955
1008.486	-1510
1008.560	-1784
1008.633	-2088
1008.707	-1710
1008.781	-777
1008.855	-1783
1008.929	-2419
1009.003	-2368
1009.076	-1868
1009.150	-2500
1009.224	-1708
1009.298	-1899
1009.371	-2580
1009.445	-1304
1009.519	-1951
1009.592	-2895
1009.666	-1562
1009.739	-1814
1009.813	-1960
1009.886	-907
1009.960	-2178
1010.033	-1149
1010.107	-1523
1010.180	-2224
1010.253	-1738
1010.327	-2711
1010.400	-2218
1010.473	-2384
1010.547	-910
1010.620	-2016
1010.693	-1960
1010.766	-1826
1010.840	-1453
1010.913	-1982
1010.986	-2219
1011.059	-2193
1011.132	-2069
1011.205	-1100
1011.278	-1179
1011.351	-1854
1011.424	-1542
1011.497	-2456
1011.570	-1521
1011.643	-1694
1011.716	-2607
1011.789	-1069
1011.862	-1462
1011.934	-1299
1012.007	-2843
1012.080	-1739
1012.153	-1900
1012.225	-1373
1012.298	-2251
1012.371	-2449
1012.443	-1660
1012.516	-2023
1012.588	-1790
1012.661	-2309
1012.733	-2756
1012.806	-1336
1012.879	-1615
1012.951	-2198
1013.023	-3307
1013.096	-1344
1013.168	-2120
1013.241	-1191
1013.313	-1884
1013.385	-2039
1013.458	-805
1013.530	-1093
1013.602	-2375
1013.674	-1220
1013.746	-3128
1013.819	-1941
1013.891	-1887
1013.963	-1920
1014.035	-1692
1014.107	-1063
1014.179	-1650
1014.251	-1714
1014.323	-1068
1014.395	-1005
1014.467	-2241
1014.539	-1577
1014.611	-2616
1014.683	-1578
1014.754	-1493
1014.826	-1919
1014.898	-1169
1014.970	-2244
1015.042	-1469
1015.113	-678
1015.185	-2257
1015.257	-2448
1015.328	-2036
1015.400	-2523
1015.471	-1364
1015.543	-3037
1015.615	-2116
1015.686	-2021
1015.757	-2113
1015.829	-157
1015.901	-1938
1015.972	-1728
1016.043	-2134
1016.115	-1390
1016.186	-1858
1016.257	-2598
1016.328	-1535
1016.400	-1884
1016.471	-2730
1016.542	-1518
1016.613	-1831
1016.685	-1758
1016.756	-2072
1016.827	-2074
1016.898	-1709
1016.969	-1655
1017.040	-2013
1017.111	-2456
1017.182	-2628
1017.253	-1650
1017.324	-2095
1017.395	-1326
1017.466	-1308
1017.537	-1914
1017.608	-1642
1017.678	-2791
1017.749	-1989
1017.820	-1641
1017.891	-2064
1017.961	-1565
1018.032	-1973
1018.103	-1838
1018.173	-1742
1018.244	-2403
1018.315	-2579
1018.385	-1878
1018.456	-1800
1018.526	-2624
1018.597	-1654
1018.667	-1972
1018.738	-2662
1018.808	-1850
1018.878	-1852
1018.949	-2439
1019.019	-1053
1019.089	-1716
1019.160	-1051
1019.230	-1998
1019.300	-1512
1019.371	-2390
1019.441	-1566
1019.511	-1735
1019.581	-2015
1019.651	-1791
1019.721	-1710
1019.791	-1777
1019.861	-1634
1019.931	-929
1020.001	-2698
1020.071	-1164
1020.141	-1583
1020.211	-1683
1020.281	-1599
1020.351	-1527
1020.421	-2151
1020.491	-1686
1020.560	-2124
1020.630	-2051
1020.700	-2329
1020.770	-1834
1020.839	-1765
1020.909	-2160
1020.979	-2139
1021.048	-2314
1021.118	-1832
1021.187	-2038
1021.257	-2050
1021.326	-1603
1021.396	-1486
1021.465	-1654
1021.535	-1732
1021.604	-2433
1021.674	-2277
1021.743	-1728
1021.812	-1278
1021.882	-2161
1021.951	-1781
1022.020	-1802
1022.089	-1978
1022.159	-1953
1022.228	-1562
1022.297	-1139
1022.366	-2161
1022.435	-1874
1022.504	-2328
1022.573	-2434
1022.642	-1943
1022.711	-2546
1022.781	-1977
1022.849	-2178
1022.918	-1753
1022.987	-1765
1023.056	-2282
1023.125	-2454
1023.194	-2030
1023.263	-2151
1023.331	-2436
1023.400	-1833
1023.469	-1902
1023.538	-1481
1023.606	-3308
1023.675	-1659
1023.744	-2365
1023.812	-3150
1023.881	-2463
1023.949	-2129
1024.018	-2382
1024.086	-2328
1024.155	-1556
1024.223	-2017
1024.292	-1204
1024.360	-1678
1024.429	-2434
1024.497	-1843
1024.565	-1363
1024.634	-2664
1024.702	-2418
1024.770	-1462
1024.838	-2615
1024.907	-2314
1024.975	-2216
1025.043	-2012
1025.111	-2250
1025.179	-2018
1025.247	-2309
1025.315	-1797
1025.383	-1867
1025.451	-2111
1025.519	-2735
1025.587	-1970
1025.655	-3038
1025.723	-2134
1025.791	-2045
1025.859	-1653
1025.927	-2528
1025.995	-2810
1026.062	-2526
1026.130	-2395
1026.198	-1976
1026.266	-3088
1026.333	-2100
1026.401	-2153
1026.469	-2293
1026.536	-2426
1026.604	-2517
1026.671	-2669
1026.739	-2630
1026.806	-1934
1026.874	-2346
1026.941	-2301
1027.009	-2463
1027.076	-2262
1027.144	-1712
1027.211	-2366
1027.278	-3012
1027.345	-1990
1027.413	-2831
1027.480	-2266
1027.547	-2008
1027.614	-2500
1027.682	-2455
1027.749	-2351
1027.816	-2506
1027.883	-1362
1027.950	-1984
1028.017	-2267
1028.084	-2069
1028.151	-2897
1028.218	-2039
1028.285	-2518
1028.352	-2514
1028.419	-2792
1028.486	-2136
1028.553	-1383
1028.619	-2464
1028.686	-2060
1028.753	-2355
1028.820	-2587
1028.886	-2610
1028.953	-2161
1029.020	-2451
1029.086	-2666
1029.153	-2386
1029.220	-2314
1029.286	-2367
1029.353	-2402
1029.419	-3000
1029.486	-2234
1029.552	-3148
1029.619	-3152
1029.685	-3079
1029.751	-2310
1029.818	-1674
1029.884	-2060
1029.951	-1385
1030.017	-3166
1030.083	-2343
1030.149	-2389
1030.216	-2867
1030.282	-2174
1030.348	-1607
1030.414	-2993
1030.480	-3345
1030.546	-2825
1030.612	-2486
1030.678	-2820
1030.744	-3408
1030.810	-2333
1030.876	-2201
1030.942	-2958
1031.008	-2829
1031.074	-2527
1031.140	-2928
1031.206	-1789
1031.272	-3145
1031.337	-2252
1031.403	-2518
1031.469	-2389
1031.534	-3222
1031.600	-2173
1031.666	-3398
1031.731	-2958
1031.797	-2457
1031.863	-3209
1031.928	-2610
1031.994	-3395
1032.059	-2440
1032.125	-1880
1032.190	-2820
1032.256	-2894
1032.321	-2812
1032.386	-2417
1032.452	-3169
1032.517	-2491
1032.582	-3287
1032.647	-2275
1032.713	-2561
1032.778	-2499
1032.843	-3082
1032.908	-2977
1032.974	-2159
1033.039	-2368
1033.104	-2110
1033.169	-3001
1033.234	-3249
1033.299	-2524
1033.364	-2723
1033.429	-3205
1033.494	-3014
1033.559	-2279
1033.624	-2820
1033.688	-2087
1033.753	-3373
1033.818	-2534
1033.883	-2830
1033.948	-2732
1034.013	-3139
1034.077	-2999
1034.142	-2625
1034.207	-3627
1034.271	-3010
1034.336	-1947
1034.400	-2489
1034.465	-2865
1034.530	-3054
1034.594	-3145
1034.658	-2734
1034.723	-3181
1034.787	-2627
1034.852	-2447
1034.916	-2851
1034.981	-3435
1035.045	-2456
1035.109	-2370
1035.173	-2061
1035.238	-2785
1035.302	-2218
1035.366	-2346
1035.430	-2212
1035.495	-3278
1035.559	-3128
1035.623	-2695
1035.687	-2902
1035.751	-2935
1035.815	-2905
1035.879	-2332
1035.943	-3272
1036.007	-2857
1036.071	-2982
1036.135	-2060
1036.198	-2751
1036.262	-2952
1036.326	-2019
1036.390	-2023
1036.454	-2970
1036.517	-2956
1036.581	-2531
1036.645	-3412
1036.709	-2917
1036.772	-2726
1036.836	-2688
1036.900	-2075
1036.963	-3057
1037.026	-3008
1037.090	-2661
1037.154	-3016
1037.217	-2585
1037.280	-3613
1037.344	-2452
1037.407	-2925
1037.471	-2171
1037.534	-2991
1037.597	-2857
1037.661	-3291
1037.724	-2976
1037.787	-2735
1037.850	-2917
1037.913	-2548
1037.977	-2263
1038.040	-2361
1038.103	-2656
1038.166	-2708
1038.229	-2519
1038.292	-3467
1038.355	-2748
1038.418	-2765
1038.481	-3183
1038.544	-2812
1038.607	-2144
1038.670	-2715
1038.732	-3431
1038.795	-2735
1038.858	-3243
1038.921	-2620
1038.984	-2385
1039.046	-2789
1039.109	-3222
1039.172	-2985
1039.234	-3237
1039.297	-2813
1039.360	-3059
1039.422	-2731
1039.485	-2919
1039.547	-2782
1039.610	-3187
1039.672	-2196
1039.734	-3025
1039.797	-2543
1039.859	-2655
1039.922	-2299
1039.984	-2172
1040.046	-2865
1040.109	-2218
1040.171	-3042
1040.233	-2239
1040.295	-2794
1040.358	-3165
1040.420	-2841
1040.482	-2561
1040.544	-2649
1040.606	-2207
1040.668	-2046
1040.730	-2537
1040.792	-2043
1040.854	-2141
1040.916	-2350
1040.978	-2199
1041.040	-1728
1041.102	-2524
1041.164	-3119
1041.225	-2774
1041.287	-3263
1041.349	-2940
1041.411	-2325
1041.472	-2536
1041.534	-2339
1041.596	-2659
1041.657	-2365
1041.719	-3188
1041.781	-2549
1041.842	-3024
1041.904	-3113
1041.965	-2243
1042.027	-2186
1042.088	-2991
1042.150	-2431
1042.211	-3224
1042.272	-2058
1042.334	-2605
1042.395	-2818
1042.456	-2663
1042.518	-2735
1042.579	-2175
1042.640	-3004
1042.701	-2232
1042.763	-1942
1042.824	-2278
1042.885	-2652
1042.946	-3055
1043.007	-1824
1043.068	-2604
1043.129	-2105
1043.190	-2186
1043.251	-2584
1043.312	-2765
1043.373	-2249
1043.434	-2475
1043.495	-2723
1043.556	-2429
1043.616	-2690
1043.677	-2395
1043.738	-1845
1043.799	-2834
1043.859	-2157
1043.920	-2806
1043.981	-2308
1044.041	-2546
1044.102	-2924
1044.162	-3051
1044.223	-2501
1044.284	-2764
1044.344	-2225
1044.405	-1845
1044.465	-2343
1044.525	-2781
1044.586	-2409
1044.646	-2101
1044.707	-1462
1044.767	-2362
1044.827	-2455
1044.887	-2301
1044.948	-1418
1045.008	-1573
1045.068	-1925
1045.128	-2039
1045.188	-1579
1045.249	-2362
1045.309	-2045
1045.369	-1654
1045.429	-2173
1045.489	-2408
1045.549	-1316
1045.609	-1645
1045.669	-1917
1045.729	-2663
1045.789	-2262
1045.848	-2307
1045.908	-2289
1045.968	-1615
1046.028	-2374
1046.088	-1658
1046.147	-1383
1046.207	-2326
1046.267	-1897
1046.326	-2045
1046.386	-1505
1046.446	-708
1046.505	-1305
1046.565	-1704
1046.624	-1051
1046.684	-1448
1046.743	-442
1046.803	-1116
1046.862	-1271
1046.922	0
