'Start Wavelength	183.907
'End Wavelength	1046.922
'Gate Delay	5.000
'Gate Width (ms)	1.050
'Laser Output Level	0.000
'X Position	0.000
'Y Position	0.000
'Z Position	0.000
'Grid Point Number	1.000
'Shot Number	100.000
183.907	809.000
183.977	28.000
184.047	-17
184.116	702
184.186	294
184.256	205
184.325	299
184.395	-392
184.465	455
184.534	145
184.604	-108
184.674	349
184.743	-482
184.813	-39
184.883	-324
184.952	82
185.022	-397
185.092	-154
185.161	331
185.231	269
185.301	501
185.370	537
185.440	-24
185.509	-656
185.579	91
185.649	388
185.718	1196
185.788	239
185.857	-75
185.927	-317
185.996	312
186.066	-139
186.136	-122
186.205	359
186.275	-35
186.344	-590
186.414	167
186.483	-587
186.553	18
186.622	-433
186.692	317
186.761	145
186.831	435
186.900	-69
186.970	707
187.039	-456
187.109	462
187.178	-75
187.248	20
187.317	421
187.387	-167
187.456	28
187.526	33
187.595	83
187.664	-431
187.734	548
187.803	74
187.873	189
187.942	242
188.012	-101
188.081	284
188.150	17
188.220	-166
188.289	-164
188.358	-238
188.428	183
188.497	-258
188.567	570
188.636	101
188.705	-347
188.775	210
188.844	-402
188.913	606
188.983	-181
189.052	-846
189.121	-497
189.191	-395
189.260	-350
189.329	-349
189.399	301
189.468	220
189.537	-418
189.606	479
189.676	14
189.745	453
189.814	25
189.883	-193
189.953	94
190.022	520
190.091	109
190.161	802
190.230	-394
190.299	-236
190.368	144
190.437	-329
190.507	30
190.576	190
190.645	44
190.714	412
190.783	-107
190.853	842
190.922	333
190.991	12
191.060	-326
191.129	-276
191.198	-115
191.268	255
191.337	-223
191.406	221
191.475	-510
191.544	-879
191.613	119
191.682	-54
191.752	-257
191.821	-303
191.890	-409
191.959	497
192.028	-109
192.097	168
192.166	126
192.235	-148
192.304	186
192.373	200
192.442	218
192.511	183
192.580	-591
192.650	189
192.719	-640
192.788	605
192.857	18
192.926	252
192.995	176
193.064	464
193.133	-379
193.202	-874
193.271	-43
193.340	804
193.409	556
193.478	254
193.547	-57
193.615	23
193.684	-70
193.753	-43
193.822	507
193.891	276
193.960	447
194.029	-283
194.098	242
194.167	-407
194.236	264
194.305	18
194.374	-290
194.443	-352
194.512	-390
194.580	-8
194.649	392
194.718	48
194.787	40
194.856	-429
194.925	-685
194.994	-27
195.062	358
195.131	633
195.200	-179
195.269	-134
195.338	49
195.407	354
195.475	-581
195.544	-352
195.613	-133
195.682	106
195.751	362
195.819	-636
195.888	-452
195.957	200
196.026	-117
196.094	1268
196.163	-419
196.232	962
196.301	397
196.369	261
196.438	134
196.507	195
196.576	-248
196.644	-196
196.713	-453
196.782	-22
196.850	177
196.919	213
196.988	778
197.056	5
197.125	-228
197.194	501
197.262	149
197.331	63
197.400	-717
197.468	90
197.537	-150
197.606	280
197.674	-416
197.743	369
197.812	-636
197.880	-158
197.949	-195
198.017	-522
198.086	-500
198.155	-34
198.223	-689
198.292	-532
198.360	358
198.429	-252
198.497	-101
198.566	-240
198.635	-186
198.703	15
198.772	-209
198.840	-9
198.909	-365
198.977	-69
199.046	-438
199.114	-491
199.183	-271
199.251	317
199.320	-81
199.388	-68
199.457	-797
199.525	-58
199.594	185
199.662	475
199.731	168
199.799	298
199.867	-463
199.936	-67
200.004	-148
200.073	396
200.141	-105
200.210	-394
200.278	-948
200.346	-257
200.415	877
200.483	-586
200.552	-668
200.620	-770
200.688	277
200.757	499
200.825	-987
200.893	-253
200.962	13
201.030	-23
201.098	-1056
201.167	-84
201.235	-309
201.303	-235
201.372	183
201.440	-33
201.508	31
201.577	733
201.645	-229
201.713	-126
201.781	-461
201.850	28
201.918	-86
201.986	214
202.055	416
202.123	-767
202.191	-250
202.259	-95
202.327	-106
202.396	212
202.464	-5
202.532	-808
202.600	94
202.669	-419
202.737	363
202.805	611
202.873	-92
202.941	162
203.009	-397
203.078	-778
203.146	-481
203.214	-37
203.282	-1027
203.350	-23
203.418	-753
203.487	135
203.555	267
203.623	395
203.691	121
203.759	-17
203.827	-148
203.895	268
203.963	127
204.031	-1048
204.099	103
204.168	-454
204.236	-182
204.304	341
204.372	-404
204.440	437
204.508	-645
204.576	-852
204.644	-646
204.712	-398
204.780	2
204.848	564
204.916	-107
204.984	-538
205.052	-191
205.120	-684
205.188	-293
205.256	-112
205.324	-470
205.392	-777
205.460	-147
205.528	-142
205.596	-256
205.664	17
205.732	11
205.799	410
205.867	-97
205.935	-235
206.003	669
206.071	-8
206.139	602
206.207	-31
206.275	-223
206.343	164
206.411	-286
206.478	-246
206.546	-492
206.614	-683
206.682	192
206.750	443
206.818	-99
206.885	-262
206.953	-892
207.021	854
207.089	182
207.157	-390
207.225	38
207.292	-598
207.360	-777
207.428	162
207.496	-286
207.563	341
207.631	48
207.699	-566
207.767	130
207.834	-384
207.902	220
207.970	-555
208.038	-385
208.105	-49
208.173	-227
208.241	-405
208.309	-3
208.376	148
208.444	604
208.512	27
208.579	-887
208.647	230
208.715	-17
208.782	-1058
208.850	-74
208.918	-866
208.985	-817
209.053	172
209.120	-831
209.188	-532
209.256	-106
209.323	-864
209.391	-529
209.459	961
209.526	-240
209.594	-921
209.661	-299
209.729	-250
209.796	-533
209.864	253
209.932	-1296
209.999	542
210.067	66
210.134	-222
210.202	-553
210.269	621
210.337	-227
210.404	383
210.472	-180
210.539	-230
210.607	-740
210.674	-297
210.742	-93
210.809	-33
210.877	120
210.944	-87
211.012	-999
211.079	1140
211.146	-223
211.214	-562
211.281	-267
211.349	640
211.416	-97
211.484	-293
211.551	-356
211.618	-244
211.686	-656
211.753	-529
211.821	410
211.888	30
211.955	-766
212.023	-207
212.090	-536
212.157	-445
212.225	-548
212.292	71
212.359	-614
212.427	1828
212.494	-389
212.561	256
212.629	-435
212.696	339
212.763	-568
212.831	-665
212.898	-138
212.965	338
213.032	251
213.100	-371
213.167	-1256
213.234	399
213.301	-71
213.369	8
213.436	-504
213.503	801
213.570	-37
213.638	-13
213.705	-1052
213.772	-183
213.839	-94
213.906	796
213.973	-297
214.041	-164
214.108	-48
214.175	-246
214.242	203
214.309	-888
214.376	48
214.444	-748
214.511	-1011
214.578	-1121
214.645	-25
214.712	40
214.779	55
214.846	-1248
214.913	232
214.980	174
215.048	-408
215.115	1041
215.182	-564
215.249	150
215.316	-422
215.383	514
215.450	-587
215.517	264
215.584	-89
215.651	-243
215.718	130
215.785	274
215.852	-621
215.919	-179
215.986	122
216.053	341
216.120	-802
216.187	363
216.254	-409
216.321	-133
216.388	-639
216.455	583
216.522	-427
216.589	847
216.656	-305
216.722	278
216.789	166
216.856	-114
216.923	-206
216.990	340
217.057	-702
217.124	0
217.191	-403
217.258	-593
217.324	-907
217.391	253
217.458	-407
217.525	306
217.592	334
217.659	-1441
217.725	-177
217.792	-89
217.859	-133
217.926	-4
217.993	-529
218.059	54
218.126	-225
218.193	-415
218.260	-368
218.327	-407
218.393	-1279
218.460	-750
218.527	-697
218.594	-736
218.660	-190
218.727	933
218.794	-936
218.860	448
218.927	-539
218.994	-265
219.061	-710
219.127	-12
219.194	218
219.261	-323
219.327	-493
219.394	107
219.461	-485
219.527	47
219.594	-388
219.661	-824
219.727	-775
219.794	282
219.860	-755
219.927	-2
219.994	167
220.060	725
220.127	249
220.193	-482
220.260	-1467
220.326	692
220.393	51
220.460	251
220.526	-417
220.593	-473
220.659	1428
220.726	-705
220.792	90
220.859	-435
220.925	-201
220.992	674
221.058	634
221.125	235
221.191	45
221.258	-240
221.324	36
221.391	195
221.457	-394
221.524	-838
221.590	280
221.657	1583
221.723	95
221.789	-21
221.856	60
221.922	-440
221.989	-870
222.055	-112
222.121	-1080
222.188	886
222.254	-864
222.321	-987
222.387	-525
222.453	-222
222.520	-312
222.586	-792
222.652	-346
222.719	-994
222.785	-294
222.851	-888
222.918	-357
222.984	-414
223.050	-490
223.116	-993
223.183	68
223.249	-1287
223.315	-1030
223.382	-343
223.448	-272
223.514	-540
223.580	-189
223.647	-892
223.713	-895
223.779	-727
223.845	-686
223.911	130
223.978	-342
224.044	103
224.110	-1159
224.176	410
224.242	-655
224.309	-1460
224.375	-40
224.441	-448
224.507	-351
224.573	-1048
224.639	293
224.705	-1371
224.772	-1104
224.838	-1245
224.904	-472
224.970	-332
225.036	-555
225.102	-634
225.168	-822
225.234	-126
225.300	-899
225.366	-291
225.432	62
225.499	-59
225.565	-1292
225.631	-1096
225.697	-499
225.763	89
225.829	-321
225.895	-287
225.961	-1190
226.027	-800
226.093	-1108
226.159	-36
226.225	1061
226.291	616
226.357	928
226.423	1128
226.489	-503
226.554	-822
226.620	-403
226.686	-307
226.752	-502
226.818	625
226.884	2281
226.950	2248
227.016	482
227.082	604
227.148	-1193
227.214	-121
227.279	-218
227.345	-1144
227.411	-370
227.477	-487
227.543	104
227.609	-590
227.674	256
227.740	-368
227.806	-771
227.872	-479
227.938	-766
228.003	742
228.069	-628
228.135	-772
228.201	-1285
228.267	-468
228.332	-663
228.398	-1730
228.464	162
228.530	-203
228.595	146
228.661	-861
228.727	-639
228.792	1029
228.858	-74
228.924	-1965
228.990	939
229.055	-1646
229.121	-90
229.187	-108
229.252	-824
229.318	-283
229.384	-43
229.449	-371
229.515	-2166
229.581	-2004
229.646	732
229.712	-166
229.777	-1232
229.843	217
229.909	-1035
229.974	632
230.040	-435
230.105	-669
230.171	-61
230.236	611
230.302	70
230.368	-564
230.433	-1337
230.499	-58
230.564	-330
230.630	-1015
230.695	-593
230.761	113
230.826	-1896
230.892	751
230.957	-1354
231.023	-805
231.088	-344
231.154	30
231.219	-227
231.284	-303
231.350	-64
231.415	-232
231.481	-245
231.546	-162
231.612	324
231.677	-1260
231.742	-1286
231.808	625
231.873	-1375
231.939	-2016
232.004	1355
232.069	762
232.135	-790
232.200	-899
232.265	-676
232.331	-504
232.396	-412
232.461	-1227
232.527	-1008
232.592	-1102
232.657	-453
232.723	-267
232.788	-665
232.853	-221
232.918	-1143
232.984	-542
233.049	-275
233.114	-1165
233.179	-281
233.245	455
233.310	68
233.375	-820
233.440	-301
233.506	-1307
233.571	-845
233.636	-512
233.701	-433
233.766	-906
233.832	-238
233.897	-451
233.962	-1349
234.027	360
234.092	-51
234.157	-1053
234.222	-878
234.288	-950
234.353	71
234.418	143
234.483	229
234.548	-110
234.613	-160
234.678	-756
234.743	-1224
234.808	1037
234.873	-909
234.938	957
235.004	-1272
235.069	-605
235.134	-383
235.199	377
235.264	-93
235.329	-1308
235.394	-436
235.459	642
235.524	-1587
235.589	-16
235.654	-851
235.719	-2139
235.784	-105
235.849	407
235.913	180
235.978	-23
236.043	-262
236.108	7
236.173	-1563
236.238	455
236.303	-808
236.368	-579
236.433	-146
236.498	74
236.563	131
236.627	671
236.692	2231
236.757	2547
236.822	162
236.887	-123
236.952	-220
237.017	-782
237.081	164
237.146	-1050
237.211	998
237.276	2948
237.341	6062
237.405	1112
237.470	206
237.535	155
237.600	-377
237.664	33
237.729	-886
237.794	-948
237.859	508
237.923	-718
237.988	-625
238.053	237
238.118	-716
238.182	1094
238.247	1798
238.312	-2470
238.376	556
238.441	-1434
238.506	544
238.570	-1466
238.635	-643
238.700	-88
238.764	-861
238.829	-286
238.893	-889
238.958	-187
239.023	-404
239.087	29
239.152	-332
239.216	-1933
239.281	-304
239.346	174
239.410	-820
239.475	-1099
239.539	1029
239.604	-535
239.668	804
239.733	-18
239.797	-299
239.862	674
239.926	383
239.991	-156
240.055	-336
240.120	-452
240.184	200
240.249	-707
240.313	-688
240.378	-124
240.442	-339
240.507	1452
240.571	-190
240.635	-469
240.700	-234
240.764	46
240.829	-38
240.893	-1631
240.957	-840
241.022	329
241.086	642
241.151	-301
241.215	-1297
241.279	228
241.344	-610
241.408	501
241.472	-1425
241.537	627
241.601	-355
241.665	-1285
241.730	-69
241.794	292
241.858	-893
241.922	-590
241.987	-281
242.051	-716
242.115	-2573
242.179	-234
242.244	-832
242.308	-405
242.372	-129
242.436	-885
242.501	-236
242.565	-1393
242.629	-1137
242.693	238
242.757	-1260
242.822	-890
242.886	-348
242.950	-55
243.014	-1451
243.078	-228
243.142	-841
243.206	-961
243.271	-711
243.335	-767
243.399	-122
243.463	-29
243.527	3622
243.591	675
243.655	291
243.719	-710
243.783	226
243.847	-437
243.911	346
243.975	-272
244.040	-1623
244.104	1122
244.168	-1386
244.232	-1035
244.296	275
244.360	-67
244.424	-1260
244.488	-74
244.552	129
244.615	-1810
244.679	-608
244.743	-1286
244.807	-1868
244.871	60
244.935	-580
244.999	-1981
245.063	-1179
245.127	-40
245.191	-506
245.255	-326
245.319	-107
245.383	-1524
245.446	417
245.510	-1372
245.574	-347
245.638	836
245.702	-1234
245.766	-513
245.829	1430
245.893	-1143
245.957	-923
246.021	280
246.085	-433
246.149	89
246.212	1297
246.276	-264
246.340	-915
246.404	-451
246.467	-18
246.531	-1640
246.595	686
246.659	775
246.722	-1310
246.786	-36
246.850	296
246.913	377
246.977	-1032
247.041	-503
247.104	-283
247.168	146
247.232	7
247.295	1263
247.359	631
247.423	-758
247.486	-283
247.550	494
247.614	-1336
247.677	-121
247.741	-119
247.804	-582
247.868	-615
247.932	-111
247.995	2620
248.059	-655
248.122	-1199
248.186	686
248.249	-80
248.313	3375
248.376	3671
248.440	1335
248.503	-1081
248.567	1080
248.630	-767
248.694	226
248.757	1108
248.821	4381
248.884	2115
248.948	697
249.011	2051
249.075	4516
249.138	3804
249.202	476
249.265	-391
249.328	846
249.392	-527
249.455	104
249.519	-885
249.582	-746
249.645	-258
249.709	-1086
249.772	-504
249.835	5
249.899	-375
249.962	-11
250.025	-873
250.089	371
250.152	1097
250.215	-108
250.279	-1418
250.342	435
250.405	81
250.468	-471
250.532	-314
250.595	753
250.658	3160
250.721	8948
250.785	1156
250.848	1705
250.911	-614
250.974	-95
251.038	-253
251.101	1473
251.164	225
251.227	299
251.290	222
251.354	907
251.417	6027
251.480	6362
251.543	2945
251.606	14603
251.669	9354
251.732	2600
251.795	2396
251.859	3613
251.922	7464
251.985	4280
252.048	1270
252.111	324
252.174	-832
252.237	2125
252.300	4473
252.363	3823
252.426	11427
252.489	2331
252.552	1577
252.615	12
252.678	1236
252.741	3424
252.804	2801
252.867	11494
252.930	5583
252.993	2240
253.056	833
253.119	341
253.182	-362
253.245	51
253.308	393
253.371	40
253.434	-264
253.497	996
253.559	1527
253.622	295
253.685	632
253.748	103
253.811	-1071
253.874	650
253.937	-1073
254.000	-265
254.062	510
254.125	1689
254.188	1224
254.251	104
254.314	-286
254.376	359
254.439	486
254.502	252
254.565	-353
254.628	1680
254.690	-377
254.753	-680
254.816	-692
254.878	-675
254.941	386
255.004	1203
255.067	57
255.129	-1264
255.192	-713
255.255	-1314
255.317	-301
255.380	272
255.443	-847
255.505	-268
255.568	-1936
255.631	-716
255.693	-234
255.756	-1215
255.819	-279
255.881	-774
255.944	-521
256.006	-1054
256.069	-1248
256.132	-1107
256.194	-729
256.257	766
256.319	-41
256.382	-59
256.444	-289
256.507	-542
256.569	-645
256.632	-759
256.694	-1352
256.757	1121
256.819	4524
256.882	645
256.944	245
257.007	799
257.069	-757
257.132	-489
257.194	416
257.257	-874
257.319	-1371
257.381	-449
257.444	1011
257.506	5080
257.569	6824
257.631	3828
257.693	449
257.756	444
257.818	-566
257.880	-869
257.943	-227
258.005	-1096
258.067	-731
258.130	-1060
258.192	-762
258.254	-227
258.317	-345
258.379	-675
258.441	-751
258.503	676
258.566	374
258.628	1763
258.690	-1307
258.753	381
258.815	-246
258.877	-889
258.939	-316
259.001	-355
259.064	-1326
259.126	-1084
259.188	-725
259.250	-606
259.312	-440
259.375	1202
259.437	-217
259.499	-461
259.561	-423
259.623	386
259.685	-1688
259.747	-341
259.809	239
259.872	1437
259.934	3362
259.996	3510
260.058	404
260.120	-561
260.182	-576
260.244	-460
260.306	-664
260.368	-435
260.430	-388
260.492	-238
260.554	1559
260.616	636
260.678	941
260.740	2269
260.802	-1426
260.864	-1
260.926	-1752
260.988	527
261.050	-1016
261.112	126
261.174	3084
261.236	1475
261.298	-872
261.359	19
261.421	1108
261.483	-1181
261.545	-27
261.607	-1996
261.669	-1082
261.731	-685
261.793	815
261.854	-1506
261.916	-235
261.978	-1124
262.040	-138
262.102	-76
262.164	-1277
262.225	-100
262.287	-1146
262.349	-987
262.411	-120
262.472	308
262.534	-1784
262.596	533
262.658	-239
262.719	-1455
262.781	62
262.843	-49
262.904	-565
262.966	-980
263.028	-1224
263.090	2486
263.151	6834
263.213	1704
263.275	-369
263.336	-599
263.398	-301
263.459	-1155
263.521	-242
263.583	-120
263.644	-105
263.706	-752
263.767	-1377
263.829	-524
263.891	-1112
263.952	-961
264.014	-1296
264.075	-885
264.137	66
264.198	-538
264.260	-1877
264.321	-284
264.383	-314
264.444	1787
264.506	-547
264.567	-494
264.629	380
264.690	15
264.752	-378
264.813	-730
264.875	-1020
264.936	-443
264.998	-991
265.059	-1148
265.120	-690
265.182	-1003
265.243	997
265.305	1692
265.366	-849
265.427	-709
265.489	-782
265.550	-1428
265.611	-979
265.673	-756
265.734	-1579
265.795	-598
265.857	-1082
265.918	-1236
265.979	-434
266.040	3464
266.102	3203
266.163	146
266.224	-664
266.286	-973
266.347	-1582
266.408	-510
266.469	-884
266.530	-870
266.592	-1472
266.653	-1034
266.714	-791
266.775	-1302
266.836	-1053
266.898	-1401
266.959	-2457
267.020	-1310
267.081	-414
267.142	-1283
267.203	-1211
267.264	-1429
267.326	-379
267.387	-948
267.448	-1102
267.509	-800
267.570	-1199
267.631	-1842
267.692	-929
267.753	-950
267.814	-1908
267.875	-710
267.936	413
267.997	-876
268.058	-176
268.119	-1256
268.180	-988
268.241	-1454
268.302	-1566
268.363	-963
268.424	-1148
268.485	-718
268.546	-1136
268.607	-1819
268.668	-741
268.729	-1351
268.790	-1570
268.851	-1231
268.912	-550
268.972	-902
269.033	-1958
269.094	-1547
269.155	-1151
269.216	-209
269.277	-580
269.338	-726
269.398	-767
269.459	-1091
269.520	-1281
269.581	-50
269.642	-707
269.702	-895
269.763	-421
269.824	-392
269.885	-1504
269.945	421
270.006	-928
270.067	-1373
270.128	-926
270.188	-836
270.249	-1470
270.310	-824
270.370	-296
270.431	-1013
270.492	-1742
270.553	-497
270.613	-142
270.674	-401
270.734	-993
270.795	-1433
270.856	-806
270.916	-1831
270.977	-559
271.038	-498
271.098	-910
271.159	-723
271.219	-1300
271.280	-634
271.340	-907
271.401	-1509
271.462	-820
271.522	-252
271.583	-572
271.643	-258
271.704	-1459
271.764	-761
271.825	-819
271.885	3005
271.946	4522
272.006	297
272.066	649
272.127	2915
272.187	386
272.248	-984
272.308	-633
272.369	2848
272.429	972
272.489	-854
272.550	-843
272.610	456
272.671	-767
272.731	-199
272.791	-329
272.852	-1215
272.912	-678
272.972	-1708
273.033	-792
273.093	-471
273.153	-324
273.214	-846
273.274	-984
273.334	644
273.394	2565
273.455	43
273.515	-4
273.575	1383
273.635	663
273.696	-190
273.756	2363
273.816	283
273.876	14
273.936	-116
273.997	1392
274.057	-522
274.117	-1040
274.177	178
274.237	3088
274.297	3369
274.358	850
274.418	1655
274.478	463
274.538	-320
274.598	-752
274.658	1196
274.718	1368
274.778	-687
274.838	-639
274.898	-860
274.958	1763
275.018	2752
275.078	1067
275.138	-80
275.198	-821
275.258	-1053
275.318	-1002
275.378	-718
275.438	-269
275.498	-626
275.558	963
275.618	2881
275.678	1197
275.738	-149
275.798	-919
275.858	-1414
275.918	-918
275.978	-625
276.038	-597
276.098	-1629
276.157	-182
276.217	894
276.277	-43
276.337	-905
276.397	-1676
276.457	-857
276.517	-1228
276.576	-858
276.636	-1409
276.696	-797
276.756	423
276.815	-402
276.875	-1150
276.935	-1442
276.995	-852
277.055	-1406
277.114	-1285
277.174	-925
277.234	736
277.293	-672
277.353	-986
277.413	-1193
277.472	-616
277.532	-1055
277.592	-867
277.651	-31
277.711	707
277.771	-1028
277.830	1466
277.890	1446
277.950	-443
278.009	4309
278.069	1346
278.128	649
278.188	490
278.248	-581
278.307	993
278.367	412
278.426	-1968
278.486	-1065
278.545	-1081
278.605	-921
278.664	-1608
278.724	-1047
278.783	-275
278.843	3067
278.902	-883
278.962	-523
279.021	-267
279.081	-25
279.140	-874
279.199	-707
279.259	-988
279.318	445
279.378	617
279.437	424
279.496	6596
279.556	20535
279.615	13405
279.675	2728
279.734	472
279.793	1822
279.853	5112
279.912	1591
279.971	-298
280.031	-602
280.090	1733
280.149	4499
280.208	853
280.268	11600
280.327	11479
280.386	894
280.445	436
280.505	-768
280.564	-214
280.623	-681
280.682	-751
280.742	1052
280.801	-760
280.860	-998
280.919	-970
280.978	-1152
281.037	-1452
281.097	-1219
281.156	-171
281.215	-1297
281.274	-1135
281.333	1222
281.392	345
281.451	-1821
281.510	-794
281.569	-1709
281.628	-805
281.688	-1307
281.747	-1099
281.806	-1435
281.865	-1057
281.924	-1459
281.983	-1230
282.042	-1422
282.101	-1804
282.160	-1157
282.219	-865
282.278	-1518
282.337	-685
282.396	-849
282.454	-874
282.513	-1271
282.572	1357
282.631	-655
282.690	-1277
282.749	-1562
282.808	-1247
282.867	-1088
282.926	-1527
282.985	-1665
283.043	-1441
283.102	-798
283.161	-1279
283.220	-302
283.279	1156
283.338	-995
283.396	-1428
283.455	-1447
283.514	-822
283.573	-1068
283.631	-1475
283.690	-658
283.749	-1031
283.808	-1050
283.866	-821
283.925	-1415
283.984	-1007
284.043	-1441
284.101	-941
284.160	-873
284.219	-498
284.277	-542
284.336	-1010
284.395	1473
284.453	771
284.512	-507
284.570	-545
284.629	-1072
284.688	-1081
284.746	-1225
284.805	-1188
284.863	-1168
284.922	-949
284.981	-32
285.039	1188
285.098	1233
285.156	5772
285.215	24524
285.273	23224
285.332	7914
285.390	3359
285.449	620
285.507	290
285.566	-37
285.624	-892
285.683	-493
285.741	-858
285.799	-187
285.858	-1883
285.916	-1777
285.975	-871
286.033	-626
286.091	-747
286.150	-1483
286.208	-1383
286.267	-1002
286.325	-1041
286.383	-826
286.442	-759
286.500	-1528
286.558	-1826
286.616	-1072
286.675	-1102
286.733	-990
286.791	-1481
286.850	-380
286.908	-1535
286.966	-329
287.024	-1506
287.083	-1569
287.141	-701
287.199	-1111
287.257	-1353
287.315	-761
287.374	-1373
287.432	-14
287.490	-576
287.548	-1891
287.606	-1603
287.664	-1831
287.723	-530
287.781	-277
287.839	-219
287.897	-1163
287.955	-1009
288.013	362
288.071	228
288.129	6548
288.187	25892
288.245	9794
288.303	1929
288.361	438
288.419	-483
288.477	-927
288.535	-587
288.593	-578
288.651	-653
288.709	-1617
288.767	-1286
288.825	-1572
288.883	-1300
288.941	-1369
288.999	-1640
289.057	-592
289.115	-1579
289.173	-1671
289.231	-929
289.289	-1239
289.346	-1604
289.404	-835
289.462	-453
289.520	-598
289.578	-1168
289.636	-1182
289.694	-388
289.751	-1508
289.809	-1962
289.867	-1543
289.925	-807
289.983	-1712
290.040	-975
290.098	-1429
290.156	-2332
290.214	-1453
290.271	-1179
290.329	-1420
290.387	-1227
290.444	-847
290.502	-1158
290.560	-558
290.617	-1348
290.675	-754
290.733	-1495
290.790	-1110
290.848	-644
290.906	-1159
290.963	-1495
291.021	-564
291.078	-1905
291.136	-1361
291.194	-326
291.251	1190
291.309	-1767
291.366	-1760
291.424	-1763
291.481	-1858
291.539	-1897
291.596	-1256
291.654	-1649
291.711	-2036
291.769	-721
291.826	-787
291.884	-1522
291.941	-762
291.999	-996
292.056	-932
292.114	-1623
292.171	-1132
292.228	-1220
292.286	-1860
292.343	-1477
292.401	-884
292.458	-1297
292.515	-2195
292.573	-1291
292.630	-1156
292.687	-1652
292.745	-1629
292.802	-1664
292.859	159
292.917	468
292.974	-261
293.031	-808
293.089	-782
293.146	-1767
293.203	-1169
293.260	-1242
293.318	-1356
293.375	-586
293.432	-1212
293.489	-1643
293.546	-2045
293.604	-622
293.661	10
293.718	3002
293.775	974
293.832	-820
293.889	-463
293.947	-418
294.004	-1302
294.061	-1117
294.118	-811
294.175	1572
294.232	1731
294.289	-154
294.346	-1418
294.403	-745
294.460	-1159
294.517	-1339
294.574	-1245
294.631	-1340
294.688	-1684
294.745	-396
294.802	4405
294.859	4235
294.916	553
294.973	202
295.030	-1002
295.087	-1145
295.144	-131
295.201	-645
295.258	-1376
295.315	-1115
295.372	283
295.429	2021
295.486	170
295.542	-1374
295.599	1134
295.656	2987
295.713	1389
295.770	2342
295.827	-820
295.883	-598
295.940	-971
295.997	-568
296.054	-1025
296.111	-1148
296.167	-545
296.224	-1312
296.281	-1025
296.338	-1973
296.394	-907
296.451	-1382
296.508	-1131
296.564	1653
296.621	-122
296.678	1704
296.734	4799
296.791	332
296.848	-399
296.904	-1014
296.961	283
297.018	2667
297.074	819
297.131	-1012
297.187	-775
297.244	-87
297.301	2657
297.357	6002
297.414	835
297.470	-502
297.527	-733
297.583	-1357
297.640	-1063
297.696	-1416
297.753	-1572
297.809	-743
297.866	-726
297.922	-1446
297.979	-1288
298.035	-2503
298.092	-1589
298.148	134
298.204	1173
298.261	-1303
298.317	1193
298.374	3386
298.430	754
298.486	-675
298.543	-327
298.599	-834
298.656	-758
298.712	-242
298.768	1033
298.824	-317
298.881	-639
298.937	-1056
298.993	-1391
299.050	-1417
299.106	-1300
299.162	-697
299.218	-715
299.275	-1036
299.331	-1389
299.387	-353
299.443	2924
299.500	3611
299.556	459
299.612	-984
299.668	-773
299.724	-391
299.780	-643
299.837	-699
299.893	-317
299.949	1928
300.005	2121
300.061	1954
300.117	4637
300.173	1426
300.229	-686
300.285	-181
300.341	-148
300.397	-1057
300.453	-1498
300.510	-1353
300.566	-1438
300.622	-1097
300.678	1028
300.734	2365
300.790	2736
300.845	2725
300.901	1224
300.957	2593
301.013	1419
301.069	-487
301.125	-916
301.181	-294
301.237	-838
301.293	-1774
301.349	-1553
301.405	-1040
301.461	-1058
301.516	-1333
301.572	-814
301.628	-1240
301.684	-725
301.740	356
301.796	895
301.851	-478
301.907	943
301.963	462
302.019	2461
302.074	11228
302.130	9969
302.186	4270
302.242	118
302.297	-638
302.353	-105
302.409	-248
302.464	669
302.520	-667
302.576	1393
302.631	2955
302.687	-112
302.743	-1903
302.798	-374
302.854	-1773
302.910	-804
302.965	-1545
303.021	-223
303.076	-618
303.132	-43
303.187	-280
303.243	-661
303.299	-1462
303.354	-1923
303.410	-1700
303.465	-966
303.521	-1748
303.576	-1859
303.632	-1597
303.687	-801
303.743	1997
303.798	1747
303.853	-515
303.909	-591
303.964	-1841
304.020	-809
304.075	-648
304.130	-363
304.186	114
304.241	1572
304.297	141
304.352	-1446
304.358	-1458
304.407	-1559
304.449	-1153
304.463	-1013
304.518	-1420
304.539	-1446
304.573	-1511
304.629	-772
304.630	-758
304.684	-124
304.720	510
304.739	800
304.794	3672
304.811	2724
304.850	446
304.902	142
304.905	128
304.960	-1112
304.992	-874
305.015	-696
305.071	-1433
305.083	-1320
305.126	-904
305.173	-1290
305.181	-1358
305.236	-1225
305.264	-953
305.292	-688
305.347	-1148
305.354	-1065
305.402	-457
305.445	-671
305.457	-763
305.512	-730
305.535	-828
305.567	-908
305.622	-1258
305.626	-1216
305.678	-102
305.716	2038
305.733	2716
305.788	3115
305.807	2381
305.843	1504
305.897	3511
305.898	3527
305.953	2464
305.988	1074
306.008	425
306.063	-347
306.078	-572
306.118	-967
306.168	-1055
306.173	-1088
306.228	-536
306.259	-723
306.283	-677
306.338	-263
306.349	-314
306.393	-805
306.440	-308
306.448	-163
306.503	-652
306.530	-450
306.558	-145
306.613	1046
306.620	1144
306.668	1837
306.711	3064
306.723	3129
306.778	2201
306.801	1180
306.833	242
306.888	-235
306.892	-280
306.943	-813
306.982	-647
306.997	-495
307.052	-306
307.072	-257
307.107	-223
307.162	-16
307.163	-19
307.217	305
307.253	615
307.272	600
307.327	946
307.343	795
307.381	586
307.434	183
307.436	218
307.491	1985
307.524	3213
307.546	3302
307.600	2934
307.614	2416
307.655	957
307.704	307
307.710	369
307.765	486
307.795	966
307.819	1187
307.874	2188
307.885	2210
307.929	1926
307.975	1585
307.984	1600
308.038	1597
308.065	1986
308.093	5136
308.148	13130
308.156	14766
308.202	21306
308.246	25608
308.257	24802
308.312	11782
308.336	7179
308.366	5133
308.421	3308
308.426	3103
308.475	1758
308.517	1286
308.530	1166
308.585	489
308.607	466
308.639	686
308.694	616
308.697	632
308.748	2534
308.787	4367
308.803	4184
308.857	2560
308.877	1708
308.912	1108
308.967	1052
308.967	1049
309.021	2062
309.058	2751
309.076	3642
309.130	6863
309.148	7897
309.185	18721
309.238	38231
309.239	38281
309.293	36993
309.328	30328
309.348	25273
309.402	10311
309.418	6652
309.457	4529
309.508	2608
309.511	2537
309.566	2081
309.598	1991
309.620	2199
309.674	2565
309.688	2760
309.729	2532
309.778	1818
309.783	1777
309.837	1368
309.868	1208
309.892	2042
309.946	4108
309.959	4649
310.001	5678
310.049	6659
310.055	6418
310.109	3501
310.139	1864
310.163	1255
310.218	360
310.229	151
310.272	463
310.319	889
310.326	804
310.381	266
310.409	-79
310.435	76
310.489	548
310.499	596
310.543	462
310.589	344
310.598	335
310.652	344
310.679	370
310.706	430
310.760	247
310.769	242
310.814	133
310.859	65
310.868	150
310.923	312
310.948	444
310.977	214
311.031	45
311.038	-23
311.085	-46
311.128	-38
311.139	56
311.193	411
311.218	696
311.247	928
311.301	1052
311.308	1072
311.356	1036
311.398	1021
311.410	918
311.464	272
311.488	-4
311.518	19
311.572	105
311.578	98
311.626	227
311.668	439
311.680	544
311.734	873
311.758	1016
311.788	821
311.842	533
311.847	492
311.896	1206
311.937	1826
311.950	1660
312.004	925
312.027	585
312.058	637
312.112	736
312.117	745
312.165	1013
312.207	1241
312.297	406
312.386	400
312.476	484
312.566	657
312.656	-156
312.745	146
312.835	52
312.925	89
313.015	902
313.104	440
313.194	855
313.284	1025
313.374	577
313.463	649
313.553	713
313.643	386
313.732	-110
313.822	324
313.912	693
314.001	658
314.091	199
314.180	670
314.270	1196
314.360	804
314.449	333
314.539	205
314.628	238
314.718	416
314.808	1255
314.897	179
314.987	308
315.076	640
315.166	804
315.255	1617
315.345	609
315.434	870
315.524	1570
315.613	911
315.703	1187
315.792	2609
315.881	5401
315.971	502
316.060	1753
316.150	2635
316.239	3560
316.328	477
316.418	371
316.507	227
316.597	926
316.686	1217
316.775	640
316.865	3423
316.954	940
317.043	33
317.133	-17
317.222	-491
317.311	149
317.400	-958
317.490	1263
317.579	460
317.668	583
317.757	1165
317.847	3822
317.936	10297
318.025	3102
318.114	2096
318.203	1192
318.293	1722
318.382	2452
318.471	2239
318.560	4519
318.649	8694
318.738	1499
318.828	809
318.917	1015
319.006	845
319.095	4274
319.184	11577
319.273	4856
319.362	1751
319.451	886
319.540	901
319.629	1179
319.718	2294
319.807	1662
319.896	3324
319.985	14055
320.074	3054
320.163	353
320.252	2572
320.341	1290
320.430	295
320.519	1503
320.608	782
320.697	756
320.786	-18
320.875	1407
320.964	1100
321.053	1823
321.142	2186
321.230	3093
321.319	1231
321.408	5135
321.497	2245
321.586	2226
321.675	3352
321.764	2003
321.852	1731
321.941	2955
322.030	1000
322.119	1993
322.207	6339
322.296	5448
322.385	1678
322.474	2725
322.562	6298
322.651	2899
322.740	2927
322.829	4565
322.917	3374
323.006	1419
323.095	1957
323.183	1445
323.272	1662
323.361	5417
323.449	15260
323.538	3593
323.626	10437
323.715	5518
323.804	2557
323.892	8985
323.981	3303
324.069	1268
324.158	5410
324.246	3714
324.335	1313
324.424	1406
324.512	938
324.601	1037
324.689	1732
324.778	3167
324.866	2675
324.954	198
325.043	240
325.131	2055
325.220	4325
325.308	3738
325.397	2459
325.485	855
325.574	250
325.662	490
325.750	-506
325.839	268
325.927	163
326.015	191
326.104	1153
326.192	2121
326.280	-225
326.369	86
326.457	832
326.545	994
326.634	106
326.722	-263
326.810	30
326.898	734
326.987	973
327.075	820
327.163	1469
327.251	766
327.340	754
327.428	1100
327.516	360
327.604	1173
327.692	-61
327.781	1378
327.869	1079
327.957	641
328.045	527
328.133	838
328.221	-58
328.309	201
328.397	507
328.485	491
328.574	996
328.662	3125
328.750	972
328.838	434
328.926	252
329.014	498
329.102	317
329.190	2151
329.278	262
329.366	553
329.454	604
329.542	71
329.630	-325
329.718	104
329.806	706
329.893	620
329.981	5
330.069	705
330.157	4585
330.245	13126
330.333	5775
330.421	741
330.509	1363
330.597	3648
330.684	2361
330.772	602
330.860	1085
330.948	1600
331.036	789
331.123	-193
331.211	-38
331.299	918
331.387	1371
331.475	3271
331.562	-86
331.650	306
331.738	-593
331.825	905
331.913	-529
332.001	35
332.089	177
332.176	1389
332.264	4838
332.352	2398
332.439	371
332.527	361
332.614	-334
332.702	461
332.790	121
332.877	1121
332.965	2661
333.052	236
333.140	-366
333.228	1437
333.315	-368
333.403	15
333.490	1858
333.578	1247
333.665	942
333.753	737
333.840	-237
333.928	1252
334.015	2492
334.103	4478
334.190	15525
334.278	3597
334.365	1386
334.452	1439
334.540	280
334.627	-132
334.715	1136
334.802	2535
334.889	20076
334.977	14917
335.064	1709
335.151	290
335.239	1136
335.326	477
335.413	7923
335.501	8257
335.588	1069
335.675	1059
335.762	692
335.850	1984
335.937	1361
336.024	4883
336.111	19585
336.199	7115
336.286	1196
336.373	680
336.460	-555
336.547	676
336.635	-93
336.722	509
336.809	358
336.896	427
336.983	4744
337.070	10300
337.157	14027
337.245	12130
337.332	6011
337.419	899
337.506	-164
337.593	846
337.680	3643
337.767	9361
337.854	2020
337.941	2463
338.028	3267
338.115	-276
338.202	1251
338.289	2527
338.376	10718
338.463	2834
338.550	5605
338.637	4954
338.724	2406
338.811	2602
338.898	-75
338.984	-546
339.071	184
339.158	1208
339.245	1735
339.332	572
339.419	1724
339.506	1437
339.593	-280
339.679	213
339.766	-382
339.853	150
339.940	894
340.027	506
340.113	-52
340.200	832
340.287	-124
340.374	215
340.460	824
340.547	-894
340.634	620
340.720	3795
340.807	813
340.894	186
340.980	-364
341.067	-579
341.154	359
341.240	844
341.327	1000
341.414	524
341.500	238
341.587	113
341.674	379
341.760	1228
341.847	1081
341.933	-4
342.020	-704
342.106	-140
342.193	346
342.279	835
342.366	172
342.452	1156
342.539	-59
342.625	1507
342.712	3797
342.798	1030
342.885	333
342.971	-772
343.058	-543
343.144	-350
343.230	609
343.317	-149
343.403	-960
343.490	-549
343.576	-137
343.662	48
343.749	-88
343.835	61
343.921	184
344.008	13985
344.094	26902
344.180	4907
344.267	1128
344.353	6326
344.439	5370
344.525	1781
344.612	1071
344.698	551
344.784	616
344.870	-805
344.957	-417
345.043	787
345.129	-37
345.215	1082
345.301	-8
345.387	-214
345.474	-704
345.560	94
345.646	-899
345.732	592
345.818	66
345.904	-271
345.990	-333
346.076	-129
346.162	1011
346.249	502
346.335	-733
346.421	145
346.507	2305
346.593	9043
346.679	-189
346.765	624
346.851	78
346.937	-795
347.023	336
347.108	673
347.194	-29
347.280	-397
347.366	150
347.452	3006
347.538	10763
347.624	8216
347.710	5752
347.796	604
347.882	-471
347.967	645
348.053	-562
348.139	245
348.225	-802
348.311	-864
348.397	179
348.482	602
348.568	-264
348.654	-559
348.740	-349
348.825	-1294
348.911	922
348.997	6383
349.083	10140
349.168	725
349.254	387
349.340	119
349.425	44
349.511	74
349.597	296
349.682	-419
349.768	5039
349.854	891
349.939	238
350.025	-166
350.110	-911
350.196	-418
350.282	-1130
350.367	-104
350.453	604
350.538	96
350.624	-45
350.709	996
350.795	-775
350.880	-58
350.966	1230
351.051	103
351.137	256
351.222	259
351.308	833
351.393	3219
351.479	-385
351.564	-935
351.649	53
351.735	523
351.820	-265
351.906	-81
351.991	282
352.076	2148
352.162	3320
352.247	123
352.332	586
352.418	156
352.503	1377
352.588	5912
352.673	3205
352.759	255
352.844	-626
352.929	258
353.014	-800
353.100	523
353.185	2218
353.270	1185
353.355	1144
353.441	334
353.526	-404
353.611	962
353.696	-196
353.781	350
353.866	-891
353.952	147
354.037	-99
354.122	2359
354.207	2004
354.292	186
354.377	-258
354.462	492
354.547	-723
354.632	440
354.717	250
354.802	1731
354.887	-59
354.972	-209
355.057	-204
355.142	-483
355.227	485
355.312	-202
355.397	679
355.482	3748
355.567	550
355.652	1900
355.737	959
355.822	5445
355.907	3073
355.991	1698
356.076	-1293
356.161	-133
356.246	-997
356.331	58
356.416	353
356.501	13716
356.585	10354
356.670	-206
356.755	1495
356.840	501
356.924	9925
357.009	29848
357.094	9112
357.179	554
357.263	-124
357.348	639
357.433	274
357.517	869
357.602	-67
357.687	-91
357.771	1003
357.856	4725
357.941	1984
358.025	7376
358.110	31339
358.195	11931
358.279	340
358.364	59
358.448	3404
358.533	10579
358.617	6847
358.702	8321
358.787	1619
358.871	831
358.956	1001
359.040	-587
359.125	-1012
359.209	433
359.294	896
359.378	1959
359.462	-674
359.547	-3
359.631	-384
359.716	-1022
359.800	-431
359.885	1251
359.969	-930
360.053	463
360.138	18
360.222	184
360.306	325
360.391	321
360.475	1576
360.559	3287
360.644	3354
360.728	1606
360.812	8022
360.896	18472
360.981	4941
361.065	1464
361.149	313
361.233	1057
361.318	-1161
361.402	-93
361.486	193
361.570	-184
361.654	188
361.739	659
361.823	12208
361.907	18170
361.991	1143
362.075	544
362.159	1018
362.243	2321
362.327	784
362.411	4106
362.495	571
362.580	88
362.664	-675
362.748	-936
362.832	-51
362.916	-48
363.000	6939
363.084	18122
363.168	19471
363.252	3464
363.336	234
363.420	1935
363.503	10975
363.587	9602
363.671	388
363.755	-458
363.839	1770
363.923	-864
364.007	356
364.091	1062
364.175	3042
364.258	17990
364.342	8984
364.426	13496
364.510	4857
364.594	3317
364.677	3973
364.761	14361
364.845	9959
364.929	1579
365.013	1805
365.096	1939
365.180	288
365.264	4470
365.347	17413
365.431	5284
365.515	167
365.598	-1091
365.682	1098
365.766	368
365.849	606
365.933	-34
366.017	1490
366.100	-34
366.184	-1210
366.267	306
366.351	527
366.435	-1265
366.518	-1549
366.602	-24
366.685	-396
366.769	612
366.852	946
366.936	556
367.019	-289
367.103	383
367.186	2350
367.270	-318
367.353	-979
367.436	116
367.520	-1260
367.603	-575
367.687	-821
367.770	746
367.853	574
367.937	4282
368.020	6082
368.104	72
368.187	845
368.270	1521
368.353	589
368.437	1987
368.520	6357
368.603	2785
368.687	3752
368.770	7140
368.853	583
368.936	1569
369.020	1738
369.103	-13
369.186	-812
369.269	-1212
369.352	906
369.436	546
369.519	-107
369.602	-1596
369.685	1071
369.768	-915
369.851	-144
369.934	-794
370.018	-481
370.101	-457
370.184	2395
370.267	16
370.350	32
370.433	1850
370.516	7857
370.599	9361
370.682	-54
370.765	4115
370.848	6306
370.931	9510
371.014	3529
371.097	-1238
371.180	-165
371.263	502
371.346	-2139
371.429	-192
371.511	-611
371.594	252
371.677	1018
371.760	1899
371.843	650
371.926	12593
372.009	23163
372.091	6933
372.174	3085
372.257	12021
372.340	3373
372.423	1697
372.505	2524
372.588	518
372.671	3219
372.754	8606
372.836	3922
372.919	4266
373.002	7731
373.085	1181
373.167	241
373.250	3719
373.332	10259
373.415	16961
373.498	31422
373.580	11460
373.663	17882
373.746	20945
373.828	1716
373.911	1499
373.993	1016
374.076	8656
374.159	6166
374.241	2422
374.324	7063
374.406	5503
374.489	10214
374.571	27066
374.654	8982
374.736	5501
374.819	16673
374.901	24577
374.983	23099
375.066	2740
375.148	444
375.231	7562
375.313	13351
375.395	2865
375.478	-263
375.560	409
375.643	62
375.725	4967
375.807	20991
375.890	16706
375.972	4405
376.054	3160
376.136	5245
376.219	1657
376.301	6308
376.383	15925
376.465	4451
376.548	1771
376.630	3841
376.712	13447
376.794	4764
376.877	367
376.959	-447
377.041	543
377.123	953
377.205	1241
377.287	-1447
377.369	-72
377.452	-909
377.534	-1226
377.616	-650
377.698	-1282
377.780	-944
377.862	-819
377.944	277
378.026	-1138
378.108	-76
378.190	32
378.272	-52
378.354	-651
378.436	-786
378.518	-222
378.600	2105
378.682	1872
378.764	5180
378.846	3765
378.928	444
379.010	232
379.091	582
379.173	-145
379.255	-2128
379.337	-49
379.419	1668
379.501	7647
379.583	1846
379.664	-499
379.746	27
379.828	5400
379.910	6065
379.991	6925
380.073	-890
380.155	-709
380.237	-292
380.318	-818
380.400	-324
380.482	1102
380.564	470
380.645	832
380.727	586
380.809	806
380.890	-575
380.972	-1115
381.053	-676
381.135	901
381.217	543
381.298	5619
381.380	867
381.461	2347
381.543	13370
381.624	15358
381.706	1456
381.787	520
381.869	690
381.951	7012
382.032	23803
382.113	15478
382.195	321
382.276	1522
382.358	3966
382.439	12234
382.521	15794
382.602	22818
382.684	8925
382.765	14635
382.846	10764
382.928	10750
383.009	3946
383.090	3437
383.172	16364
383.253	25154
383.334	10609
383.416	18541
383.497	7793
383.578	1512
383.659	2238
383.741	15414
383.822	41233
383.903	17586
383.984	9381
384.066	22633
384.147	10594
384.228	1789
384.309	408
384.390	218
384.471	-749
384.553	217
384.634	410
384.715	1155
384.796	-755
384.877	-161
384.958	5352
385.039	4810
385.120	876
385.201	1563
385.282	-131
385.363	1095
385.444	-363
385.525	2959
385.606	8909
385.687	7940
385.768	1409
385.849	802
385.930	12938
386.011	21328
386.092	3611
386.173	178
386.254	-346
386.335	581
386.416	-334
386.496	3222
386.577	4830
386.658	1427
386.739	-123
386.820	1475
386.901	-275
386.981	887
387.062	-455
387.143	197
387.224	4582
387.304	4372
387.385	1544
387.466	-1327
387.547	1294
387.627	113
387.708	2012
387.789	10977
387.869	12031
387.950	4044
388.031	-526
388.111	-1262
388.192	2884
388.273	3432
388.353	537
388.434	7
388.514	2565
388.595	12825
388.676	13916
388.756	5028
388.837	4382
388.917	2020
388.998	-1437
389.078	1281
389.159	-725
389.239	-1497
389.320	1382
389.400	-1243
389.480	1643
389.561	4939
389.641	3070
389.722	224
389.802	-403
389.883	3601
389.963	8550
390.043	3380
390.124	-149
390.204	1961
390.284	5027
390.365	2066
390.445	4365
390.525	9027
390.605	7087
390.686	1308
390.766	-503
390.846	533
390.927	-1207
391.007	-1542
391.087	1061
391.167	-1188
391.247	-1324
391.328	1287
391.408	697
391.488	291
391.568	-1906
391.648	-519
391.728	-22
391.808	835
391.888	-640
391.969	3659
392.049	3499
392.129	1521
392.209	1632
392.289	7418
392.369	3419
392.449	2845
392.529	194
392.609	630
392.689	2275
392.769	6941
392.849	5594
392.929	5515
393.009	11398
393.089	7114
393.169	7459
393.248	30863
393.328	118871
393.408	116310
393.488	26439
393.568	6249
393.648	2583
393.728	1121
393.807	-134
393.887	1047
393.967	611
394.047	581
394.127	344
394.206	2199
394.286	11194
394.366	53395
394.446	51820
394.525	8309
394.605	1250
394.685	1932
394.764	4889
394.844	8172
394.924	5016
395.003	335
395.083	685
395.163	491
395.242	-500
395.322	292
395.402	-1765
395.481	1096
395.561	2365
395.640	9748
395.720	8230
395.799	10583
395.879	6571
395.958	2612
396.038	16823
396.117	71131
396.197	68559
396.276	16247
396.356	4099
396.435	2892
396.515	1822
396.594	1232
396.673	7198
396.753	34776
396.832	105055
396.912	68489
396.991	11721
397.070	3355
397.150	-416
397.229	662
397.308	1249
397.388	2881
397.467	1568
397.546	-306
397.625	-2745
397.705	252
397.784	428
397.863	-380
397.942	-293
398.022	-878
398.101	1752
398.180	9475
398.259	3317
398.338	917
398.417	-416
398.497	-470
398.576	-375
398.655	-1389
398.734	-313
398.813	-138
398.892	3113
398.971	10077
399.050	3520
399.129	-577
399.208	-1004
399.287	-9
399.366	-2042
399.445	38
399.524	-262
399.603	-1993
399.682	-141
399.761	2164
399.840	11302
399.919	7690
399.998	79
400.077	-1747
400.156	-2939
400.235	1209
400.313	-2024
400.392	-1185
400.471	1963
400.550	3491
400.629	-1336
400.708	58
400.786	-1440
400.865	776
400.944	439
401.023	1465
401.102	-1303
401.180	-174
401.259	-1087
401.338	-887
401.416	-305
401.495	-1488
401.574	-493
401.652	-1039
401.731	133
401.810	-1919
401.888	-615
401.967	-1682
402.046	-945
402.124	-602
402.203	-1828
402.281	-75
402.360	-1379
402.438	2081
402.517	-525
402.596	-556
402.674	-933
402.753	-1215
402.831	-423
402.910	351
402.988	2956
403.066	12490
403.145	7203
403.223	4999
403.302	10464
403.380	8160
403.459	7371
403.537	2678
403.615	-358
403.694	-1859
403.772	-16
403.850	-983
403.929	-1172
404.007	-544
404.085	593
404.164	301
404.242	-1160
404.320	1105
404.398	4160
404.477	4920
404.555	17885
404.633	15084
404.711	2787
404.789	1153
404.868	-940
404.946	-867
405.024	-1398
405.102	-1215
405.180	-2088
405.258	-1690
405.336	-170
405.415	-1398
405.493	138
405.571	415
405.649	-1507
405.727	-1684
405.805	224
405.883	-203
405.961	370
406.039	-1404
406.117	-2273
406.195	-46
406.273	2310
406.351	13036
406.429	7241
406.507	120
406.585	-1084
406.663	-506
406.740	-1663
406.818	-1479
406.896	-827
406.974	-290
407.052	-589
407.130	7576
407.208	8702
407.285	1317
407.363	-1481
407.441	-754
407.519	-2011
407.596	-52
407.674	264
407.752	5600
407.830	4404
407.907	936
407.985	-1926
408.063	-245
408.141	-1739
408.218	566
408.296	-1032
408.373	-1107
408.451	-667
408.529	-671
408.606	-1251
408.684	-1469
408.762	-1610
408.839	-1385
408.917	-884
408.994	-666
409.072	-1521
409.149	-1048
409.227	-436
409.304	-33
409.382	-1398
409.459	-797
409.537	178
409.614	-814
409.692	-858
409.769	-159
409.846	-119
409.924	722
410.001	-1883
410.079	-900
410.156	-109
410.233	-825
410.311	-1382
410.388	-672
410.465	-739
410.543	-786
410.620	-413
410.697	-1286
410.775	-1254
410.852	-2668
410.929	-356
411.006	70
411.083	-1028
411.161	-59
411.238	-297
411.315	-492
411.392	-1175
411.469	-801
411.547	-551
411.624	-2086
411.701	-1916
411.778	-1477
411.855	-831
411.932	-1062
412.009	-1804
412.086	-1303
412.163	-1188
412.240	-1042
412.317	-611
412.394	-1247
412.471	-560
412.548	-1289
412.625	-1558
412.702	-784
412.779	8
412.856	-783
412.933	-1543
413.010	-1434
413.087	-428
413.164	1706
413.241	1933
413.318	-371
413.395	-629
413.471	-638
413.548	-1329
413.625	-470
413.702	-1753
413.779	-738
413.855	-1546
413.932	-1868
414.009	-1890
414.086	-1163
414.162	-1312
414.239	-302
414.316	1099
414.393	5428
414.469	141
414.546	-1039
414.623	-1931
414.699	-790
414.776	-1145
414.853	-1443
414.929	-1037
415.006	-1139
415.082	-1639
415.159	-979
415.236	-942
415.312	-179
415.389	-855
415.465	-1647
415.542	-1172
415.618	-1493
415.695	-828
415.771	-1883
415.848	-1438
415.924	-1052
416.000	-948
416.077	-636
416.153	-1759
416.230	-1844
416.306	-1415
416.383	-1507
416.459	-288
416.535	-982
416.612	-1635
416.688	-1432
416.764	-1882
416.841	-1882
416.917	-1287
416.993	-1452
417.069	-1022
417.146	-697
417.222	-1353
417.298	-1092
417.374	-1673
417.451	-623
417.527	-1703
417.603	-1570
417.679	-955
417.755	-740
417.831	-1861
417.908	-1404
417.984	-1079
418.060	-1898
418.136	-956
418.212	-437
418.288	-922
418.364	-1316
418.440	-2552
418.516	105
418.592	-1
418.668	10
418.744	-130
418.820	-772
418.896	-1047
418.972	-2052
419.048	-1450
419.124	-46
419.200	-1925
419.276	-1021
419.352	-1988
419.428	-977
419.504	-1471
419.579	-1085
419.655	-1515
419.731	-841
419.807	-1006
419.883	188
419.959	-652
420.034	-848
420.110	-33
420.186	1957
420.262	1703
420.337	-524
420.413	-965
420.489	-1155
420.565	-589
420.640	-954
420.716	-856
420.792	-2099
420.867	-141
420.943	-1617
421.019	-680
421.094	-1298
421.170	-578
421.245	-1541
421.321	-1090
421.397	-1714
421.472	479
421.548	1833
421.623	1417
421.699	-506
421.774	-717
421.850	-1819
421.925	-203
422.001	-157
422.076	-544
422.152	-450
422.227	-641
422.302	1415
422.378	2345
422.453	5702
422.529	18135
422.604	54949
422.679	90027
422.755	51459
422.830	16331
422.905	6413
422.981	2494
423.056	1428
423.131	540
423.207	89
423.282	-59
423.357	565
423.432	-924
423.508	-344
423.583	127
423.658	-820
423.733	-937
423.808	-311
423.883	-838
423.959	-985
424.034	-1449
424.109	-553
424.184	-1786
424.259	-1038
424.334	-1511
424.409	-824
424.484	-1528
424.559	-714
424.634	-985
424.709	-555
424.784	-877
424.859	-941
424.934	-1485
425.009	867
425.084	2923
425.159	-481
425.234	-588
425.309	-1504
425.384	-201
425.459	-390
425.534	-524
425.609	-1416
425.683	-1304
425.758	-353
425.833	-1499
425.908	-667
425.983	-664
426.058	3230
426.132	406
426.207	-1047
426.282	-349
426.357	-1447
426.431	-1531
426.506	-1066
426.581	-1242
426.655	-1370
426.730	-1632
426.805	-1576
426.879	-367
426.954	-301
427.029	-1184
427.103	3240
427.178	9536
427.253	2543
427.327	-938
427.402	-1363
427.476	523
427.551	-151
427.625	-1353
427.700	-335
427.774	-2019
427.849	-579
427.923	-1509
427.998	-1295
428.072	-1726
428.147	499
428.221	2717
428.296	13305
428.370	4908
428.444	18
428.519	-1739
428.593	539
428.667	140
428.742	303
428.816	1491
428.890	8869
428.965	12600
429.039	3063
429.113	964
429.188	-833
429.262	-1052
429.336	-1068
429.410	1388
429.485	116
429.559	162
429.633	-368
429.707	-703
429.781	534
429.855	8422
429.930	12605
430.004	6287
430.078	8851
430.152	9076
430.226	19865
430.300	18474
430.374	1368
430.448	-298
430.522	2947
430.596	8637
430.670	5634
430.744	14473
430.818	19083
430.892	2509
430.966	-1586
431.040	199
431.114	-1916
431.188	-1436
431.262	-1228
431.336	-1889
431.410	504
431.484	268
431.557	-352
431.631	-1631
431.705	-539
431.779	1325
431.853	12708
431.927	6459
432.000	32
432.074	-1081
432.148	-979
432.222	-1177
432.295	-1388
432.369	-946
432.443	-1348
432.516	3527
432.590	10015
432.664	2676
432.737	-1623
432.811	-1620
432.885	-939
432.958	-749
433.032	-1110
433.106	-2560
433.179	-863
433.253	-1559
433.326	-1237
433.400	-1875
433.473	-1173
433.547	-1882
433.620	-1193
433.694	-1945
433.767	-1362
433.841	-2249
433.914	-1307
433.988	-1609
434.061	-1363
434.134	-2209
434.208	-1569
434.281	-2212
434.355	-1846
434.428	-1623
434.501	-1837
434.575	-1610
434.648	-1596
434.721	-1687
434.795	-1466
434.868	-1129
434.941	-1761
435.014	-2430
435.088	-1728
435.161	-1179
435.234	-1216
435.307	-946
435.381	-1052
435.454	-996
435.527	-320
435.600	-1497
435.673	-856
435.746	-952
435.819	-1370
435.892	-1683
435.966	-1715
436.039	-2116
436.112	-817
436.185	-2066
436.258	-2343
436.331	-2718
436.404	-2028
436.477	-2077
436.550	-1886
436.623	-1390
436.696	-1555
436.769	-830
436.842	-1004
436.915	-1482
436.987	-1957
437.060	-1780
437.133	-1612
437.206	-2065
437.279	-1156
437.352	-1694
437.425	-1755
437.498	-1957
437.570	-1343
437.643	-694
437.716	-1078
437.789	-1501
437.861	-757
437.934	-279
438.007	-480
438.080	-2358
438.152	-1426
438.225	-338
438.298	6128
438.370	16960
438.443	5250
438.516	-735
438.588	-1497
438.661	-2038
438.734	-1292
438.806	-1632
438.879	-1196
438.951	-1132
439.024	-750
439.096	-2301
439.169	-2005
439.241	-1575
439.314	-1601
439.386	-1674
439.459	-291
439.531	-1525
439.604	-1719
439.676	-1207
439.749	-1475
439.821	-1974
439.893	-1726
439.966	-1446
440.038	-1074
440.110	-1559
440.183	-911
440.255	-1520
440.327	-197
440.400	853
440.472	8546
440.544	4074
440.617	-1202
440.689	-353
440.761	-1093
440.833	-813
440.905	-1006
440.978	-2221
441.050	-1692
441.122	-1138
441.194	-2329
441.266	-906
441.338	-1960
441.411	-847
441.483	1259
441.555	1735
441.627	-1056
441.699	-611
441.771	-977
441.843	-1806
441.915	-2146
441.987	-1558
442.059	-2172
442.131	-1661
442.203	-155
442.275	-1451
442.347	-349
442.419	-725
442.491	6471
442.563	13924
442.635	4727
442.706	1342
442.778	68
442.850	-2014
442.922	-2090
442.994	-920
443.066	-937
443.137	-1721
443.209	-1077
443.281	-1020
443.353	720
443.425	8316
443.496	29835
443.568	25681
443.640	7664
443.711	141
443.783	-695
443.855	-1719
443.926	-1454
443.998	-1808
444.070	-678
444.141	-1683
444.213	-1924
444.285	-175
444.356	-1016
444.428	-1235
444.499	-1360
444.571	-2322
444.642	-1265
444.714	-1503
444.785	-1017
444.857	-827
444.928	-107
445.000	257
445.071	-789
445.143	541
445.214	-36
445.285	910
445.357	6552
445.428	21771
445.500	44083
445.571	26489
445.642	12323
445.714	3787
445.785	3348
445.856	-1277
445.928	-829
445.999	-1163
446.070	-1881
446.141	-1018
446.213	-378
446.284	-1699
446.355	-1393
446.426	-1086
446.497	-1448
446.569	-676
446.640	-818
446.711	-2034
446.782	-1207
446.853	-533
446.924	-1921
446.995	-1185
447.066	-689
447.138	-1489
447.209	-892
447.280	-1694
447.351	-951
447.422	-1786
447.493	-1032
447.564	-1321
447.635	-1040
447.706	-1617
447.777	-1795
447.847	-1410
447.918	-1731
447.989	-1140
448.060	-1117
448.131	-245
448.202	-894
448.273	-1020
448.344	-901
448.414	-1553
448.485	-753
448.556	-1382
448.627	-1376
448.698	-840
448.768	-1043
448.839	-1185
448.910	-790
448.981	-822
449.051	-888
449.122	-1692
449.193	-1338
449.263	-1259
449.334	-1856
449.405	-1346
449.475	-312
449.546	-695
449.616	-847
449.687	-1758
449.758	-1258
449.828	-1861
449.899	-1438
449.969	-2095
450.040	-1221
450.110	-601
450.181	-1347
450.251	-1325
450.322	-1437
450.392	-491
450.463	-1264
450.533	-1169
450.604	-1343
450.674	-1988
450.744	-1410
450.815	-1131
450.885	-512
450.955	-924
451.026	-1421
451.096	-1931
451.166	-1511
451.237	-720
451.307	1351
451.377	-394
451.447	-1140
451.518	-1303
451.588	-1444
451.658	-1553
451.728	-506
451.799	1534
451.869	1272
451.939	-1722
452.009	-1843
452.079	-1894
452.149	-700
452.219	-310
452.289	1825
452.360	-584
452.430	-1576
452.500	-2024
452.570	-416
452.640	235
452.710	1985
452.780	2731
452.850	1282
452.920	-739
452.990	-1100
453.060	-876
453.129	-1004
453.199	-463
453.269	4075
453.339	6428
453.409	8805
453.479	10908
453.549	16813
453.619	15512
453.688	3504
453.758	-509
453.828	-1585
453.898	-1164
453.968	-766
454.037	-639
454.087	-748
454.107	-803
454.168	-1664
454.177	-1804
454.247	-1957
454.249	-1914
454.316	-1263
454.330	-1304
454.386	-1523
454.411	-569
454.456	923
454.492	966
454.525	1057
454.574	-66
454.595	-585
454.655	-828
454.665	-864
454.734	-908
454.736	-865
454.804	-187
454.817	202
454.873	1653
454.898	1774
454.943	1935
454.979	504
455.013	-746
455.060	-561
455.082	-458
455.141	-573
455.152	-628
455.221	1906
455.222	1951
455.291	3265
455.303	3339
455.360	3633
455.384	4565
455.430	5676
455.465	3713
455.499	2002
455.546	1863
455.569	1701
455.627	1021
455.638	947
455.707	-1264
455.708	-1250
455.777	-1045
455.789	-988
455.846	-668
455.869	-740
455.916	-988
455.950	-1084
455.985	-1199
456.031	-1288
456.054	-1303
456.112	-1517
456.124	-1559
456.193	-721
456.193	-733
456.262	-277
456.274	-303
456.332	-303
456.355	-406
456.401	-742
456.436	-744
456.470	-740
456.516	-991
456.540	-1120
456.597	-734
456.609	-659
456.678	-587
456.678	-596
456.747	-803
456.759	-843
456.817	-877
456.840	-979
456.886	-1289
456.920	-987
456.955	-676
457.001	-688
457.024	-767
457.082	-1195
457.093	-1241
457.162	-279
457.163	-270
457.232	-609
457.243	-597
457.301	-605
457.324	-622
457.370	-631
457.405	-689
457.439	-630
457.485	-233
457.508	-164
457.566	-580
457.577	-596
457.646	241
457.647	251
457.715	771
457.727	928
457.784	2157
457.808	3079
457.853	3724
457.889	4106
457.922	4174
457.969	2695
457.991	2571
458.050	3508
458.060	3759
458.129	6944
458.130	7052
458.198	6305
458.211	5254
458.267	2080
458.292	1469
458.336	1222
458.372	1245
458.405	2306
458.453	3766
458.474	4178
458.533	7298
458.543	7632
458.611	11215
458.614	11258
458.680	6028
458.694	4312
458.749	1443
458.775	1422
458.818	1137
458.855	363
458.887	-48
458.936	-120
458.955	-170
459.016	98
459.024	147
459.093	521
459.097	531
459.162	626
459.177	650
459.230	703
459.257	580
459.299	179
459.338	318
459.368	672
459.418	973
459.437	898
459.499	53
459.505	-29
459.574	59
459.579	62
459.643	194
459.659	240
459.711	405
459.740	460
459.780	469
459.820	446
459.849	383
459.900	418
459.917	585
459.981	718
459.986	660
460.054	1035
460.061	964
460.123	500
460.141	583
460.191	1155
460.222	1453
460.260	1312
460.302	922
460.328	1034
460.382	1405
460.397	1382
460.462	682
460.465	731
460.534	2963
460.543	3192
460.602	7814
460.623	9814
460.671	16054
460.703	21627
460.739	17811
460.783	10161
460.808	8464
460.864	2190
460.876	1575
460.944	1162
460.945	1154
461.013	1382
461.024	1402
461.081	980
461.104	835
461.150	769
461.184	726
461.218	842
461.264	756
461.286	727
461.345	1029
461.355	1016
461.423	1225
461.425	1198
461.491	586
461.505	756
461.559	2110
461.585	2589
461.628	3652
461.665	4828
461.696	4909
461.745	5252
461.764	4918
461.825	2023
461.832	1862
461.901	1003
461.905	998
461.969	1064
461.985	1030
462.037	1752
462.065	1993
462.105	1505
462.145	1273
462.173	1718
462.225	2522
462.241	2710
462.305	3905
462.310	3819
462.378	1642
462.385	1396
462.446	1164
462.465	1186
462.514	1025
462.545	970
462.582	1082
462.625	1136
462.650	1061
462.705	519
462.718	563
462.785	1611
462.786	1618
462.854	1521
462.865	1542
462.922	2159
462.945	2376
462.990	2077
463.025	1649
463.058	1520
463.104	1382
463.126	1217
463.184	962
463.194	1053
463.262	1856
463.264	1865
463.330	1303
463.344	1281
463.398	2397
463.424	2829
463.466	1938
463.504	1132
463.533	1461
463.583	2076
463.601	1981
463.663	1630
463.669	1638
463.737	1719
463.743	1727
463.805	3389
463.823	3892
463.873	5636
463.903	6722
463.940	6190
463.982	5713
464.008	4982
464.062	2613
464.076	2378
464.142	1529
464.144	1526
464.211	1505
464.221	1470
464.279	1576
464.301	1779
464.347	2088
464.381	2202
464.414	2023
464.461	1808
464.482	1875
464.540	1954
464.550	1944
464.617	1850
464.620	1845
464.685	2663
464.699	2794
464.753	2927
464.779	3075
464.820	3415
464.859	3789
464.888	3494
464.938	2657
464.956	2936
465.018	4123
465.023	4090
465.091	3627
465.098	3553
465.158	3354
465.177	3307
465.226	3318
465.257	3350
465.293	3328
465.336	3163
465.361	3296
465.416	3682
465.428	3971
465.495	5544
465.496	5564
465.563	6885
465.575	7153
465.631	8357
465.654	8854
465.698	5655
465.734	2706
465.765	2874
465.813	3266
465.833	3213
465.893	3109
465.900	3078
465.968	2762
465.972	2732
466.035	2489
466.052	2420
466.102	2781
466.131	2977
466.170	3074
466.210	3164
466.237	3201
466.290	3259
466.304	3317
466.369	3455
466.372	3461
466.439	3470
466.449	3455
466.506	3535
466.528	3566
466.573	5797
466.607	7440
466.641	8664
466.687	10410
466.708	10970
466.766	12433
466.775	11599
466.842	5119
466.845	4800
466.909	4378
466.925	4299
466.977	4307
467.004	4295
467.044	4922
467.083	5565
467.111	5735
467.163	5986
467.178	5981
467.242	5928
467.245	5901
467.312	5119
467.321	5008
467.379	5885
467.400	6186
467.446	6085
467.480	5991
467.559	4839
467.638	3796
467.717	4368
467.796	4588
467.875	4111
467.955	5273
468.034	7618
468.113	11711
468.192	16437
468.271	5403
468.350	4981
468.429	4673
468.508	6508
468.588	4683
468.667	5084
468.746	4014
468.825	4083
468.904	3589
468.983	5157
469.062	5499
469.141	6834
469.220	4133
469.299	4600
469.378	2700
469.456	5743
469.535	4068
469.614	4847
469.693	3686
469.772	5972
469.851	6619
469.930	4752
470.009	4460
470.088	3698
470.166	3509
470.245	3841
470.324	4075
470.403	4517
470.482	3589
470.560	3982
470.639	3588
470.718	4039
470.797	3873
470.875	4579
470.954	5261
471.033	5677
471.111	2309
471.190	2322
471.269	2881
471.347	3203
471.426	2906
471.505	4020
471.583	4115
471.662	3678
471.740	4019
471.819	4341
471.898	3720
471.976	4035
472.055	3702
472.133	4650
472.212	5095
472.290	4321
472.369	3396
472.447	4216
472.526	3822
472.604	3737
472.683	3379
472.761	3416
472.839	3529
472.918	3437
472.996	3027
473.075	4394
473.153	3543
473.231	3707
473.310	4169
473.388	3778
473.466	3966
473.545	4404
473.623	4009
473.701	3996
473.780	4136
473.858	2574
473.936	5061
474.014	3975
474.093	3501
474.171	5253
474.249	6066
474.327	4423
474.405	2428
474.484	3488
474.562	2975
474.640	3554
474.718	3440
474.796	3415
474.874	2701
474.952	3352
475.030	2862
475.108	3511
475.187	3182
475.265	4107
475.343	5920
475.421	6652
475.499	3161
475.577	3941
475.655	4804
475.733	7417
475.811	9342
475.889	9260
475.966	6270
476.044	3316
476.122	5286
476.200	5214
476.278	3545
476.356	3306
476.434	3715
476.512	4534
476.590	5368
476.667	4986
476.745	2724
476.823	3796
476.901	3167
476.979	3481
477.056	3372
477.134	4032
477.212	3051
477.290	3329
477.367	3729
477.445	3060
477.523	3302
477.601	3306
477.678	3572
477.756	4138
477.834	3219
477.911	2960
477.989	2990
478.066	3810
478.144	3174
478.222	4387
478.299	6899
478.377	5417
478.454	2849
478.532	3508
478.609	3250
478.687	3745
478.764	2127
478.842	3063
478.919	2845
478.997	3071
479.074	2510
479.152	3691
479.229	4060
479.307	3057
479.384	2511
479.461	2794
479.539	2498
479.616	3416
479.694	2231
479.771	3643
479.848	2767
479.926	2863
480.003	3350
480.080	3549
480.157	3353
480.235	2117
480.312	2792
480.389	4090
480.467	4124
480.544	4501
480.621	3117
480.698	3858
480.775	4292
480.853	3550
480.930	3364
481.007	3013
481.084	3211
481.161	4592
481.238	3498
481.315	3315
481.392	1938
481.470	2855
481.547	2828
481.624	3210
481.701	3044
481.778	3216
481.855	2895
481.932	4967
482.009	6554
482.086	4245
482.163	2992
482.240	5409
482.317	8476
482.393	5620
482.470	2558
482.547	3629
482.624	2009
482.701	2809
482.778	3084
482.855	3032
482.932	2520
483.009	1908
483.085	3235
483.162	3767
483.239	3794
483.316	2230
483.393	3030
483.469	3160
483.546	3562
483.623	2823
483.699	2599
483.776	2936
483.853	2164
483.930	5225
484.006	9070
484.083	14624
484.160	10018
484.236	13407
484.313	10000
484.389	7593
484.466	6964
484.543	6029
484.619	6618
484.696	8926
484.772	7106
484.849	8225
484.925	7171
485.002	6743
485.078	7008
485.155	7208
485.231	5925
485.308	5591
485.384	6344
485.461	8260
485.537	9122
485.614	10304
485.690	6045
485.766	6088
485.843	5944
485.919	6697
485.995	6519
486.072	6583
486.148	4968
486.224	5307
486.301	5698
486.377	6536
486.453	6070
486.530	7315
486.606	9290
486.682	8445
486.758	9444
486.835	10255
486.911	8237
486.987	13349
487.063	10731
487.139	11887
487.215	8978
487.292	7416
487.368	7290
487.444	7652
487.520	7827
487.596	8404
487.672	15148
487.748	33189
487.824	36772
487.900	11388
487.976	6934
488.052	6794
488.128	8270
488.204	6073
488.280	6121
488.356	7049
488.432	10772
488.508	14013
488.584	4741
488.660	5345
488.736	4967
488.812	5234
488.888	6288
488.964	7209
489.039	11348
489.115	14632
489.191	8014
489.267	4700
489.343	5315
489.418	4694
489.494	4281
489.570	2522
489.646	6058
489.722	5544
489.797	4889
489.873	7507
489.949	11942
490.024	8495
490.100	3300
490.176	4280
490.251	4037
490.327	6185
490.403	3779
490.478	4337
490.554	3654
490.629	4532
490.705	3985
490.781	4164
490.856	3162
490.932	4472
491.007	4424
491.083	4222
491.158	3870
491.234	6385
491.309	9253
491.385	7433
491.460	3522
491.536	4761
491.611	2575
491.686	3608
491.762	4258
491.837	7986
491.913	11151
491.988	14593
492.063	12554
492.139	6776
492.214	4312
492.289	3453
492.365	2545
492.440	4022
492.515	3037
492.590	4281
492.666	3307
492.741	4808
492.816	5335
492.891	4131
492.967	2950
493.042	3125
493.117	2524
493.192	4470
493.267	7329
493.342	16188
493.418	17238
493.493	4063
493.568	2924
493.643	3871
493.718	3621
493.793	4829
493.868	3618
493.943	3675
494.018	3190
494.093	2814
494.168	3415
494.243	3010
494.318	2826
494.393	3675
494.468	2335
494.543	2926
494.618	2791
494.693	2954
494.768	2098
494.842	3038
494.917	2093
494.992	2570
495.067	2275
495.142	2948
495.217	2747
495.292	2805
495.366	3075
495.441	3361
495.516	4908
495.591	6234
495.665	13890
495.740	24624
495.815	7805
495.890	3056
495.964	1483
496.039	5162
496.114	3264
496.188	5028
496.263	3585
496.338	3379
496.412	3271
496.487	5131
496.561	4130
496.636	3684
496.710	3508
496.785	4631
496.860	4384
496.934	4034
497.009	3858
497.083	4440
497.158	3540
497.232	5295
497.307	4934
497.381	5050
497.455	5606
497.530	6612
497.604	4760
497.679	5837
497.753	8879
497.827	9265
497.902	7252
497.976	11359
498.050	28948
498.125	81028
498.199	56270
498.273	11043
498.348	8822
498.422	8793
498.496	7177
498.570	7312
498.645	5886
498.719	4196
498.793	6297
498.867	8503
498.941	12169
499.016	38048
499.090	74462
499.164	17046
499.238	4763
499.312	5461
499.386	5980
499.460	5295
499.534	4068
499.609	5536
499.683	6068
499.757	7698
499.831	19108
499.905	56847
499.979	35247
500.053	7551
500.127	6469
500.201	3696
500.275	3610
500.349	4755
500.422	3904
500.496	6321
500.570	12662
500.644	32629
500.718	46400
500.792	8623
500.866	5162
500.940	6141
501.013	4103
501.087	4654
501.161	4872
501.235	7914
501.309	22840
501.382	49544
501.456	29247
501.530	10477
501.603	14686
501.677	5805
501.751	2007
501.825	5851
501.898	9132
501.972	19958
502.046	7577
502.119	4645
502.193	11052
502.266	19787
502.340	7918
502.413	11665
502.487	16398
502.561	7233
502.634	3293
502.708	3818
502.781	2210
502.855	4117
502.928	1295
503.002	3240
503.075	1796
503.149	2075
503.222	3231
503.295	2962
503.369	3519
503.442	4895
503.516	17794
503.589	31965
503.662	16057
503.736	8335
503.809	16811
503.882	12118
503.956	22776
504.029	15637
504.102	17652
504.175	18825
504.249	5103
504.322	4944
504.395	4032
504.468	3730
504.542	1716
504.615	1752
504.688	1750
504.761	1010
504.834	3128
504.907	3388
504.980	2917
505.053	2580
505.127	349
505.200	6248
505.273	2951
505.346	2627
505.419	1945
505.492	2801
505.565	1178
505.638	2414
505.711	1155
505.784	985
505.857	1995
505.930	4190
506.003	758
506.076	4049
506.149	2725
506.221	2014
506.294	5285
506.367	9534
506.440	27103
506.513	9518
506.586	3514
506.659	1728
506.731	1522
506.804	2583
506.877	1526
506.950	2552
507.022	2528
507.095	1158
507.168	2932
507.241	2349
507.313	595
507.386	1609
507.459	2706
507.531	1853
507.604	684
507.677	1952
507.749	-354
507.822	3048
507.894	4181
507.967	5015
508.040	2926
508.112	2611
508.185	2649
508.257	1983
508.330	4733
508.402	1851
508.475	2251
508.547	3112
508.620	2416
508.692	3900
508.765	2443
508.837	1481
508.909	2344
508.982	2203
509.054	2522
509.127	2396
509.199	1988
509.271	1882
509.344	2096
509.416	2256
509.488	1850
509.560	3287
509.633	2017
509.705	3136
509.777	2267
509.849	3533
509.922	841
509.994	2186
510.066	2785
510.138	2247
510.210	6660
510.283	4145
510.355	3570
510.427	3277
510.499	3563
510.571	1814
510.643	1718
510.715	4464
510.787	1308
510.859	4020
510.931	2863
511.003	4284
511.076	3753
511.148	2299
511.219	2170
511.291	5228
511.363	4235
511.435	2498
511.507	1982
511.579	2843
511.651	3219
511.723	2034
511.795	2169
511.867	2516
511.939	3334
512.010	5199
512.082	3707
512.154	1422
512.226	2386
512.298	5089
512.369	3599
512.441	4258
512.513	3522
512.585	1784
512.656	3174
512.728	3632
512.800	1945
512.871	3677
512.943	2725
513.015	1432
513.086	2555
513.158	3032
513.230	2238
513.301	2264
513.373	4399
513.444	2757
513.516	2167
513.588	2760
513.659	2870
513.731	3470
513.802	1488
513.874	6046
513.945	4682
514.016	1168
514.088	2964
514.159	1461
514.231	3931
514.302	4662
514.374	3838
514.445	2615
514.516	7216
514.588	2821
514.659	3119
514.730	5023
514.802	4877
514.873	2223
514.944	5014
515.016	3583
515.087	3198
515.158	4407
515.229	6296
515.301	3331
515.372	4711
515.443	1480
515.514	1931
515.585	1298
515.656	3651
515.728	2423
515.799	1478
515.870	3090
515.941	2390
516.012	1278
516.083	3609
516.154	2515
516.225	3665
516.296	4973
516.367	2445
516.438	2830
516.509	3418
516.580	5208
516.651	15528
516.722	33833
516.793	11880
516.864	5235
516.935	4931
517.006	6128
517.077	6005
517.148	14721
517.219	41608
517.289	44200
517.360	25087
517.431	7881
517.502	2266
517.573	4180
517.643	3878
517.714	4337
517.785	3322
517.856	3450
517.926	5461
517.997	5101
518.068	3478
518.138	7031
518.209	8137
518.280	32223
518.350	79875
518.421	18059
518.492	5013
518.562	4798
518.633	4781
518.703	4738
518.774	13163
518.845	27395
518.915	18337
518.986	6533
519.056	5009
519.127	7413
519.197	12566
519.268	28713
519.338	13421
519.408	5110
519.479	4891
519.549	2345
519.620	4461
519.690	2660
519.760	2885
519.831	2905
519.901	1893
519.971	2600
520.042	2041
520.112	2921
520.182	3627
520.253	3901
520.323	2524
520.393	3124
520.463	6576
520.534	1818
520.604	7219
520.674	4522
520.744	4006
520.814	7112
520.885	6199
520.955	14010
521.025	32339
521.095	7550
521.165	4088
521.235	2641
521.305	1191
521.375	3000
521.445	2386
521.515	2085
521.585	3591
521.655	884
521.725	3188
521.795	2634
521.865	-222
521.935	5237
522.005	1364
522.075	1640
522.145	2690
522.215	2270
522.285	3631
522.355	4849
522.424	8154
522.494	4654
522.564	2998
522.634	6171
522.704	13051
522.774	3074
522.843	2990
522.913	2618
522.983	1796
523.053	1828
523.122	2726
523.192	3274
523.262	6024
523.331	3671
523.401	2005
523.471	2417
523.540	2483
523.610	1604
523.680	1114
523.749	1666
523.819	2410
523.888	2309
523.958	1641
524.027	2355
524.097	2078
524.166	2873
524.236	1406
524.305	4150
524.375	952
524.444	393
524.514	3885
524.583	2154
524.653	2425
524.722	2556
524.791	147
524.861	3171
524.930	482
524.999	2059
525.069	3063
525.138	2291
525.207	1380
525.277	3201
525.346	1539
525.415	2923
525.484	2356
525.554	2263
525.623	2372
525.692	2910
525.761	2092
525.830	3210
525.900	3476
525.969	5671
526.038	10576
526.107	23476
526.176	52427
526.245	28139
526.314	11728
526.383	33304
526.452	30617
526.522	71602
526.591	38635
526.660	9333
526.729	5282
526.797	9034
526.867	18905
526.935	72279
527.004	124112
527.073	36714
527.142	3914
527.211	4010
527.280	3780
527.349	2386
527.418	1237
527.487	3409
527.555	1641
527.624	1368
527.693	-225
527.762	2697
527.831	111
527.899	1765
527.968	1155
528.037	456
528.106	2148
528.174	2930
528.243	2751
528.312	3711
528.380	2781
528.449	635
528.518	2475
528.586	677
528.655	2322
528.723	2006
528.792	1135
528.861	434
528.929	-112
528.998	2873
529.066	1836
529.135	3015
529.203	1401
529.272	1714
529.340	3788
529.409	4522
529.477	1035
529.545	1661
529.614	5682
529.682	2317
529.751	2890
529.819	6695
529.887	2996
529.956	2778
530.024	4187
530.092	2422
530.161	4034
530.229	3143
530.297	2901
530.365	3368
530.434	3887
530.502	2656
530.570	3073
530.638	1713
530.707	3297
530.775	4278
530.843	2530
530.911	2645
530.979	2470
531.047	4097
531.115	2871
531.183	3916
531.252	2958
531.320	3093
531.388	1990
531.456	4128
531.524	641
531.592	4588
531.660	5645
531.728	2484
531.796	2284
531.864	4070
531.932	2825
532.000	3047
532.067	3404
532.135	3510
532.203	4808
532.271	4093
532.339	5926
532.407	8178
532.475	4505
532.542	4277
532.610	4489
532.678	5042
532.746	18776
532.814	25848
532.881	5953
532.949	3776
533.017	3731
533.084	3316
533.152	3716
533.220	3849
533.287	3025
533.355	3697
533.423	3838
533.490	3413
533.558	2607
533.625	3769
533.693	2212
533.761	4117
533.828	3541
533.896	2316
533.963	5229
534.031	5585
534.098	6296
534.166	3017
534.233	2750
534.300	5261
534.368	3222
534.435	3220
534.503	3900
534.570	3687
534.637	2501
534.705	4614
534.772	5198
534.840	8041
534.907	30656
534.974	19810
535.041	3915
535.109	4077
535.176	2808
535.243	4006
535.310	1701
535.378	2382
535.445	2749
535.512	2946
535.579	2965
535.646	2464
535.714	3402
535.781	3095
535.848	3454
535.915	3692
535.982	3226
536.049	2317
536.116	3230
536.183	2538
536.250	2938
536.317	1952
536.384	2733
536.451	4024
536.518	2841
536.585	1019
536.652	4485
536.719	3951
536.786	1393
536.853	3906
536.920	4582
536.987	5045
537.053	4244
537.120	17659
537.187	9375
537.254	2114
537.321	2209
537.388	3744
537.454	1988
537.521	2285
537.588	1365
537.654	3600
537.721	2762
537.788	3644
537.855	2274
537.921	2818
537.988	2562
538.055	4024
538.121	1528
538.188	2438
538.254	2891
538.321	4353
538.388	2702
538.454	2174
538.521	2159
538.587	2579
538.654	1217
538.720	2740
538.787	2531
538.853	2469
538.920	2483
538.986	2358
539.053	1662
539.119	2388
539.185	2198
539.252	3735
539.318	2333
539.385	3624
539.451	1495
539.517	3176
539.583	2859
539.650	6868
539.716	9512
539.782	3157
539.849	1857
539.915	3037
539.981	1309
540.047	3039
540.114	2364
540.180	4143
540.246	973
540.312	2624
540.378	3572
540.444	4439
540.510	6794
540.576	11269
540.643	3727
540.709	651
540.775	2042
540.841	1842
540.907	3567
540.973	4447
541.039	3290
541.105	3757
541.171	2301
541.237	1790
541.303	2064
541.369	3733
541.435	3071
541.500	4010
541.566	1378
541.632	2064
541.698	2453
541.764	3548
541.830	1454
541.896	1806
541.961	2719
542.027	1469
542.093	2487
542.159	2455
542.224	1660
542.290	4129
542.356	3647
542.421	4061
542.487	3111
542.553	2068
542.618	2587
542.684	1462
542.750	1450
542.815	2768
542.881	3950
542.947	12450
543.012	5212
543.078	2453
543.143	1856
543.209	3388
543.274	1909
543.340	3141
543.405	5736
543.471	5381
543.536	2362
543.602	2944
543.667	252
543.732	4208
543.798	1229
543.863	3637
543.928	1423
543.994	1441
544.059	1891
544.124	3599
544.190	1451
544.255	2653
544.320	2549
544.386	2430
544.451	3509
544.516	2839
544.581	3111
544.646	9206
544.712	8917
544.777	3359
544.842	3041
544.907	2630
544.972	2736
545.037	2664
545.102	3288
545.168	2848
545.233	3210
545.298	4373
545.363	2650
545.428	3886
545.493	6901
545.558	7870
545.623	3599
545.688	2662
545.753	3693
545.818	2709
545.883	4527
545.947	2950
546.012	3732
546.077	3563
546.142	4617
546.207	2870
546.272	5070
546.337	2723
546.401	3822
546.466	4301
546.531	2601
546.596	4444
546.661	4405
546.725	4757
546.790	3945
546.855	5524
546.919	4217
546.984	5358
547.049	5090
547.113	6907
547.178	6078
547.243	8434
547.307	9556
547.372	10259
547.436	9676
547.501	9110
547.565	10056
547.630	9930
547.695	8880
547.759	10166
547.823	8471
547.888	8751
547.952	9141
548.017	10786
548.081	10581
548.146	10822
548.210	10770
548.274	11137
548.339	9925
548.403	10719
548.468	8921
548.532	9412
548.596	9487
548.660	9466
548.725	11132
548.789	11545
548.853	11851
548.917	10398
548.982	10564
549.046	8910
549.110	8325
549.174	8744
549.238	8958
549.303	10727
549.367	11242
549.431	10059
549.495	9819
549.559	9827
549.623	12041
549.687	12664
549.751	13246
549.815	14431
549.879	15015
549.943	14017
550.007	15245
550.071	14171
550.135	13579
550.199	12638
550.263	12562
550.327	13100
550.391	13212
550.455	14187
550.519	14482
550.582	16206
550.646	17483
550.710	17388
550.774	18287
550.838	17037
550.901	18561
550.965	18393
551.029	18735
551.093	21037
551.156	24070
551.220	29690
551.284	26758
551.347	21631
551.411	26403
551.475	22134
551.538	18607
551.602	17801
551.666	17332
551.729	14203
551.793	16293
551.856	16431
551.920	14433
551.983	15694
552.047	15125
552.110	16178
552.174	15332
552.237	15766
552.301	14046
552.364	14904
552.428	13481
552.491	14542
552.554	14932
552.618	14957
552.681	15340
552.745	13907
552.808	14838
552.871	16760
552.934	15843
552.998	15050
553.061	14995
553.124	14920
553.187	14637
553.251	14905
553.314	15961
553.377	15249
553.440	20077
553.503	32855
553.567	30427
553.630	16403
553.693	15915
553.756	17118
553.819	15648
553.882	15380
553.945	16401
554.008	15528
554.071	15057
554.134	15947
554.197	14404
554.260	15250
554.323	15915
554.386	16364
554.449	14950
554.512	15889
554.575	14494
554.638	16134
554.701	14992
554.764	14972
554.827	14841
554.889	14572
554.952	12829
555.015	13250
555.078	12249
555.141	13489
555.203	12614
555.266	13293
555.329	12646
555.391	13182
555.454	11790
555.517	12546
555.580	12321
555.642	10947
555.705	10583
555.768	10094
555.830	10067
555.893	10756
555.955	9887
556.018	9812
556.080	9756
556.143	9302
556.206	10328
556.268	9052
556.330	8696
556.393	9485
556.455	9362
556.518	10080
556.580	8679
556.643	8492
556.705	8578
556.767	7138
556.830	8508
556.892	8666
556.955	8472
557.017	8833
557.079	8084
557.142	7647
557.204	6729
557.266	9241
557.328	7990
557.391	6665
557.453	6683
557.515	7287
557.577	7261
557.639	7214
557.701	6861
557.764	5967
557.826	5557
557.888	7354
557.950	7005
558.012	7836
558.074	10325
558.136	25353
558.198	36387
558.260	10432
558.322	8133
558.384	8599
558.446	8805
558.508	10205
558.570	10819
558.632	12915
558.694	17296
558.756	32520
558.818	99997
558.880	137249
558.942	37297
559.003	39033
559.065	13559
559.127	9770
559.189	9598
559.251	10635
559.312	17917
559.374	51561
559.436	106880
559.498	29086
559.559	9448
559.621	9397
559.683	12513
559.744	24256
559.806	68974
559.868	56616
559.929	10745
559.991	11334
560.052	20532
560.114	40181
560.176	18189
560.237	30807
560.299	27828
560.360	6462
560.422	5077
560.483	5095
560.545	4918
560.606	4806
560.667	4246
560.729	4019
560.790	4164
560.852	4001
560.913	3312
560.974	4205
561.036	3484
561.097	4756
561.158	3366
561.220	4323
561.281	3766
561.342	2674
561.403	4709
561.465	5226
561.526	7542
561.587	7753
561.648	3528
561.709	3779
561.771	3543
561.832	4089
561.893	3261
561.954	4237
562.015	3166
562.076	3237
562.137	2703
562.198	3589
562.259	3956
562.320	3089
562.381	3760
562.442	4862
562.503	3092
562.564	4097
562.625	3117
562.686	3426
562.747	3095
562.808	3516
562.869	2839
562.930	4696
562.991	4225
563.051	3459
563.112	4325
563.173	4229
563.234	2423
563.294	3394
563.355	2854
563.416	3480
563.477	3271
563.537	3593
563.598	3662
563.659	3056
563.720	3772
563.780	3700
563.841	4304
563.901	4319
563.962	3962
564.023	3482
564.083	3709
564.144	3425
564.204	3390
564.265	3821
564.325	4226
564.386	6276
564.446	4078
564.507	3154
564.567	2987
564.628	3219
564.688	3978
564.749	2361
564.809	4138
564.869	4475
564.930	3061
564.990	3695
565.050	3084
565.111	4236
565.171	3545
565.231	3847
565.292	2759
565.352	3594
565.412	3697
565.472	3037
565.532	3467
565.593	3428
565.653	2914
565.713	3230
565.773	4022
565.833	3694
565.893	4790
565.953	3499
566.013	3117
566.074	4676
566.134	5832
566.194	6015
566.254	5819
566.314	4645
566.374	3998
566.434	4409
566.494	4287
566.554	4435
566.614	4214
566.673	4169
566.733	4243
566.793	4368
566.853	4680
566.913	4739
566.973	4782
567.033	5085
567.092	4395
567.152	5244
567.212	5481
567.272	4771
567.331	4000
567.391	5884
567.451	5808
567.511	7136
567.570	5732
567.630	5107
567.690	5918
567.749	5414
567.809	4927
567.868	6415
567.928	6548
567.988	6674
568.047	7253
568.107	10002
568.166	13618
568.226	21370
568.285	24551
568.345	18681
568.404	15117
568.464	14006
568.523	13227
568.582	13628
568.642	15499
568.701	19655
568.761	30922
568.820	41492
568.879	34703
568.939	26019
568.998	19293
569.057	15112
569.116	12329
569.176	10551
569.235	8971
569.294	8251
569.353	6219
569.413	7384
569.472	4821
569.531	5469
569.590	5206
569.649	5447
569.708	4546
569.767	4957
569.827	4389
569.886	5161
569.945	3860
570.004	5616
570.063	4155
570.122	4663
570.181	4893
570.240	3805
570.299	4336
570.358	4943
570.417	3201
570.475	3408
570.534	4382
570.593	4658
570.652	3613
570.711	4119
570.770	3211
570.829	4562
570.887	3251
570.946	4670
571.005	3530
571.064	3499
571.122	3765
571.181	4127
571.240	3542
571.299	4251
571.357	4533
571.416	3869
571.475	4186
571.533	4404
571.592	3338
571.650	4582
571.709	3331
571.768	3686
571.826	3240
571.885	4097
571.943	3214
572.002	3949
572.060	3246
572.119	3865
572.177	3763
572.236	3203
572.294	3205
572.352	4364
572.411	2890
572.469	3347
572.528	3022
572.586	3106
572.644	3905
572.703	4945
572.761	3296
572.819	3499
572.877	3364
572.936	3460
572.994	3546
573.052	4142
573.110	2695
573.169	3870
573.227	3607
573.285	4077
573.343	2662
573.401	3989
573.459	4259
573.517	3559
573.576	3455
573.634	3217
573.692	2834
573.750	3738
573.808	2703
573.866	4084
573.924	4745
573.982	4441
574.040	3465
574.098	3320
574.155	3160
574.213	3554
574.271	3108
574.329	2898
574.387	2800
574.445	3478
574.503	2906
574.560	2228
574.618	2139
574.676	2482
574.734	2817
574.792	4067
574.849	2307
574.907	2430
574.965	2874
575.022	2205
575.080	2399
575.138	3546
575.195	2316
575.253	3350
575.311	2848
575.368	3201
575.426	3010
575.483	3695
575.541	3301
575.598	3490
575.656	3089
575.713	3506
575.771	2463
575.828	3478
575.886	3254
575.943	3776
576.001	3108
576.058	2090
576.115	3218
576.173	3901
576.230	3358
576.287	4216
576.345	3974
576.402	3734
576.459	2888
576.517	3275
576.574	3359
576.631	3353
576.688	3103
576.746	3155
576.803	3325
576.860	3272
576.917	3365
576.974	3451
577.031	2374
577.089	3741
577.146	3043
577.203	4233
577.260	3159
577.317	4344
577.374	3521
577.431	2897
577.488	3755
577.545	3116
577.602	3326
577.659	2826
577.716	4309
577.773	3453
577.830	2570
577.886	3763
577.943	3265
578.000	3458
578.057	2741
578.114	3911
578.171	3963
578.227	4624
578.284	4505
578.341	3780
578.398	3993
578.454	4181
578.511	3767
578.568	4721
578.625	3679
578.681	3580
578.738	3456
578.794	3201
578.851	3030
578.908	3951
578.964	4008
579.021	3979
579.077	3589
579.134	3484
579.190	2969
579.247	4154
579.303	3669
579.360	3160
579.416	3116
579.473	3601
579.529	3033
579.586	4141
579.642	4468
579.698	3570
579.755	3784
579.811	4944
579.867	3969
579.924	2657
579.980	3626
580.036	5308
580.093	4601
580.149	6947
580.205	6226
580.261	5265
580.317	4931
580.374	5168
580.430	3767
580.486	4205
580.542	3812
580.598	4407
580.619	4153
580.654	3717
580.692	3562
580.710	3486
580.765	3954
580.767	3972
580.823	4964
580.838	4753
580.879	4207
580.911	3664
580.935	3271
580.984	3537
580.991	3582
581.047	4919
581.057	5010
581.103	5412
581.130	5082
581.159	4738
581.203	4541
581.215	4491
581.270	4393
581.276	4337
581.326	3863
581.349	3896
581.382	3968
581.422	4921
581.438	5314
581.494	4877
581.494	4863
581.550	3793
581.567	4392
581.606	5645
581.640	4663
581.661	4108
581.713	4919
581.717	4977
581.773	4672
581.786	4574
581.829	4330
581.859	4315
581.885	4330
581.932	4654
581.940	4708
581.996	4977
582.004	4909
582.052	4406
582.077	4116
582.107	3923
582.150	4083
582.163	4086
582.219	4281
582.223	4350
582.274	5306
582.296	5042
582.330	4653
582.368	4666
582.386	4671
582.441	4362
582.441	4362
582.497	4495
582.514	4455
582.552	4667
582.587	5360
582.608	5634
582.659	5140
582.663	5112
582.719	6031
582.732	5887
582.774	5363
582.805	5329
582.830	5394
582.877	5505
582.885	5504
582.941	6236
582.950	6140
582.996	5736
583.023	6366
583.052	7090
583.095	6432
583.107	6288
583.162	6846
583.168	6915
583.218	7247
583.240	6731
583.273	5900
583.313	5832
583.328	5893
583.384	5807
583.385	5794
583.439	5218
583.458	5278
583.494	5282
583.531	5149
583.549	5281
583.603	5120
583.605	5099
583.660	5625
583.676	5782
583.715	6405
583.748	5999
583.770	5585
583.820	5322
583.825	5332
583.881	5231
583.893	5184
583.936	4763
583.965	4874
583.991	5006
584.038	5809
584.046	5967
584.101	4742
584.110	4928
584.156	5947
584.183	5725
584.211	5210
584.255	4935
584.266	5008
584.321	5870
584.328	5953
584.376	6055
584.400	5888
584.431	5885
584.472	5745
584.486	5596
584.541	5430
584.545	5463
584.596	6094
584.617	5985
584.651	6237
584.689	6995
584.706	7047
584.761	6275
584.762	6275
584.816	6032
584.834	6050
584.871	6611
584.906	7104
584.926	7213
584.978	6669
584.980	6657
585.035	7468
585.051	7735
585.090	8167
585.123	7867
585.145	7728
585.195	8070
585.200	8112
585.254	9334
585.267	9462
585.309	9834
585.340	10137
585.364	10351
585.412	10989
585.419	11072
585.473	12495
585.484	13003
585.528	15361
585.556	17964
585.583	22402
585.628	34003
585.637	37475
585.692	70386
585.700	73989
585.747	85786
585.772	70704
585.801	42523
585.845	18418
585.856	15538
585.910	11201
585.917	10724
585.965	9829
585.989	9766
586.019	9570
586.061	9166
586.074	9044
586.128	9391
586.133	9388
586.183	9296
586.205	9190
586.237	8976
586.277	8724
586.292	8761
586.346	9648
586.349	9653
586.401	9162
586.421	9406
586.455	10046
586.493	10688
586.509	11096
586.564	12426
586.565	12497
586.618	15998
586.637	16029
586.672	14020
586.709	11893
586.727	11225
586.781	11994
586.781	11986
586.835	10265
586.853	10217
586.889	10852
586.925	10860
586.944	10612
586.996	10923
586.998	10942
587.052	11653
587.068	12056
587.106	12361
587.140	12174
587.161	12262
587.212	12860
587.215	12863
587.269	12946
587.284	13148
587.323	13617
587.356	13806
587.377	14012
587.427	14548
587.431	14570
587.485	15384
587.499	15581
587.539	15547
587.571	15611
587.593	16169
587.643	18048
587.648	18104
587.702	18384
587.715	18545
587.755	19824
587.786	21170
587.810	21565
587.858	22345
587.864	22534
587.917	24674
587.930	25310
587.971	27070
588.001	28472
588.025	29442
588.073	31001
588.079	31260
588.133	35790
588.145	36762
588.187	39417
588.217	41333
588.241	43349
588.288	48331
588.295	48971
588.348	55914
588.360	57543
588.402	63941
588.431	69124
588.456	73868
588.503	83804
588.510	85362
588.564	101022
588.575	104946
588.617	122179
588.646	135421
588.671	149668
588.718	179270
588.725	186342
588.778	243844
588.789	255831
588.832	330149
588.861	378066
588.886	424423
588.932	500017
588.939	500250
588.993	502217
589.004	501961
589.047	445654
589.075	398870
589.100	350194
589.147	255093
589.154	247965
589.207	195946
589.218	186282
589.261	172797
589.290	167165
589.314	171838
589.361	185716
589.368	191221
589.421	243050
589.433	254679
589.475	341911
589.504	397400
589.528	428439
589.576	483514
589.582	474957
589.635	392304
589.647	371171
589.689	269712
589.718	196181
589.742	168897
589.790	117955
589.795	114681
589.849	88579
589.861	83384
589.902	72317
589.932	64229
589.955	59021
590.004	49748
590.009	48972
590.062	42743
590.075	41400
590.115	37227
590.146	34337
590.168	33065
590.218	30833
590.222	30540
590.275	27773
590.289	27189
590.328	25920
590.360	24959
590.381	24090
590.431	22282
590.435	22154
590.488	20982
590.503	20822
590.541	19862
590.574	18893
590.594	18563
590.645	18099
590.647	18038
590.700	17452
590.716	17370
590.753	17045
590.787	16717
590.806	16262
590.859	15399
590.859	15354
590.912	14547
590.930	14457
590.965	14109
591.001	13738
591.018	13784
591.071	13891
591.072	13919
591.124	12997
591.143	12716
591.177	12595
591.214	12553
591.230	12517
591.283	12508
591.285	12531
591.336	12555
591.356	12645
591.389	12642
591.427	12493
591.442	12064
591.495	10851
591.498	10777
591.547	10782
591.569	10844
591.600	11113
591.640	11480
591.653	11318
591.706	10789
591.711	10747
591.759	11388
591.782	11780
591.811	11804
591.853	11823
591.864	11690
591.917	11097
591.924	11027
591.969	10622
591.995	10449
592.022	10672
592.066	11039
592.075	10917
592.127	10355
592.137	10263
592.180	11682
592.208	12622
592.233	11634
592.279	9829
592.285	9893
592.338	10620
592.350	10808
592.390	9941
592.421	9324
592.443	9687
592.491	10519
592.495	10473
592.548	10052
592.562	9949
592.600	9848
592.633	9812
592.653	9595
592.704	9042
592.705	9100
592.775	9441
592.846	10165
592.916	9717
592.987	9757
593.058	10331
593.128	9337
593.199	9821
593.270	9238
593.341	9339
593.411	8705
593.482	9670
593.553	10416
593.623	9056
593.694	10321
593.764	10414
593.835	9538
593.906	9645
593.976	9152
594.047	9154
594.117	11247
594.188	11984
594.258	10211
594.329	10387
594.399	9960
594.470	10380
594.540	10085
594.611	10230
594.681	9715
594.751	10714
594.822	10392
594.892	11062
594.963	10253
595.033	11898
595.103	11144
595.174	11897
595.244	13358
595.314	16060
595.384	11405
595.455	12524
595.525	12573
595.595	12416
595.665	11993
595.736	13122
595.806	12974
595.876	12776
595.946	12815
596.016	12567
596.087	13363
596.157	12948
596.227	12686
596.297	14339
596.367	14047
596.437	15235
596.507	17254
596.577	18766
596.647	15595
596.717	15260
596.787	15441
596.857	15636
596.927	14601
596.997	15700
597.067	15718
597.137	17691
597.207	16404
597.277	16355
597.347	15649
597.417	15621
597.487	15712
597.557	16651
597.626	16460
597.696	17439
597.766	17378
597.836	19426
597.906	15612
597.975	15487
598.045	14324
598.115	15133
598.185	15941
598.254	17826
598.324	19304
598.394	19105
598.464	18092
598.533	19539
598.603	17365
598.672	16682
598.742	16807
598.812	18579
598.881	17895
598.951	18783
599.020	17794
599.090	19110
599.159	19984
599.229	18349
599.299	17194
599.368	18606
599.437	18182
599.507	17665
599.576	17491
599.646	18489
599.715	17459
599.785	16948
599.854	16554
599.924	17820
599.993	16079
600.062	16537
600.132	16821
600.201	17826
600.270	20061
600.340	21854
600.409	20122
600.478	20748
600.547	21162
600.617	19779
600.686	16120
600.755	16433
600.824	15981
600.894	16196
600.963	15176
601.032	15913
601.101	15360
601.170	15065
601.239	14873
601.308	15641
601.378	14694
601.447	16149
601.516	15302
601.585	17349
601.654	16620
601.723	16433
601.792	17139
601.861	17547
601.930	18961
601.999	19487
602.068	18263
602.137	19637
602.206	19413
602.275	18831
602.343	19341
602.412	19930
602.481	18526
602.550	18530
602.619	19083
602.688	17867
602.756	18895
602.825	19605
602.894	20508
602.963	20088
603.032	20608
603.100	19793
603.169	20684
603.238	20707
603.307	19775
603.375	20445
603.444	20999
603.513	20738
603.581	20109
603.650	20786
603.719	19041
603.787	18772
603.856	19011
603.924	20525
603.993	20142
604.061	21207
604.130	21938
604.198	22489
604.267	22218
604.335	23600
604.404	23396
604.472	23823
604.541	23214
604.609	24333
604.678	24777
604.746	24293
604.815	24769
604.883	24741
604.951	24655
605.020	25347
605.088	24921
605.156	24393
605.225	25164
605.293	25621
605.361	24562
605.429	24852
605.498	25661
605.566	25908
605.634	27068
605.702	26973
605.771	27172
605.839	28208
605.907	26728
605.975	26485
606.043	25369
606.111	26111
606.180	26443
606.248	26699
606.316	25759
606.384	25564
606.452	24441
606.520	24140
606.588	24365
606.656	23204
606.724	22288
606.792	21644
606.860	20142
606.928	18510
606.996	17549
607.064	17184
607.132	17763
607.200	18934
607.267	18759
607.335	19704
607.403	19942
607.471	19123
607.539	19192
607.607	19395
607.674	17133
607.742	16928
607.810	17299
607.878	17713
607.946	16279
608.013	18643
608.081	18296
608.149	18209
608.216	18655
608.284	19945
608.352	18831
608.419	18706
608.487	21504
608.555	18186
608.622	19072
608.690	20525
608.757	22166
608.825	22405
608.893	21651
608.960	21792
609.028	20475
609.095	22857
609.163	19895
609.230	17438
609.298	16785
609.365	17188
609.432	18354
609.500	20176
609.567	22610
609.635	26666
609.702	27333
609.769	26973
609.837	20213
609.904	17527
609.971	18036
610.039	22873
610.106	28215
610.173	55803
610.241	133849
610.308	83165
610.375	34217
610.442	19882
610.509	18545
610.577	19776
610.644	18668
610.711	20057
610.778	20039
610.845	19591
610.912	22105
610.980	23279
611.047	24241
611.114	23782
611.181	21368
611.248	20411
611.315	23424
611.382	22846
611.449	22862
611.516	25012
611.583	23737
611.650	23017
611.717	24547
611.784	25770
611.851	25741
611.918	29883
611.984	33837
612.051	51045
612.118	109305
612.185	269754
612.252	164720
612.319	41509
612.386	32633
612.452	29290
612.519	27947
612.586	29133
612.653	27538
612.719	27940
612.786	26855
612.853	25142
612.919	24060
612.986	26446
613.053	22948
613.120	21863
613.186	20434
613.253	23437
613.319	21813
613.386	22258
613.453	21892
613.519	23528
613.586	21801
613.652	26209
613.719	23050
613.785	23512
613.852	22650
613.918	20912
613.985	24013
614.051	26332
614.118	31789
614.184	29229
614.250	21915
614.317	23694
614.383	21677
614.449	23175
614.516	22059
614.582	23161
614.648	21593
614.715	22059
614.781	21247
614.847	21334
614.914	21408
614.980	20947
615.046	21896
615.112	22015
615.179	21567
615.245	23267
615.311	24080
615.377	27100
615.443	26504
615.509	23714
615.575	23886
615.642	22780
615.708	24956
615.774	25447
615.840	28407
615.906	32618
615.972	42772
616.038	70582
616.104	145125
616.170	330944
616.236	265499
616.302	63645
616.368	42944
616.434	30932
616.500	30759
616.565	32287
616.631	39577
616.697	32833
616.763	33104
616.829	49617
616.895	87044
616.961	82110
617.026	35461
617.092	25960
617.158	24429
617.224	23505
617.289	20962
617.355	21264
617.421	19602
617.487	20533
617.552	19642
617.618	19436
617.684	18700
617.749	21490
617.815	18145
617.880	18109
617.946	18137
618.012	18637
618.077	17890
618.143	18184
618.208	18716
618.274	20168
618.339	19796
618.405	15576
618.470	17415
618.536	17358
618.601	17712
618.667	16428
618.732	15567
618.798	15123
618.863	15022
618.928	15027
618.994	16107
619.059	17080
619.124	18134
619.190	15634
619.255	15234
619.320	15383
619.386	15814
619.451	15054
619.516	15058
619.581	15509
619.647	15588
619.712	15858
619.777	14549
619.842	15338
619.907	15144
619.972	15082
620.038	15277
620.103	14901
620.168	12954
620.233	15779
620.298	14385
620.363	15440
620.428	14607
620.493	15342
620.558	15290
620.623	15567
620.688	16629
620.753	15639
620.818	15835
620.883	16916
620.948	15964
621.013	16137
621.078	15263
621.143	14946
621.207	18349
621.272	16288
621.337	16107
621.402	16237
621.467	17034
621.532	18597
621.596	16693
621.661	16308
621.726	16009
621.791	15802
621.855	16197
621.920	16149
621.985	15877
622.049	17546
622.114	16746
622.179	17341
622.243	18235
622.308	16525
622.373	19136
622.437	18652
622.502	15858
622.566	16070
622.631	15607
622.695	18129
622.760	16592
622.824	16182
622.889	16677
622.953	16618
623.018	19233
623.082	19706
623.147	17037
623.211	16823
623.276	16516
623.340	14506
623.404	15980
623.469	16109
623.533	15638
623.597	15260
623.662	15374
623.726	14373
623.790	14214
623.854	12999
623.919	13788
623.983	14094
624.047	13420
624.111	13929
624.176	14801
624.240	14445
624.304	16287
624.368	14072
624.432	14104
624.496	15059
624.560	15650
624.625	15588
624.689	15427
624.753	14919
624.817	14838
624.881	13249
624.945	13425
625.009	13062
625.073	13570
625.137	14615
625.201	14503
625.265	14673
625.329	13298
625.393	14638
625.456	13932
625.520	13473
625.584	15588
625.648	16225
625.712	19349
625.776	31121
625.839	33382
625.903	17470
625.967	11695
626.031	18556
626.095	24247
626.158	13771
626.222	9599
626.286	9986
626.349	9193
626.413	9010
626.477	9810
626.540	9754
626.604	8848
626.668	10015
626.731	8332
626.795	9623
626.858	9570
626.922	8701
626.986	9827
627.049	7831
627.113	9255
627.176	9701
627.240	8470
627.303	8855
627.366	8633
627.430	9072
627.493	8632
627.557	8386
627.620	10006
627.684	7677
627.747	8985
627.810	7625
627.874	8259
627.937	7051
628.000	9277
628.064	8495
628.127	5321
628.190	6831
628.253	7064
628.317	6541
628.380	6499
628.443	6787
628.506	5663
628.569	7036
628.632	5614
628.696	6634
628.759	4773
628.822	5826
628.885	5376
628.948	5447
629.011	6037
629.074	5487
629.137	5040
629.200	4271
629.263	6569
629.326	4414
629.389	4753
629.452	5200
629.515	5215
629.578	5152
629.641	5136
629.704	4254
629.767	4565
629.830	5327
629.892	4603
629.955	4345
630.018	6374
630.081	4037
630.144	5696
630.207	4482
630.269	6053
630.332	5406
630.395	5106
630.458	4455
630.520	3720
630.583	5328
630.646	4441
630.708	5000
630.771	3417
630.834	5619
630.896	4418
630.959	4773
631.021	4207
631.084	4955
631.146	5116
631.209	5367
631.272	3186
631.334	4598
631.397	4672
631.459	4038
631.522	4970
631.584	4874
631.646	4539
631.709	5122
631.771	5569
631.834	5330
631.896	5435
631.958	3866
632.021	5037
632.083	3560
632.145	4438
632.208	3848
632.270	5013
632.332	3884
632.395	3595
632.457	4559
632.519	2860
632.581	4742
632.643	3052
632.706	4658
632.768	4064
632.830	5204
632.892	4065
632.954	3436
633.016	4258
633.078	4094
633.141	4276
633.203	3563
633.265	4492
633.327	4437
633.389	3404
633.451	5601
633.513	3655
633.575	4845
633.637	3750
633.698	3596
633.760	4064
633.822	4944
633.884	4037
633.946	3783
634.008	4130
634.070	5448
634.132	4599
634.193	5344
634.255	5678
634.317	4910
634.379	6321
634.441	5133
634.502	3887
634.564	4253
634.626	4359
634.687	4457
634.749	3532
634.811	4585
634.873	3649
634.934	3653
634.996	4722
635.057	3351
635.119	3364
635.181	3866
635.242	3600
635.304	2095
635.365	5529
635.427	3963
635.488	3413
635.550	3838
635.611	4717
635.673	1767
635.734	4752
635.796	3413
635.857	5028
635.918	3834
635.980	5257
636.041	4402
636.102	5530
636.164	5998
636.225	6153
636.286	3437
636.348	4748
636.409	3462
636.470	3428
636.531	4160
636.593	2976
636.654	3909
636.715	4052
636.776	3691
636.838	1683
636.899	4353
636.960	3299
637.021	2558
637.082	2755
637.143	3070
637.204	2698
637.265	3338
637.326	3339
637.387	3688
637.448	1913
637.509	4193
637.570	2562
637.631	4409
637.692	1435
637.753	1525
637.814	2240
637.875	2704
637.936	3503
637.997	2595
638.058	2549
638.119	3291
638.179	3351
638.240	2989
638.301	2563
638.362	2551
638.423	2755
638.483	3577
638.544	1597
638.605	3557
638.666	1724
638.726	2178
638.787	3614
638.848	2556
638.908	1767
638.969	2618
639.030	2153
639.090	1475
639.151	1612
639.211	4545
639.272	2953
639.332	4559
639.393	3624
639.453	1524
639.514	2717
639.574	3028
639.635	2175
639.695	3142
639.756	1207
639.816	3208
639.877	1921
639.937	4050
639.997	4516
640.058	1887
640.118	944
640.178	2900
640.239	2166
640.299	2846
640.359	1670
640.420	2850
640.480	3279
640.540	2952
640.600	2639
640.661	2331
640.721	1402
640.781	4407
640.841	1353
640.901	3626
640.961	2748
641.021	2825
641.082	1298
641.142	3251
641.202	3070
641.262	1217
641.322	2311
641.382	2332
641.442	2685
641.502	1310
641.562	2830
641.622	2524
641.682	2179
641.742	2486
641.802	2518
641.861	3234
641.921	2272
641.981	3210
642.041	2803
642.101	2896
642.161	565
642.221	1566
642.280	2068
642.340	1572
642.400	601
642.460	1941
642.519	2272
642.579	2205
642.639	2725
642.698	748
642.758	4495
642.818	1325
642.877	981
642.937	2019
642.997	2210
643.056	3380
643.116	555
643.175	3277
643.235	1725
643.294	2028
643.354	2616
643.414	3720
643.473	3478
643.532	3391
643.592	4897
643.651	10151
643.711	19066
643.770	38393
643.830	95361
643.889	198350
643.948	42545
644.008	6748
644.067	3997
644.126	3232
644.186	2424
644.245	2784
644.304	632
644.363	4641
644.423	1399
644.482	2987
644.541	2110
644.600	413
644.659	2168
644.719	2379
644.778	4763
644.837	10263
644.896	20814
644.955	50405
645.014	14348
645.073	4174
645.132	2101
645.191	2926
645.250	1237
645.309	3625
645.368	2806
645.427	3397
645.486	4637
645.545	10153
645.604	2575
645.663	2491
645.722	1576
645.781	2347
645.840	2810
645.898	3562
645.957	5174
646.016	7971
646.075	17381
646.134	34763
646.192	97454
646.251	140334
646.310	16838
646.369	4586
646.427	3643
646.486	2218
646.545	2674
646.603	2224
646.662	2025
646.721	1940
646.779	1579
646.838	985
646.896	2803
646.955	3446
647.014	6392
647.072	10614
647.131	30734
647.189	13554
647.248	1546
647.306	2017
647.365	1958
647.423	-175
647.481	2056
647.540	635
647.598	686
647.657	640
647.715	1820
647.773	454
647.832	1539
647.890	-31
647.948	686
648.007	1686
648.065	-318
648.123	668
648.181	2212
648.240	2091
648.298	1044
648.356	407
648.414	1267
648.472	1130
648.531	1397
648.589	265
648.647	929
648.705	1507
648.763	1070
648.821	1147
648.879	360
648.937	1730
648.995	1144
649.053	2152
649.111	3650
649.169	6755
649.227	13661
649.285	29275
649.343	86020
649.401	36508
649.459	6997
649.516	4467
649.574	1443
649.632	5841
649.690	6271
649.748	4174
649.806	4097
649.863	9740
649.921	21846
649.979	12874
650.037	1852
650.094	-796
650.152	462
650.210	410
650.268	1634
650.325	916
650.383	713
650.440	341
650.498	-184
650.556	259
650.613	478
650.671	1129
650.728	-23
650.786	1543
650.843	1190
650.901	-746
650.958	837
651.016	315
651.073	365
651.131	35
651.188	-249
651.246	1061
651.303	-571
651.360	866
651.418	759
651.475	400
651.532	-663
651.590	592
651.647	-372
651.704	-429
651.762	-713
651.819	830
651.876	-86
651.933	317
651.990	995
652.048	-629
652.105	-20
652.162	483
652.219	-713
652.276	945
652.333	420
652.390	-932
652.448	-57
652.505	606
652.562	-219
652.619	443
652.676	1579
652.733	1685
652.790	144
652.847	-391
652.904	665
652.961	-1138
653.017	-836
653.074	1052
653.131	426
653.188	-1028
653.245	182
653.302	-467
653.359	-154
653.415	668
653.472	-717
653.529	1205
653.586	-410
653.642	429
653.699	321
653.756	-454
653.813	-260
653.869	504
653.926	-1152
653.983	-488
654.039	562
654.096	-92
654.152	885
654.209	-1088
654.266	292
654.322	-705
654.379	375
654.435	804
654.492	-179
654.548	761
654.605	719
654.661	936
654.717	-27
654.774	-31
654.830	352
654.887	744
654.943	633
655.000	938
655.056	-338
655.112	209
655.168	-807
655.225	20
655.281	-35
655.337	568
655.394	730
655.450	224
655.506	643
655.562	1460
655.618	1482
655.675	-532
655.731	-443
655.787	468
655.843	-384
655.899	-839
655.955	159
656.011	28
656.067	-1456
656.123	1183
656.179	597
656.235	1375
656.291	-393
656.347	1016
656.403	36
656.459	-470
656.515	517
656.571	377
656.627	241
656.683	-97
656.739	182
656.795	548
656.850	29
656.906	237
656.962	634
657.018	-216
657.074	57
657.129	614
657.185	1456
657.241	2208
657.297	194
657.352	816
657.408	250
657.464	867
657.519	-139
657.575	-669
657.630	700
657.686	-131
657.742	-56
657.797	-577
657.853	-568
657.908	226
657.964	-678
658.019	217
658.075	117
658.130	93
658.186	-753
658.241	161
658.297	-971
658.352	-342
658.407	991
658.463	-237
658.518	421
658.573	84
658.629	-53
658.684	105
658.739	204
658.795	-1097
658.850	742
658.905	-410
658.960	-544
659.016	-9
659.071	-358
659.126	-654
659.181	-670
659.236	309
659.291	1200
659.346	-43
659.401	-111
659.457	-292
659.512	107
659.567	1425
659.622	15
659.677	-374
659.732	-1572
659.787	207
659.842	-539
659.897	112
659.952	-179
660.007	-362
660.061	-198
660.116	-516
660.171	-720
660.226	-313
660.281	1263
660.336	-218
660.391	328
660.445	-1677
660.500	23
660.555	469
660.610	-263
660.664	26
660.719	-601
660.774	-310
660.828	-130
660.883	-313
660.938	-418
660.992	-1070
661.047	74
661.101	-532
661.156	-149
661.211	-515
661.265	-117
661.320	-579
661.374	-985
661.429	-773
661.483	-248
661.538	-1232
661.592	-296
661.647	-24
661.701	28
661.755	311
661.810	51
661.864	-609
661.919	-507
661.973	89
662.027	-715
662.081	-526
662.136	-621
662.190	176
662.244	-326
662.299	174
662.353	218
662.407	-835
662.461	-144
662.515	152
662.569	-795
662.624	62
662.678	-124
662.732	-559
662.786	-658
662.840	-192
662.894	-257
662.948	-467
663.002	-608
663.056	339
663.110	-1817
663.164	-504
663.218	-347
663.272	421
663.326	-381
663.380	215
663.434	-813
663.488	-993
663.542	-689
663.595	7
663.649	-1335
663.703	136
663.757	-639
663.811	-666
663.864	-255
663.918	-946
663.972	-597
664.026	-610
664.079	-855
664.133	375
664.187	-629
664.240	-866
664.294	-21
664.348	-448
664.401	-599
664.455	696
664.508	-1428
664.562	-750
664.615	-1199
664.669	-886
664.722	-1327
664.776	-484
664.829	-1039
664.883	-467
664.936	-379
664.990	-117
665.043	-332
665.097	-625
665.150	224
665.203	-849
665.257	-714
665.310	-532
665.363	166
665.417	-79
665.470	-291
665.523	505
665.576	-860
665.630	-483
665.683	-539
665.736	51
665.789	-516
665.842	-564
665.895	110
665.949	-161
666.002	-86
666.055	362
666.108	116
666.161	338
666.214	-236
666.267	-374
666.320	438
666.373	369
666.426	-364
666.479	-368
666.532	-746
666.585	-217
666.638	-218
666.691	-725
666.744	4
666.796	-162
666.849	-45
666.902	339
666.955	74
667.008	-735
667.060	-646
667.113	-695
667.166	-611
667.219	-108
667.271	-378
667.324	-334
667.377	-163
667.430	-534
667.482	-67
667.535	491
667.587	-187
667.640	234
667.693	-768
667.745	499
667.798	799
667.850	-841
667.903	-948
667.955	-182
668.008	-107
668.060	41
668.113	-449
668.165	-264
668.218	-556
668.270	219
668.322	-301
668.375	144
668.427	108
668.479	-603
668.532	-184
668.584	-354
668.636	-842
668.689	-222
668.741	-930
668.793	-233
668.845	-522
668.898	736
668.950	-738
669.002	-1111
669.054	-342
669.106	-539
669.158	-105
669.211	-175
669.263	-224
669.315	-177
669.367	-42
669.419	360
669.471	-344
669.523	-174
669.575	746
669.627	-342
669.679	-11
669.731	-412
669.783	338
669.835	-90
669.886	-653
669.938	201
669.990	-77
670.042	-588
670.094	-356
670.146	-27
670.197	-141
670.249	33
670.301	607
670.353	833
670.404	2170
670.456	3800
670.508	6102
670.560	11822
670.611	21092
670.663	39846
670.715	101117
670.766	151762
670.818	39406
670.869	6754
670.921	2875
670.972	1623
671.024	580
671.075	151
671.127	620
671.178	-191
671.230	-450
671.281	458
671.333	72
671.384	-297
671.436	-3
671.487	534
671.538	938
671.590	2241
671.641	3056
671.692	6012
671.744	13159
671.795	7778
671.846	2270
671.897	1308
671.949	-579
672.000	-665
672.051	-6
672.102	809
672.153	-233
672.204	-642
672.256	-76
672.307	-547
672.358	62
672.409	-298
672.460	-574
672.511	-571
672.562	-880
672.613	-150
672.664	-976
672.715	482
672.766	157
672.817	-886
672.868	-883
672.919	62
672.970	-1049
673.021	-667
673.071	-1328
673.122	-55
673.173	-111
673.224	-48
673.275	-651
673.326	-730
673.376	-734
673.427	-772
673.478	-1219
673.528	-1392
673.579	-526
673.630	-93
673.680	791
673.731	-736
673.782	-818
673.832	-102
673.883	-542
673.934	-16
673.984	52
674.035	-371
674.085	-258
674.136	-448
674.186	-991
674.237	-500
674.287	61
674.338	-496
674.388	-239
674.438	-573
674.489	-737
674.539	-227
674.589	-1626
674.640	462
674.690	-731
674.740	-246
674.791	-208
674.841	-512
674.891	-1110
674.942	-901
674.992	259
675.042	-486
675.092	-559
675.142	-863
675.193	-531
675.243	-472
675.293	-1267
675.343	-132
675.393	-1406
675.443	-105
675.493	-370
675.543	-922
675.593	36
675.643	-606
675.693	-248
675.743	-1083
675.793	-591
675.843	-426
675.893	-1261
675.943	-17
675.993	-637
676.043	-593
676.093	-596
676.142	-1260
676.192	-1141
676.242	-646
676.292	-1030
676.341	-745
676.391	-583
676.441	337
676.491	-633
676.540	-1732
676.590	-1209
676.640	-482
676.689	-900
676.739	-614
676.789	-857
676.838	-1089
676.888	-1598
676.937	-1182
676.987	-1525
677.037	-998
677.086	-516
677.136	-182
677.185	-1526
677.235	-1243
677.284	-1379
677.333	-834
677.383	-937
677.432	-970
677.482	-1200
677.531	-211
677.580	-979
677.630	-625
677.679	-713
677.728	-1047
677.778	-801
677.827	-67
677.876	-708
677.925	-1415
677.975	-1537
678.024	-1045
678.073	-1393
678.122	-1042
678.171	-1293
678.220	-525
678.269	-717
678.319	-651
678.368	-810
678.417	-654
678.466	-641
678.515	-19
678.564	-225
678.613	-578
678.662	-1788
678.711	-661
678.760	-1037
678.809	-1560
678.857	-199
678.906	-592
678.955	-800
679.004	-850
679.053	-1267
679.102	-485
679.151	-985
679.199	-787
679.248	-985
679.297	-152
679.346	-1050
679.394	-1526
679.443	-1162
679.492	-621
679.540	-749
679.589	-1095
679.638	-792
679.686	-877
679.735	-966
679.784	-888
679.832	-1410
679.881	-1000
679.929	-975
679.978	-1119
680.026	-1061
680.075	-657
680.123	-1662
680.172	-847
680.220	-674
680.268	-1010
680.317	-1617
680.365	-1381
680.414	-1622
680.462	-605
680.510	-817
680.559	-703
680.607	-914
680.655	-875
680.703	-1942
680.752	-1140
680.800	-944
680.848	-1252
680.896	-1370
680.945	-560
680.993	-1084
681.041	-893
681.089	-744
681.137	-434
681.185	-1406
681.233	-282
681.258	-516
681.281	-755
681.329	-296
681.377	-1006
681.380	-979
681.425	-813
681.473	-59
681.502	-156
681.521	-257
681.569	-673
681.617	-969
681.624	-979
681.665	-1176
681.713	-256
681.745	-544
681.761	-714
681.809	-1217
681.857	-1048
681.867	-879
681.904	-370
681.952	62
681.989	-249
682.000	-358
682.048	-1030
682.096	-516
682.111	-551
682.143	-710
682.191	-232
682.233	-558
682.239	-620
682.286	-455
682.334	-631
682.354	-793
682.382	-1044
682.430	135
682.476	-394
682.477	-422
682.525	-575
682.572	329
682.598	-34
682.620	-350
682.667	479
682.715	413
682.720	347
682.763	-463
682.810	-55
682.841	171
682.857	277
682.905	-452
682.952	976
682.963	761
683.000	-79
683.047	600
683.085	926
683.095	991
683.142	409
683.190	33
683.206	81
683.237	139
683.284	-8
683.328	341
683.332	364
683.379	993
683.426	346
683.449	516
683.473	654
683.521	1083
683.568	428
683.571	481
683.615	936
683.662	1092
683.693	1092
683.709	1078
683.757	196
683.804	1112
683.814	1032
683.851	664
683.898	1215
683.936	1184
683.945	1175
683.992	1305
684.039	1070
684.057	1044
684.086	977
684.133	631
684.179	835
684.180	833
684.227	1346
684.274	1367
684.300	1731
684.321	1953
684.368	817
684.415	1514
684.422	1342
684.462	312
684.509	259
684.543	1055
684.556	1324
684.603	1009
684.649	1236
684.665	1323
684.696	1490
684.743	1650
684.786	1209
684.790	1159
684.837	2010
684.883	1305
684.908	1758
684.930	2260
684.977	1797
685.023	1718
685.029	1833
685.070	2367
685.117	1930
685.150	2002
685.164	2067
685.210	1739
685.257	1900
685.272	2003
685.303	2183
685.350	2053
685.393	1979
685.396	1964
685.443	1383
685.490	2420
685.514	2213
685.536	2052
685.583	2146
685.629	1946
685.636	2041
685.675	2523
685.722	1764
685.757	2240
685.768	2396
685.815	2340
685.861	2801
685.878	2494
685.908	1915
685.954	2810
686.000	2508
686.000	2501
686.047	2739
686.093	2849
686.121	3368
686.139	3606
686.185	2960
686.232	2571
686.242	2642
686.278	2824
686.324	2721
686.363	2417
686.370	2387
686.416	2374
686.463	2764
686.484	2892
686.509	3016
686.555	2842
686.601	2470
686.606	2471
686.647	2450
686.693	2744
686.727	2800
686.739	2836
686.785	3122
686.831	3449
686.848	3386
686.877	3167
686.923	2730
686.969	3213
686.969	3215
687.015	2861
687.061	2885
687.090	3064
687.107	3115
687.153	3290
687.199	2919
687.211	2769
687.245	2583
687.291	3032
687.332	3543
687.336	3583
687.382	3915
687.428	3642
687.453	3711
687.474	3659
687.520	4031
687.565	3133
687.574	3190
687.611	3689
687.657	3684
687.695	3871
687.702	3913
687.748	4034
687.794	4857
687.816	4586
687.839	4068
687.885	3974
687.931	3516
687.937	3500
687.976	3563
688.022	3627
688.058	3574
688.067	3607
688.113	3391
688.158	3336
688.179	3504
688.204	3662
688.249	3660
688.295	3658
688.300	3717
688.340	4188
688.386	4342
688.421	4042
688.431	3930
688.477	4272
688.522	4060
688.542	3810
688.567	3660
688.613	3523
688.658	3909
688.663	3961
688.703	4252
688.749	4127
688.784	4274
688.794	4334
688.839	4023
688.884	4545
688.905	4525
688.930	4406
688.975	4297
689.020	3961
689.026	3980
689.065	4518
689.110	4333
689.146	4744
689.155	4803
689.201	4388
689.246	4768
689.267	4590
689.291	4368
689.336	4710
689.381	4497
689.388	4497
689.426	4539
689.471	4278
689.509	4161
689.516	4151
689.561	4165
689.606	4534
689.630	4295
689.651	4164
689.696	4249
689.741	4346
689.750	4460
689.785	4792
689.830	4558
689.871	4362
689.875	4358
689.920	4945
689.965	4699
689.992	4441
690.010	4301
690.054	4436
690.099	4608
690.112	4594
690.144	4416
690.189	4080
690.233	4111
690.233	4122
690.278	4777
690.323	4801
690.354	4808
690.367	4685
690.412	4997
690.457	4596
690.474	4512
690.501	4629
690.546	4434
690.590	4798
690.595	4793
690.635	4830
690.680	5363
690.716	5107
690.724	5114
690.769	5726
690.813	6528
690.836	6593
690.857	6920
690.902	8177
690.946	8930
690.957	9310
690.991	12544
691.035	16010
691.077	19277
691.080	19255
691.124	18014
691.168	16697
691.198	15863
691.213	14814
691.257	12016
691.301	8740
691.318	7577
691.346	7333
691.390	6689
691.434	6315
691.439	6223
691.478	6021
691.522	5968
691.559	5987
691.567	6002
691.611	5645
691.655	5509
691.680	5422
691.699	5417
691.743	5539
691.787	5717
691.800	5603
691.831	5593
691.875	5789
691.919	6468
691.921	6458
691.964	6190
692.008	6094
692.041	5642
692.052	5559
692.096	6033
692.139	5950
692.162	5999
692.183	6011
692.227	6021
692.271	5587
692.282	5607
692.315	5761
692.359	5766
692.402	5770
692.403	5785
692.447	5608
692.490	5544
692.523	5643
692.534	5726
692.578	5728
692.622	5819
692.643	5990
692.666	6125
692.709	6074
692.753	5843
692.763	5790
692.797	5762
692.840	5790
692.884	6101
692.884	6119
692.928	5908
692.971	6209
693.004	6088
693.015	6039
693.059	5916
693.102	6029
693.124	5936
693.146	5956
693.189	6036
693.233	6118
693.245	6135
693.276	6405
693.320	6902
693.363	7082
693.365	7075
693.407	7365
693.450	7616
693.485	7876
693.493	8084
693.537	8846
693.580	10039
693.605	10420
693.624	11508
693.667	14635
693.710	17092
693.725	18160
693.753	23939
693.797	32470
693.840	41629
693.845	42519
693.883	39053
693.926	35465
693.966	32144
693.970	31496
694.013	24327
694.056	16646
694.086	11551
694.099	11180
694.142	9935
694.185	8711
694.206	8002
694.229	7687
694.272	7406
694.315	6774
694.326	6623
694.358	6680
694.401	6672
694.444	6753
694.446	6728
694.487	6505
694.530	6441
694.566	6480
694.573	6526
694.616	6407
694.659	6451
694.686	6496
694.702	6524
694.745	6473
694.787	6248
694.806	6311
694.830	6521
694.873	6500
694.916	6643
694.926	6661
694.959	6660
695.002	6410
695.044	6353
695.046	6334
695.087	6636
695.130	6876
695.166	7010
695.172	7001
695.215	6783
695.258	6731
695.286	6478
695.301	6461
695.343	6769
695.386	6872
695.406	6734
695.428	6682
695.471	7160
695.514	7217
695.526	7220
695.556	7219
695.599	7476
695.641	7540
695.646	7526
695.684	7234
695.726	6812
695.766	6457
695.769	6494
695.811	6799
695.854	7022
695.886	7293
695.896	7320
695.938	7070
695.981	6998
696.005	6912
696.023	6977
696.065	7012
696.108	7082
696.125	7127
696.150	7253
696.192	7439
696.235	7611
696.245	7603
696.277	7534
696.319	7486
696.361	7351
696.365	7335
696.404	7554
696.446	7581
696.485	7678
696.488	7743
696.530	8013
696.572	8644
696.604	8975
696.614	8886
696.656	8414
696.698	7990
696.724	7707
696.740	7621
696.783	7271
696.825	6976
696.844	6787
696.867	6955
696.909	7320
696.951	7572
696.964	7641
696.992	7646
697.034	7539
697.076	7644
697.083	7613
697.118	7813
697.160	8068
697.202	8152
697.203	8134
697.244	7878
697.286	7536
697.323	7073
697.327	7130
697.369	7577
697.411	7909
697.442	8140
697.453	8102
697.494	7910
697.536	7641
697.562	7488
697.578	7623
697.620	7906
697.661	8210
697.682	8306
697.703	8407
697.744	8582
697.786	8790
697.801	8812
697.828	8694
697.869	8483
697.911	8325
697.921	8249
697.952	8164
697.994	8050
698.035	7928
698.040	7885
698.077	7801
698.118	7710
698.160	7596
698.160	7570
698.201	7545
698.243	7607
698.279	7508
698.284	7577
698.325	8082
698.367	8535
698.399	8885
698.408	8864
698.449	8616
698.491	8402
698.518	8214
698.532	8391
698.573	8871
698.614	9356
698.638	9589
698.656	9536
698.697	9365
698.738	9192
698.757	9082
698.779	8992
698.820	8760
698.862	8530
698.877	8425
698.903	8565
698.944	8733
698.985	8903
698.996	8925
699.026	9007
699.067	9085
699.116	9152
699.235	7806
699.354	8587
699.474	8544
699.593	7829
699.713	9575
699.832	8113
699.951	7776
700.070	8190
700.190	7809
700.309	8384
700.428	8120
700.547	7297
700.667	7915
700.786	8299
700.905	8317
701.024	7990
701.143	7549
701.262	7137
701.381	7911
701.500	7730
701.619	7123
701.738	6822
701.857	7449
701.976	6248
702.095	7324
702.214	8679
702.333	7534
702.452	6495
702.571	7221
702.690	7337
702.809	6930
702.928	6098
703.047	7758
703.165	7052
703.284	6955
703.403	7547
703.522	6486
703.640	7261
703.759	8018
703.878	8560
703.997	7395
704.115	6673
704.234	7396
704.353	6673
704.471	6141
704.590	6317
704.708	5864
704.827	6316
704.946	5956
705.064	7413
705.183	6838
705.301	7075
705.420	10111
705.538	8921
705.656	8539
705.775	8154
705.893	12815
706.012	15785
706.130	8932
706.249	8274
706.367	7845
706.485	7652
706.604	7484
706.722	7351
706.840	9600
706.958	11178
707.077	8572
707.195	7169
707.313	7277
707.431	7005
707.549	6567
707.668	7535
707.786	6792
707.904	6359
708.022	6292
708.140	6935
708.258	6304
708.376	7307
708.494	6888
708.612	7648
708.730	9696
708.848	9473
708.966	8378
709.084	7972
709.202	8362
709.320	7872
709.438	7714
709.556	8336
709.674	8539
709.791	8289
709.909	8453
710.027	7921
710.145	8044
710.263	7614
710.380	6563
710.498	7324
710.616	7615
710.733	7363
710.851	7413
710.969	7449
711.086	7321
711.204	6824
711.322	7367
711.439	6587
711.557	6430
711.674	7114
711.792	6995
711.909	7098
712.027	7866
712.144	7080
712.262	6901
712.379	7851
712.497	9813
712.614	10104
712.732	9121
712.849	7635
712.966	9152
713.084	10056
713.201	8891
713.318	9076
713.436	8645
713.553	8996
713.670	9450
713.787	9447
713.905	9356
714.022	8048
714.139	7738
714.256	9559
714.373	10668
714.490	15272
714.608	35134
714.725	139993
714.842	147159
714.959	16149
715.076	9215
715.193	8193
715.310	8120
715.427	8272
715.544	6092
715.661	7111
715.778	7210
715.895	7580
716.011	8093
716.128	7587
716.245	6382
716.362	7298
716.479	7112
716.596	7594
716.713	6949
716.829	6113
716.946	7012
717.063	6344
717.180	6291
717.296	6153
717.413	6817
717.530	6521
717.646	7054
717.763	6770
717.880	5579
717.996	6395
718.113	5515
718.229	6989
718.346	5350
718.462	5792
718.579	6874
718.695	7783
718.812	7474
718.928	7737
719.045	6261
719.161	5506
719.277	6281
719.394	6335
719.510	6840
719.626	6427
719.743	7404
719.859	8653
719.975	13049
720.092	44460
720.208	102065
720.324	16131
720.440	6612
720.557	6193
720.673	7305
720.789	9244
720.905	16609
721.021	8137
721.137	5819
721.253	5857
721.369	4722
721.486	6223
721.602	7314
721.718	4880
721.834	5380
721.950	4782
722.066	5222
722.181	4992
722.297	4509
722.413	4681
722.529	5016
722.645	4876
722.761	4736
722.877	3988
722.993	4220
723.108	4488
723.224	4374
723.340	4634
723.456	4730
723.571	4108
723.687	4771
723.803	4442
723.918	3809
724.034	4716
724.150	5127
724.265	4762
724.381	6737
724.497	8794
724.612	4016
724.728	3472
724.843	5125
724.959	4511
725.074	7330
725.190	7869
725.305	3977
725.421	3910
725.536	4420
725.651	3260
725.767	4086
725.882	4258
725.997	4146
726.113	4152
726.228	3713
726.343	4256
726.459	3457
726.574	3911
726.689	4139
726.804	2765
726.920	4727
727.035	3859
727.150	3746
727.265	3525
727.380	3941
727.495	4003
727.610	3416
727.725	3416
727.841	4414
727.956	7056
728.071	5705
728.186	3971
728.301	3690
728.416	4028
728.531	4156
728.645	3984
728.760	3009
728.875	3076
728.990	3695
729.105	2874
729.220	3507
729.335	3108
729.449	3178
729.564	3012
729.679	2737
729.794	3130
729.908	3842
730.023	3929
730.138	3577
730.253	3263
730.367	4571
730.482	2742
730.596	3659
730.711	3245
730.826	3804
730.940	3755
731.055	2967
731.169	4026
731.284	3067
731.398	2796
731.513	3873
731.627	3635
731.742	4145
731.856	3837
731.970	2922
732.085	4163
732.199	5801
732.313	7704
732.428	20118
732.542	55980
732.656	32815
732.771	7495
732.885	4722
732.999	4465
733.113	4406
733.227	5390
733.342	3566
733.456	4666
733.570	4216
733.684	2974
733.798	3438
733.912	3033
734.026	3427
734.140	3584
734.254	4083
734.368	4818
734.482	5489
734.596	2716
734.710	3382
734.824	3602
734.938	3127
735.052	2501
735.166	3677
735.280	4177
735.393	3290
735.507	2536
735.621	4495
735.735	5496
735.849	3851
735.962	3220
736.076	3432
736.190	3434
736.303	3986
736.417	5349
736.531	4067
736.644	2328
736.758	2600
736.872	2421
736.985	2399
737.099	3051
737.212	2306
737.326	2991
737.439	3097
737.553	3051
737.666	1839
737.780	1972
737.893	2905
738.007	2549
738.120	2676
738.233	1762
738.347	2107
738.460	2769
738.573	2996
738.687	2905
738.800	2786
738.913	2711
739.026	3197
739.140	2662
739.253	2991
739.366	2626
739.479	2765
739.592	1941
739.705	2419
739.818	3172
739.932	2410
740.045	3235
740.158	2636
740.271	2919
740.384	2272
740.497	3110
740.610	2708
740.723	3191
740.836	2172
740.949	3705
741.062	3090
741.174	2646
741.287	2125
741.400	2155
741.513	2726
741.626	2656
741.739	2404
741.851	2725
741.964	2047
742.077	1598
742.189	2623
742.302	2033
742.415	1983
742.527	1858
742.640	2522
742.753	2533
742.865	1649
742.978	2244
743.090	2375
743.203	2739
743.316	2088
743.428	2381
743.541	2589
743.653	1542
743.766	2474
743.878	2679
743.990	1926
744.103	2293
744.215	2609
744.327	1609
744.440	3387
744.552	2496
744.664	2358
744.777	1748
744.889	1961
745.001	2515
745.113	2661
745.226	1938
745.338	2591
745.450	2746
745.562	2184
745.674	2058
745.786	1736
745.898	2130
746.010	2574
746.122	1820
746.234	2295
746.347	2120
746.459	2448
746.570	2209
746.682	2098
746.794	2897
746.906	2268
747.018	1879
747.130	1437
747.242	1815
747.354	1725
747.466	2461
747.577	1787
747.689	2489
747.801	1982
747.913	2219
748.024	1090
748.136	2249
748.248	1832
748.359	2180
748.471	1582
748.583	1930
748.694	1049
748.806	2984
748.918	2186
749.029	2360
749.141	2370
749.252	2247
749.364	1889
749.475	2711
749.587	2012
749.698	1221
749.809	2642
749.921	2198
750.032	1836
750.144	2410
750.255	2639
750.366	1480
750.478	1437
750.589	2071
750.700	1701
750.811	1550
750.923	2841
751.034	2492
751.145	2901
751.256	1802
751.367	2114
751.479	1787
751.590	1720
751.701	1277
751.812	1253
751.923	2279
752.034	2163
752.145	1492
752.256	1217
752.367	1324
752.478	1943
752.589	2314
752.700	2105
752.811	1192
752.922	1777
753.032	1276
753.143	2361
753.254	975
753.365	1890
753.476	2029
753.586	1855
753.697	2057
753.808	2434
753.919	2190
754.029	1402
754.140	1865
754.251	2360
754.361	1539
754.472	1690
754.582	2023
754.693	1610
754.804	2137
754.914	2539
755.025	2727
755.135	1101
755.246	2373
755.356	1777
755.466	2661
755.577	1785
755.687	1984
755.798	1704
755.908	1544
756.018	2056
756.129	1661
756.239	1741
756.349	2843
756.460	2051
756.570	1603
756.680	1848
756.790	1507
756.900	1579
757.011	1909
757.121	2095
757.231	2367
757.341	1720
757.451	1621
757.561	2004
757.671	2020
757.781	1656
757.891	2342
758.001	2386
758.111	2355
758.221	2129
758.331	2729
758.441	2716
758.551	2157
758.661	2395
758.771	1983
758.880	2500
758.990	2202
759.100	2145
759.210	1498
759.320	2186
759.429	1781
759.539	2542
759.649	1634
759.758	2285
759.868	2878
759.978	2227
760.087	3696
760.197	2477
760.307	2810
760.416	2720
760.526	2313
760.635	2865
760.745	3007
760.854	3105
760.964	2706
761.073	3162
761.182	3431
761.292	2429
761.401	3195
761.511	3036
761.620	2850
761.729	3094
761.839	2560
761.948	3558
762.057	2918
762.166	3004
762.276	3038
762.385	3981
762.494	3641
762.603	3283
762.712	3203
762.822	3410
762.931	5016
763.040	3613
763.149	4149
763.258	4244
763.367	5869
763.476	4715
763.585	5506
763.694	4913
763.803	5767
763.912	6513
764.021	6671
764.130	5883
764.238	7340
764.347	6762
764.456	7620
764.565	9208
764.674	8664
764.783	9645
764.891	10201
765.000	13285
765.109	13858
765.217	15143
765.326	18897
765.435	22702
765.543	27611
765.652	33494
765.761	43684
765.869	59948
765.978	81480
766.086	118422
766.195	170710
766.303	226495
766.412	213802
766.520	177232
766.629	210903
766.737	162751
766.846	111511
766.954	78300
767.062	58646
767.171	44083
767.279	34229
767.387	27059
767.496	22411
767.604	19770
767.712	16944
767.820	14692
767.928	14406
768.037	13287
768.145	12312
768.253	12359
768.361	11238
768.469	11780
768.577	11178
768.685	12613
768.793	12718
768.901	13036
769.009	16318
769.117	19213
769.225	24611
769.333	34037
769.441	50027
769.549	80972
769.657	136877
769.765	205469
769.873	178850
769.981	180977
770.088	133017
770.196	80833
770.304	52392
770.412	37831
770.519	28318
770.627	22477
770.735	18361
770.842	16142
770.950	13487
771.058	11877
771.165	11118
771.273	10270
771.380	9215
771.488	8701
771.595	7089
771.703	6797
771.810	8040
771.918	6589
772.025	6836
772.133	5882
772.240	5486
772.348	5530
772.455	5940
772.562	5071
772.670	3971
772.777	5172
772.884	4455
772.991	3985
773.099	3996
773.206	3680
773.313	3886
773.420	3956
773.528	3898
773.635	3197
773.742	3962
773.849	3383
773.956	3409
774.063	3686
774.170	3399
774.277	3532
774.384	2605
774.491	2488
774.598	2841
774.705	2782
774.812	2632
774.919	3431
775.026	2977
775.133	2814
775.239	2790
775.346	2090
775.453	2036
775.560	3243
775.667	3171
775.773	1820
775.880	3430
775.987	2735
776.093	2886
776.200	1953
776.307	1934
776.413	2602
776.520	1480
776.627	2531
776.733	1873
776.840	1287
776.946	3771
777.053	2893
777.159	2678
777.266	1578
777.372	3171
777.478	3250
777.585	2059
777.691	2551
777.798	2154
777.904	2577
778.010	2867
778.117	2916
778.223	1959
778.329	1788
778.435	2534
778.542	1969
778.648	1415
778.754	2104
778.860	2151
778.966	1559
779.072	2009
779.178	1969
779.284	2246
779.391	1800
779.497	1229
779.603	4297
779.708	3096
779.815	7586
779.920	24861
780.026	52356
780.132	8554
780.238	2920
780.344	2534
780.450	2352
780.556	1840
780.661	1303
780.767	1766
780.873	1210
780.979	2237
781.085	1496
781.190	1530
781.296	1674
781.402	1243
781.507	1728
781.613	981
781.719	623
781.824	1678
781.930	1837
782.035	488
782.141	963
782.246	1084
782.352	1374
782.457	1294
782.563	889
782.668	1456
782.773	1256
782.879	384
782.984	1585
783.090	2112
783.195	1476
783.300	698
783.405	1836
783.511	920
783.616	1027
783.721	1499
783.826	966
783.932	905
784.037	1632
784.142	634
784.247	1062
784.352	1263
784.457	1461
784.562	1649
784.667	868
784.772	403
784.877	969
784.982	898
785.087	1038
785.192	623
785.297	197
785.402	630
785.507	324
785.611	683
785.716	702
785.821	948
785.926	837
786.031	1129
786.135	234
786.240	536
786.345	427
786.450	1128
786.554	1045
786.659	549
786.763	-193
786.868	1235
786.973	1069
787.077	418
787.182	890
787.286	1298
787.391	971
787.495	278
787.600	137
787.704	316
787.809	901
787.913	1038
788.017	90
788.122	738
788.226	1342
788.330	391
788.435	364
788.539	1053
788.643	798
788.747	656
788.852	351
788.956	-20
789.060	933
789.164	1510
789.268	2
789.372	477
789.476	1137
789.580	-573
789.684	183
789.788	680
789.892	81
789.996	1617
790.100	1077
790.204	247
790.308	862
790.412	91
790.516	-404
790.620	649
790.724	1400
790.828	507
790.931	719
791.035	1704
791.139	908
791.242	-424
791.346	1289
791.450	541
791.554	96
791.657	-786
791.761	1353
791.864	797
791.968	162
792.072	431
792.175	1310
792.279	-200
792.382	1077
792.486	390
792.589	61
792.693	524
792.796	-703
792.899	1203
793.003	1315
793.106	-877
793.209	-10
793.313	1686
793.416	-589
793.519	1003
793.623	983
793.726	409
793.829	828
793.932	545
794.035	106
794.138	923
794.242	694
794.345	998
794.448	1985
794.551	2528
794.654	14986
794.757	32284
794.860	5397
794.963	1297
795.066	95
795.169	636
795.272	-485
795.375	690
795.477	293
795.580	853
795.683	-926
795.786	451
795.889	-757
795.991	1410
796.094	931
796.197	-980
796.300	903
796.402	439
796.505	-543
796.608	-28
796.710	1462
796.813	-86
796.915	490
797.018	171
797.120	521
797.223	-635
797.326	1093
797.428	-609
797.530	668
797.633	55
797.735	839
797.838	174
797.940	1184
798.042	-750
798.145	-282
798.247	1472
798.349	-146
798.452	953
798.554	-269
798.656	34
798.758	1127
798.860	139
798.962	223
799.065	-327
799.167	-18
799.269	659
799.371	369
799.473	51
799.575	-516
799.677	324
799.779	1571
799.881	-1046
799.983	1090
800.085	188
800.187	-95
800.289	-669
800.390	-516
800.492	142
800.594	1132
800.696	-685
800.798	-271
800.899	472
801.001	-144
801.103	-590
801.205	169
801.306	-658
801.408	-419
801.509	362
801.611	-112
801.713	33
801.814	-319
801.916	-27
802.017	-16
802.119	-654
802.220	612
802.322	-1893
802.423	1793
802.525	-1249
802.626	540
802.727	631
802.829	-161
802.930	-1809
803.031	1275
803.133	-168
803.234	-305
803.335	-227
803.436	-363
803.538	-220
803.639	-213
803.740	357
803.841	-456
803.942	422
804.043	645
804.144	-931
804.245	-151
804.346	-847
804.447	-405
804.548	-117
804.649	1121
804.750	-375
804.851	-771
804.952	-2
805.053	638
805.154	-751
805.255	456
805.355	-323
805.456	-550
805.557	-658
805.658	-857
805.758	-179
805.859	272
805.960	-350
806.061	-640
806.161	-357
806.262	976
806.362	5
806.463	-229
806.564	722
806.664	156
806.765	180
806.865	-188
806.966	-472
807.066	-736
807.166	637
807.267	41
807.367	-548
807.468	814
807.568	-865
807.668	793
807.769	446
807.869	-64
807.969	95
808.069	442
808.170	-159
808.270	-645
808.370	-273
808.470	894
808.570	-1367
808.670	-306
808.770	-164
808.870	-75
808.970	629
809.070	-468
809.170	-960
809.271	-370
809.370	-379
809.470	-161
809.570	328
809.670	-771
809.770	144
809.870	385
809.970	120
810.070	49
810.169	1002
810.269	-748
810.369	595
810.469	306
810.568	-189
810.668	-1177
810.768	-960
810.867	-29
810.967	-520
811.066	-154
811.166	-601
811.265	568
811.365	-937
811.464	-177
811.564	-367
811.663	-829
811.763	-1856
811.862	230
811.962	471
812.061	-755
812.160	-883
812.260	29
812.359	803
812.458	-950
812.557	1284
812.657	924
812.756	81
812.855	310
812.954	-118
813.053	-146
813.153	-193
813.252	286
813.351	-666
813.450	-58
813.549	-601
813.648	1072
813.747	-221
813.846	-130
813.945	-1141
814.044	-755
814.143	32
814.242	1269
814.341	-619
814.439	360
814.538	1138
814.637	-443
814.736	253
814.835	909
814.933	-587
815.032	342
815.131	82
815.229	955
815.328	1111
815.427	402
815.525	878
815.624	859
815.722	223
815.821	604
815.919	267
816.018	-625
816.116	657
816.215	386
816.313	228
816.412	-156
816.510	952
816.609	1734
816.707	1235
816.805	1218
816.904	-745
817.002	599
817.100	814
817.198	1405
817.296	479
817.395	602
817.493	2887
817.591	1902
817.689	2951
817.787	3238
817.885	6311
817.983	11814
818.081	21972
818.179	51174
818.277	110953
818.375	103267
818.473	35735
818.571	14357
818.669	8930
818.767	8026
818.865	7239
818.963	9098
819.061	12309
819.158	20498
819.256	42376
819.354	85582
819.452	147826
819.549	113220
819.647	48704
819.745	20815
819.842	12039
819.940	8101
820.038	4823
820.135	4305
820.233	4716
820.330	2327
820.428	1733
820.525	2961
820.623	1783
820.720	656
820.818	751
820.915	1099
821.012	900
821.110	152
821.207	1751
821.304	215
821.402	264
821.499	843
821.596	1678
821.693	742
821.791	786
821.888	-551
821.985	903
822.082	37
822.179	-90
822.276	-142
822.373	275
822.470	470
822.567	54
822.664	-587
822.761	1746
822.858	31
822.955	692
823.052	660
823.149	-262
823.246	-669
823.343	-102
823.440	263
823.536	-960
823.633	-84
823.730	457
823.827	1080
823.923	-431
824.020	1111
824.117	-307
824.213	-441
824.310	31
824.407	-229
824.503	-480
824.600	-454
824.696	316
824.793	278
824.889	-1032
824.986	241
825.082	-735
825.179	268
825.275	-47
825.371	-1077
825.468	14
825.564	-825
825.660	169
825.757	852
825.853	514
825.949	-286
826.045	-397
826.142	-388
826.238	-185
826.334	218
826.430	-1238
826.526	540
826.622	-561
826.718	-447
826.814	-421
826.910	838
827.006	-424
827.102	-501
827.198	1021
827.294	-288
827.390	-44
827.486	298
827.582	-1554
827.678	-2214
827.774	816
827.869	-1658
827.965	1091
828.061	-589
828.157	-481
828.252	-360
828.348	-435
828.444	695
828.539	-1500
828.635	-319
828.731	1055
828.826	-1271
828.922	515
829.017	-319
829.113	-43
829.208	-352
829.304	-317
829.399	454
829.495	-843
829.590	689
829.685	-410
829.781	-90
829.876	-908
829.971	-990
830.066	-1069
830.162	-993
830.257	-709
830.352	-873
830.447	-266
830.543	-98
830.638	-2408
830.733	224
830.828	-164
830.923	-315
831.018	-952
831.113	-524
831.208	-1988
831.303	-107
831.398	-318
831.493	-1207
831.588	-747
831.683	-926
831.778	-648
831.873	-815
831.967	-421
832.062	-784
832.157	-1055
832.252	513
832.346	-703
832.441	-354
832.536	427
832.631	153
832.725	267
832.820	-1272
832.914	-870
833.009	-745
833.104	-1436
833.198	-170
833.293	-867
833.387	-789
833.482	-68
833.576	-671
833.670	-108
833.765	-592
833.859	-829
833.954	-490
834.048	11
834.142	652
834.237	-1380
834.331	226
834.425	-503
834.519	-1159
834.613	-258
834.708	-494
834.802	21
834.896	-491
834.990	-1131
835.084	16
835.178	-842
835.272	-268
835.366	-210
835.460	247
835.554	400
835.648	-644
835.742	-45
835.836	-530
835.930	-1240
836.024	194
836.117	207
836.211	-945
836.305	198
836.399	-107
836.493	-1431
836.586	851
836.680	-306
836.774	-1163
836.867	272
836.961	-1421
837.055	-729
837.148	-535
837.242	-531
837.335	-781
837.429	-576
837.522	-739
837.616	-280
837.709	290
837.803	-124
837.896	34
837.989	-1330
838.083	191
838.176	403
838.269	-475
838.363	282
838.456	-1244
838.549	-58
838.642	-851
838.735	753
838.829	324
838.922	-683
839.015	-915
839.108	-1166
839.201	-573
839.294	92
839.387	-784
839.480	-1075
839.573	-980
839.666	-763
839.759	-190
839.852	-1765
839.945	-690
840.038	-566
840.131	-1515
840.223	-949
840.316	-89
840.409	-729
840.502	-1071
840.594	775
840.687	-1555
840.780	-669
840.873	-600
840.965	-242
841.058	-10
841.150	482
841.243	-820
841.336	189
841.428	-1228
841.521	-754
841.613	-1224
841.706	-709
841.798	-299
841.890	-331
841.983	-905
842.075	428
842.167	-1116
842.260	-673
842.352	687
842.444	-510
842.537	-686
842.629	548
842.721	-610
842.813	-600
842.905	-1269
842.997	-143
843.090	-213
843.182	-846
843.274	148
843.366	1941
843.458	3078
843.550	3052
843.642	-489
843.734	99
843.826	-1179
843.918	-401
844.009	-870
844.101	-749
844.193	-899
844.285	-294
844.377	-741
844.469	-376
844.560	-1713
844.652	-967
844.744	-242
844.835	-1052
844.927	-813
845.019	-541
845.110	-919
845.202	-789
845.293	-137
845.385	-742
845.476	-446
845.568	-154
845.659	-826
845.751	351
845.842	-737
845.934	-1644
846.025	-615
846.116	-946
846.208	-110
846.299	-872
846.390	-704
846.482	-637
846.573	-255
846.664	-710
846.755	-466
846.846	745
846.937	-1698
847.029	-1507
847.120	-867
847.211	-1292
847.302	360
847.393	-1325
847.484	-265
847.575	-193
847.666	-1274
847.757	-1201
847.847	-607
847.938	-354
848.029	-260
848.120	-1603
848.211	-1082
848.302	-879
848.392	-750
848.483	-191
848.574	-1155
848.664	-1398
848.755	-499
848.846	-770
848.936	-1388
849.027	-321
849.118	-992
849.208	-1640
849.299	-751
849.389	-528
849.480	-375
849.570	1493
849.661	3121
849.751	6004
849.841	1672
849.932	-750
850.022	-791
850.112	-226
850.203	-1482
850.293	-1165
850.383	-231
850.474	-1735
850.564	-854
850.654	-1068
850.744	-930
850.834	27
850.924	-192
851.014	-1170
851.104	-438
851.194	-1720
851.284	-1652
851.374	-654
851.464	-1079
851.554	-514
851.644	-651
851.734	101
851.824	-561
851.914	-775
852.004	1151
852.094	1188
852.183	-424
852.273	442
852.363	-947
852.452	199
852.542	-155
852.632	-645
852.721	-517
852.811	-1223
852.901	-154
852.990	-1620
853.080	-687
853.169	-588
853.259	-780
853.348	-1744
853.438	-931
853.527	-56
853.617	-1139
853.706	912
853.795	1899
853.885	6000
853.974	11470
854.063	23175
854.152	36331
854.242	12717
854.331	1917
854.420	-499
854.509	-43
854.598	-732
854.687	-936
854.777	-638
854.866	-987
854.955	699
855.044	-962
855.133	-680
855.222	-1354
855.311	-1359
855.400	-755
855.488	-1480
855.577	-919
855.666	-587
855.755	-603
855.844	-83
855.933	-592
856.021	-508
856.110	-83
856.199	-1261
856.288	-1206
856.376	-854
856.465	-1288
856.554	-163
856.642	-805
856.731	-387
856.819	-1231
856.908	-487
856.996	-718
857.085	-1029
857.173	-1161
857.262	-885
857.350	-561
857.438	-1026
857.527	-748
857.615	-936
857.703	-1571
857.792	-1200
857.880	-1705
857.968	-1037
858.056	-1052
858.145	-1641
858.233	-1380
858.321	-1293
858.409	-409
858.497	-1381
858.585	-1185
858.673	-959
858.761	-1536
858.849	-1292
858.937	-913
859.025	-1086
859.113	-324
859.201	-759
859.289	-1062
859.377	-1165
859.465	-109
859.552	-393
859.640	-1039
859.728	-132
859.816	-1017
859.903	-616
859.991	-1970
860.079	-424
860.166	-1239
860.254	-1349
860.342	-392
860.429	-1393
860.517	-578
860.604	-258
860.692	-927
860.779	-473
860.867	-304
860.954	-1544
861.042	-892
861.129	-536
861.216	-832
861.304	-1479
861.391	-1028
861.478	-901
861.565	-770
861.653	-89
861.740	-1614
861.827	-1049
861.914	-1264
862.001	-733
862.089	-1071
862.176	-977
862.263	-1262
862.350	40
862.437	-1317
862.524	-462
862.611	-1428
862.698	-947
862.785	-534
862.871	-867
862.958	-1105
863.045	-1068
863.132	-674
863.219	-2111
863.306	-1802
863.392	-1017
863.479	-1295
863.566	-177
863.652	-597
863.739	-1797
863.826	-411
863.912	-661
863.999	-1762
864.086	-1541
864.172	-1283
864.259	-1241
864.345	-522
864.432	-1516
864.518	-1172
864.604	-1418
864.691	-1260
864.777	-17
864.863	-534
864.950	-488
865.036	-919
865.122	-216
865.209	-266
865.295	-499
865.381	-460
865.467	-231
865.553	216
865.639	-890
865.726	1304
865.812	3184
865.898	5613
865.984	8370
866.070	16490
866.156	19451
866.242	3703
866.328	1117
866.414	-755
866.499	64
866.585	-364
866.671	-779
866.757	234
866.843	46
866.928	-688
867.014	-550
867.100	-408
867.186	-756
867.271	-386
867.357	-749
867.442	-245
867.528	-1622
867.614	-609
867.699	-136
867.785	-717
867.870	-642
867.956	-676
868.041	-426
868.127	-851
868.212	-47
868.297	-198
868.383	-501
868.468	-649
868.553	-270
868.639	-212
868.724	182
868.809	-339
868.894	-264
868.979	-834
869.065	-668
869.150	-1296
869.235	-469
869.320	-1229
869.405	-418
869.490	-1146
869.575	-1149
869.660	-1211
869.745	-71
869.830	-612
869.915	-1257
870.000	-919
870.085	-981
870.169	-1072
870.254	-354
870.339	-868
870.424	-406
870.509	-845
870.593	-1163
870.678	-1059
870.763	-122
870.847	-428
870.932	-1439
871.016	-700
871.101	-985
871.186	-793
871.270	-34
871.355	-521
871.439	-726
871.523	-931
871.608	-817
871.692	-1029
871.777	-964
871.861	-228
871.945	-1251
872.030	-37
872.114	-1291
872.198	-901
872.282	-374
872.367	7
872.451	-1245
872.535	-309
872.619	-247
872.703	-899
872.787	-118
872.871	-784
872.955	-807
873.039	-1268
873.123	-1306
873.207	284
873.291	-1153
873.375	-583
873.459	-1040
873.543	-1133
873.627	-651
873.711	-1431
873.794	-898
873.878	-1695
873.962	-1629
874.045	-1212
874.129	-1321
874.137	-1271
874.213	-772
874.245	-870
874.296	-1030
874.352	-919
874.380	-869
874.460	-835
874.464	-834
874.547	-908
874.568	-836
874.631	-625
874.676	-795
874.714	-943
874.784	-136
874.798	22
874.881	490
874.892	234
874.965	-1530
874.999	-1211
875.048	-763
875.107	-1493
875.131	-1784
875.215	-1388
875.215	-1388
875.298	-1488
875.323	-1214
875.381	-567
875.430	-659
875.465	-685
875.538	-876
875.548	-918
875.631	-1548
875.646	-1444
875.714	-920
875.753	-913
875.798	-873
875.861	-428
875.881	-298
875.964	-484
875.968	-508
876.047	-858
876.076	-808
876.130	-727
876.183	-886
876.213	-1008
876.291	-170
876.296	-109
876.379	-1044
876.398	-1017
876.462	-934
876.506	-890
876.545	-806
876.613	-915
876.628	-952
876.711	-865
876.721	-860
876.794	-862
876.828	-962
876.877	-1039
876.935	-710
876.960	-616
877.043	-1060
877.043	-1060
877.125	-826
877.150	-785
877.208	-571
877.258	-758
877.291	-951
877.365	-587
877.374	-535
877.456	-995
877.472	-965
877.539	-733
877.579	-705
877.622	-763
877.687	-789
877.704	-788
877.787	-554
877.794	-607
877.869	-1060
877.901	-975
877.952	-1025
878.008	-960
878.034	-854
878.115	-1128
878.117	-1133
878.199	-967
878.222	-1023
878.282	-1150
878.329	-861
878.364	-713
878.437	-681
878.447	-655
878.529	-858
878.544	-829
878.611	-713
878.651	-938
878.694	-1215
878.758	-518
878.776	-281
878.858	-924
878.865	-906
878.941	-1019
878.972	-1123
879.023	-1155
879.078	-1285
879.105	-1264
879.185	-777
879.187	-771
879.269	-313
879.292	-571
879.351	-1087
879.399	-832
879.433	-724
879.506	-801
879.516	-806
879.598	-992
879.613	-940
879.680	-347
879.720	-196
879.762	-404
879.827	-982
879.844	-1058
879.926	-795
879.933	-786
880.007	-504
880.040	-429
880.089	-371
880.147	-277
880.171	-342
880.253	-433
880.254	-436
880.335	-551
880.360	-598
880.417	-668
880.467	-526
880.499	-320
880.574	141
880.580	148
880.662	-432
880.680	-482
880.744	-581
880.787	-481
880.825	-394
880.893	-579
880.907	-586
880.989	-323
881.000	-346
881.070	-653
881.106	-701
881.152	-632
881.213	33
881.233	228
881.315	-97
881.319	-109
881.396	-283
881.426	-182
881.478	-52
881.532	-175
881.559	-213
881.639	-671
881.641	-682
881.722	-715
881.745	-707
881.803	-466
881.852	-342
881.885	-283
881.958	-193
881.966	-193
882.047	-253
882.064	-180
882.129	10
882.171	-227
882.210	-279
882.277	-257
882.291	-329
882.372	-281
882.383	-307
882.454	-58
882.489	-49
882.535	-282
882.596	-548
882.616	-459
882.697	-126
882.702	-94
882.778	110
882.808	108
882.859	-291
882.914	-825
882.940	-835
883.020	-541
883.021	-535
883.102	-264
883.127	-251
883.183	-173
883.233	-133
883.264	-252
883.339	-167
883.345	-141
883.426	-981
883.445	-826
883.507	-241
883.551	-201
883.587	-257
883.657	-395
883.668	-380
883.749	-473
883.763	-444
883.830	-490
883.869	-406
883.910	-260
883.975	-260
883.991	-263
884.072	-481
884.081	-459
884.152	197
884.187	293
884.233	-91
884.292	-483
884.314	-442
884.394	-157
884.398	-153
884.475	-182
884.504	-89
884.555	128
884.610	-56
884.636	-235
884.716	-262
884.716	-254
884.797	545
884.821	550
884.877	335
884.927	367
884.958	186
885.033	-422
885.038	-421
885.118	-424
885.139	-395
885.199	-84
885.244	227
885.279	201
885.350	-83
885.359	-76
885.439	17
885.456	39
885.520	-86
885.561	-154
885.600	-236
885.667	-593
885.680	-528
885.760	91
885.773	173
885.840	164
885.878	165
885.920	147
885.984	-44
886.000	-50
886.080	119
886.089	110
886.160	-188
886.195	-161
886.240	-51
886.300	-195
886.320	-141
886.400	178
886.406	180
886.480	-354
886.511	-506
886.560	-202
886.616	199
886.640	199
886.720	42
886.722	35
886.800	-212
886.827	-381
886.879	-334
886.932	-93
886.959	169
887.038	676
887.039	674
887.119	106
887.143	-113
887.198	153
887.248	464
887.278	387
887.354	29
887.358	33
887.437	267
887.459	257
887.517	474
887.564	714
887.596	510
887.669	-136
887.676	-139
887.755	-93
887.774	-88
887.835	287
887.880	544
887.914	340
887.985	-61
887.994	-2
888.073	455
888.090	544
888.153	-90
888.195	-503
888.232	-181
888.300	400
888.311	414
888.391	471
888.405	475
888.470	260
888.510	107
888.549	-8
888.615	-165
888.628	-96
888.708	303
888.720	355
888.787	718
888.825	916
888.866	672
888.930	282
888.945	211
889.024	-132
889.035	-185
889.103	-97
889.140	-48
889.182	77
889.245	229
889.261	225
889.340	197
889.349	192
889.419	182
889.454	174
889.498	247
889.559	331
889.577	244
889.656	-143
889.664	-181
889.735	-401
889.768	-504
889.814	-16
889.873	631
889.978	138
890.083	-336
890.187	-456
890.292	852
890.397	515
890.501	186
890.606	816
890.710	-63
890.815	-481
890.919	135
891.024	-196
891.128	445
891.233	-142
891.337	424
891.442	-599
891.546	-30
891.650	106
891.755	-1079
891.859	850
891.963	374
892.068	3
892.172	641
892.276	-156
892.380	303
892.484	92
892.589	-508
892.693	-98
892.797	-288
892.901	179
893.005	-394
893.109	232
893.213	413
893.317	84
893.421	1052
893.525	140
893.629	176
893.733	-219
893.837	-428
893.941	-133
894.045	606
894.148	463
894.252	268
894.356	-361
894.460	-347
894.564	-611
894.667	278
894.771	-370
894.875	-338
894.978	150
895.082	-446
895.186	702
895.289	726
895.393	-551
895.496	608
895.600	49
895.703	36
895.807	-414
895.910	-440
896.014	-252
896.117	420
896.221	-772
896.324	-471
896.427	210
896.531	-1047
896.634	-472
896.737	-284
896.840	102
896.944	-779
897.047	166
897.150	189
897.253	569
897.356	-348
897.460	203
897.563	354
897.666	20
897.769	158
897.872	84
897.975	95
898.078	-123
898.181	263
898.284	-333
898.387	192
898.490	381
898.593	71
898.695	295
898.798	-167
898.901	646
899.004	546
899.107	946
899.209	-171
899.312	-197
899.415	-303
899.518	397
899.620	-158
899.723	-849
899.826	309
899.928	391
900.031	-57
900.133	-671
900.236	-479
900.338	-60
900.441	37
900.543	-47
900.646	37
900.748	183
900.851	-270
900.953	176
901.055	-386
901.158	-176
901.260	-729
901.362	-776
901.465	-269
901.567	52
901.669	-117
901.771	-289
901.873	159
901.976	-95
902.078	808
902.180	-752
902.282	-92
902.384	-1197
902.486	-534
902.588	22
902.690	-232
902.792	83
902.894	-71
902.996	615
903.098	-11
903.200	126
903.302	103
903.404	-825
903.505	-591
903.607	-19
903.709	17
903.811	-62
903.913	395
904.014	287
904.116	-735
904.218	-377
904.319	193
904.421	494
904.523	-391
904.624	174
904.726	294
904.827	-303
904.929	-771
905.030	-654
905.132	-971
905.233	198
905.335	-208
905.436	-232
905.537	-316
905.639	247
905.740	9
905.841	-841
905.943	258
906.044	-126
906.145	332
906.247	-357
906.348	915
906.449	161
906.550	146
906.651	28
906.752	-170
906.854	266
906.955	-1192
907.056	287
907.157	-29
907.258	433
907.359	-364
907.460	594
907.561	42
907.662	-388
907.762	-292
907.863	-588
907.964	-377
908.065	-152
908.166	-239
908.267	-762
908.367	-549
908.468	-772
908.569	665
908.670	424
908.770	-187
908.871	298
908.971	291
909.072	-491
909.173	-1094
909.273	-254
909.374	73
909.474	-232
909.575	-477
909.675	-488
909.776	623
909.876	-75
909.977	-110
910.077	597
910.177	-719
910.278	117
910.378	-405
910.478	-478
910.579	-579
910.679	-282
910.779	215
910.879	-228
910.980	43
911.080	-514
911.180	-115
911.280	-429
911.380	-154
911.480	288
911.580	-688
911.680	353
911.780	-255
911.880	192
911.980	-557
912.080	-911
912.180	500
912.280	-777
912.380	400
912.480	-780
912.580	-624
912.679	-254
912.779	-630
912.879	-188
912.979	-147
913.078	-768
913.178	-513
913.278	160
913.377	-703
913.477	401
913.577	-136
913.676	246
913.776	-437
913.875	208
913.975	-691
914.074	-645
914.174	-704
914.273	-1171
914.373	878
914.472	-213
914.572	-741
914.671	139
914.770	163
914.870	-585
914.969	-786
915.068	-287
915.167	-477
915.267	-1111
915.366	-663
915.465	156
915.564	-733
915.663	-43
915.763	-910
915.862	-230
915.961	-142
916.060	-1019
916.159	-733
916.258	-869
916.357	-502
916.456	73
916.555	-895
916.654	-400
916.752	-532
916.851	-196
916.950	-332
917.049	-363
917.148	179
917.247	-283
917.345	-668
917.444	-230
917.543	-474
917.642	-766
917.740	-82
917.839	-65
917.937	530
918.036	-624
918.135	79
918.233	-1044
918.332	-821
918.430	-374
918.529	37
918.627	-535
918.726	-820
918.824	-281
918.923	177
919.021	218
919.119	-1262
919.218	-1234
919.316	-387
919.414	-626
919.512	-577
919.611	-576
919.709	-219
919.807	-701
919.905	-28
920.003	-416
920.102	-778
920.200	-361
920.298	-428
920.396	-449
920.494	-149
920.592	-730
920.690	43
920.788	-419
920.886	-868
920.984	-99
921.082	-1350
921.180	41
921.277	-265
921.375	-278
921.473	-103
921.571	-323
921.669	-541
921.766	-764
921.864	-829
921.962	99
922.060	-896
922.157	204
922.255	-9
922.352	254
922.450	-70
922.548	-944
922.645	-646
922.743	-519
922.840	-410
922.938	27
923.035	-532
923.133	-521
923.230	299
923.327	-172
923.425	384
923.522	-57
923.619	360
923.717	-469
923.814	-629
923.911	-204
924.008	440
924.106	-687
924.203	-688
924.300	-190
924.397	302
924.494	185
924.591	-326
924.688	-282
924.786	-954
924.883	208
924.979	-822
925.077	-232
925.173	-765
925.270	-714
925.367	132
925.464	-91
925.561	19
925.658	-15
925.755	108
925.852	-110
925.948	178
926.045	23
926.142	-479
926.239	-193
926.335	130
926.432	225
926.529	-201
926.625	-44
926.722	-256
926.818	13
926.915	-107
927.011	-1373
927.108	-72
927.204	-347
927.301	203
927.397	139
927.494	-156
927.590	297
927.687	-729
927.783	-294
927.879	97
927.976	-788
928.072	-201
928.168	-728
928.264	-87
928.361	-408
928.457	-897
928.553	-883
928.649	584
928.745	451
928.841	-625
928.937	-11
929.033	-697
929.129	-714
929.225	-643
929.321	-21
929.417	-798
929.513	12
929.609	-1175
929.705	-469
929.801	-32
929.897	-923
929.993	30
930.089	334
930.184	-387
930.280	-1226
930.376	-221
930.471	-494
930.567	493
930.663	-391
930.758	-226
930.854	-371
930.950	-824
931.045	-920
931.141	-416
931.236	-756
931.332	-510
931.427	-467
931.523	-312
931.618	-808
931.714	-614
931.809	-710
931.905	-310
932.000	-187
932.095	-891
932.191	-179
932.286	-818
932.381	-869
932.476	-645
932.572	-576
932.667	-743
932.762	-639
932.857	142
932.952	-383
933.047	-683
933.142	-745
933.237	-837
933.332	-177
933.427	108
933.522	-538
933.617	-368
933.712	393
933.807	-547
933.902	-755
933.997	304
934.092	-610
934.187	-523
934.282	-244
934.376	-833
934.471	-389
934.566	-378
934.661	-457
934.755	-890
934.850	153
934.945	-96
935.039	-887
935.134	-144
935.228	-968
935.323	88
935.417	-555
935.512	-299
935.606	140
935.701	-263
935.795	482
935.890	-181
935.984	-26
936.079	-865
936.173	-634
936.267	-1044
936.362	-891
936.456	-537
936.550	-437
936.644	-498
936.738	355
936.833	-653
936.927	-918
937.021	-365
937.115	-868
937.209	-309
937.303	-123
937.397	-509
937.491	-470
937.585	-107
937.679	-799
937.773	-550
937.867	-1050
937.961	235
938.055	-594
938.149	289
938.243	-232
938.337	-974
938.430	-469
938.524	-819
938.618	-570
938.712	793
938.805	-481
938.899	-664
938.993	-241
939.086	-590
939.180	66
939.274	-365
939.367	183
939.461	141
939.554	-658
939.648	-1172
939.741	-273
939.835	-812
939.928	-340
940.022	-170
940.115	-159
940.208	-169
940.302	-284
940.395	-252
940.488	-1223
940.582	-149
940.675	-891
940.768	-610
940.861	-897
940.954	416
941.048	-1061
941.141	-203
941.234	-751
941.327	-622
941.420	-92
941.513	787
941.606	-1028
941.699	189
941.792	-735
941.885	-614
941.978	-135
942.071	-291
942.164	-858
942.257	-409
942.349	-147
942.442	-637
942.535	-1005
942.628	-251
942.721	-120
942.813	-1153
942.906	-787
942.999	-179
943.091	-1032
943.184	178
943.277	-1484
943.369	-569
943.462	-582
943.554	-486
943.647	-913
943.739	61
943.832	-159
943.924	-1346
944.017	-319
944.109	-1172
944.201	-71
944.294	-132
944.386	127
944.478	-1083
944.571	-773
944.663	-404
944.755	-262
944.847	-480
944.940	-1269
945.032	-1061
945.124	-442
945.216	-229
945.308	-582
945.400	-939
945.492	-1135
945.584	-270
945.676	-397
945.768	-1157
945.860	292
945.952	-809
946.044	-863
946.136	-805
946.228	172
946.320	-633
946.412	-568
946.503	-892
946.595	-152
946.687	-223
946.779	-626
946.870	-91
946.962	-646
947.054	-629
947.145	173
947.237	-132
947.329	-946
947.420	-1187
947.512	-711
947.603	-488
947.695	-733
947.786	-900
947.878	-1329
947.969	-400
948.061	-165
948.152	-307
948.243	40
948.335	-1000
948.426	-1426
948.517	-480
948.609	-770
948.700	-579
948.791	-1183
948.882	-1423
948.973	-296
949.065	-909
949.156	-607
949.247	-1512
949.338	-480
949.429	-928
949.520	348
949.611	-1328
949.702	177
949.793	-1095
949.884	-880
949.975	-1057
950.066	-850
950.157	-850
950.247	-837
950.338	-1501
950.429	-1012
950.520	-798
950.611	-745
950.701	-685
950.792	-600
950.883	213
950.973	-842
951.064	-726
951.155	-863
951.245	-560
951.336	-672
951.427	-869
951.517	309
951.608	-602
951.698	-428
951.788	-565
951.879	-1131
951.969	-1124
952.060	-1408
952.150	-1372
952.240	-679
952.331	-2199
952.421	-581
952.511	-1565
952.602	-555
952.692	-1193
952.782	-45
952.872	-1376
952.962	-972
953.052	-1046
953.143	-1925
953.233	-670
953.323	-273
953.413	-1204
953.503	50
953.593	-644
953.683	-1176
953.773	-1728
953.863	-362
953.953	-738
954.042	-782
954.132	-1515
954.222	464
954.312	-253
954.402	-858
954.492	-722
954.581	-613
954.671	-2002
954.761	-1603
954.850	-777
954.940	-912
955.030	-437
955.119	-1286
955.209	-462
955.298	-1672
955.388	-1191
955.477	-283
955.567	-1977
955.656	-63
955.746	-1292
955.835	-895
955.925	-1184
956.014	-803
956.103	-1761
956.193	-519
956.282	-395
956.371	-386
956.461	-1082
956.550	-1555
956.639	-686
956.728	-1548
956.817	-680
956.906	-1045
956.995	-802
957.085	-1646
957.174	-798
957.263	-724
957.352	-1177
957.441	-366
957.530	-811
957.619	-703
957.708	-1759
957.796	-877
957.885	-815
957.974	-1074
958.063	180
958.152	-1640
958.241	-378
958.329	-850
958.418	-1069
958.507	-1267
958.596	-422
958.684	-1095
958.773	425
958.861	-1644
958.950	-534
959.039	-201
959.127	-259
959.216	-167
959.304	-1043
959.393	-833
959.481	-975
959.570	-371
959.658	-1389
959.746	-1313
959.835	-234
959.923	-890
960.011	-1339
960.100	-290
960.188	-372
960.276	-1203
960.365	-431
960.453	-1150
960.541	-1256
960.629	-623
960.717	-1542
960.805	-1953
960.893	-1585
960.981	-1771
961.069	-371
961.158	-1134
961.245	-760
961.333	-1407
961.421	-1022
961.509	-917
961.597	-688
961.685	-1193
961.773	-1227
961.861	-1272
961.949	-1050
962.036	-1773
962.124	-852
962.212	-1655
962.299	-1051
962.387	-285
962.475	-867
962.562	-2105
962.650	-994
962.738	-1152
962.825	-1390
962.913	-1006
963.000	-1564
963.088	-1696
963.175	-1007
963.263	-587
963.350	-1950
963.438	-822
963.525	-1873
963.612	-1026
963.700	-1368
963.787	717
963.874	-509
963.962	-1021
964.049	-1326
964.136	-922
964.223	-1830
964.310	-1378
964.398	-1348
964.485	-1279
964.572	-1047
964.659	-1434
964.746	-737
964.833	-1177
964.920	-756
965.007	-1135
965.094	-1487
965.181	-1784
965.268	-1308
965.355	-1058
965.441	-1224
965.528	-1981
965.615	-696
965.702	-1621
965.789	-1389
965.875	-436
965.962	-1805
966.049	-2042
966.136	-565
966.222	-1789
966.309	-1542
966.395	-1652
966.482	-673
966.569	-1325
966.655	-1670
966.742	-1809
966.828	-610
966.915	-2405
967.001	-1362
967.087	-1269
967.174	-1125
967.260	-1550
967.347	-1300
967.433	-854
967.519	-670
967.605	-1750
967.692	-1594
967.778	-1165
967.864	-2112
967.950	-1192
968.036	-1711
968.123	-1283
968.209	-1652
968.295	-2190
968.381	250
968.467	-876
968.553	-1750
968.639	-741
968.725	-2513
968.811	-1134
968.897	-785
968.983	-912
969.069	-2452
969.154	-1233
969.240	-1323
969.326	-1986
969.412	-1674
969.497	-2119
969.583	-2150
969.669	-360
969.755	-1156
969.840	-1259
969.926	-660
970.012	-2314
970.097	-558
970.183	-1556
970.268	-1871
970.354	-969
970.439	-2122
970.525	-332
970.610	-1449
970.696	-799
970.781	-1190
970.866	-2008
970.952	-868
971.037	-1497
971.122	-1411
971.208	-1061
971.293	-1121
971.378	-1769
971.463	-2072
971.549	-461
971.634	-1691
971.719	-1624
971.804	-1478
971.889	-1607
971.974	-1343
972.059	-1161
972.144	-897
972.229	-1972
972.314	-1890
972.399	-994
972.484	-1662
972.569	-1182
972.654	-2234
972.739	-522
972.824	-1109
972.908	-1274
972.993	-963
973.078	-1190
973.163	-1246
973.247	-237
973.332	-2983
973.417	-549
973.501	-1330
973.586	-827
973.671	-1149
973.755	-1715
973.840	-425
973.924	-906
974.009	-1270
974.093	-2170
974.178	-239
974.262	-846
974.346	-1626
974.431	-1089
974.515	-1882
974.600	-1125
974.684	-893
974.768	-1417
974.852	-287
974.937	-2144
975.021	-534
975.105	-1357
975.189	-1491
975.273	-818
975.358	-2185
975.442	-1843
975.526	-862
975.610	-2150
975.694	-2466
975.778	-788
975.862	-1601
975.946	-2284
976.030	-609
976.114	-2067
976.198	-764
976.281	-1377
976.365	-610
976.449	-1780
976.533	-1674
976.617	-2014
976.700	-1592
976.784	-748
976.868	-2085
976.951	-575
977.035	-1669
977.119	-831
977.202	-1626
977.286	-1667
977.369	-1828
977.453	-390
977.536	-1231
977.620	-2281
977.703	-897
977.787	-2441
977.870	-995
977.953	-679
978.037	-1998
978.120	-633
978.203	-1609
978.287	-653
978.370	-1107
978.453	-1367
978.536	-1596
978.620	-427
978.703	-781
978.786	-1040
978.869	-1845
978.952	-1689
979.035	-239
979.118	-1119
979.201	-1631
979.284	-1091
979.367	-1872
979.450	-704
979.533	-1345
979.616	-1427
979.699	-1578
979.782	-737
979.865	-777
979.948	-1869
980.030	-1792
980.113	-1232
980.196	-1922
980.279	-489
980.361	-1795
980.444	-1121
980.526	-1778
980.609	-1217
980.692	-1692
980.774	-845
980.857	-2349
980.939	-1401
981.022	-1392
981.104	-1275
981.187	-659
981.269	-286
981.352	-880
981.434	-2312
981.516	-1262
981.599	-445
981.681	-760
981.763	-1562
981.846	-1497
981.928	-1004
982.010	-2149
982.092	-702
982.174	-1057
982.256	-1804
982.339	-819
982.421	-1675
982.503	-1083
982.585	-1458
982.667	-954
982.749	-1198
982.831	-803
982.913	-2091
982.995	-432
983.077	-1751
983.158	-725
983.240	-1670
983.322	-612
983.404	-854
983.486	-2258
983.568	-1261
983.649	-1788
983.731	-373
983.813	-907
983.894	-1152
983.976	-1949
984.058	-1852
984.139	-841
984.221	-2393
984.302	203
984.384	-1582
984.465	-2487
984.547	-1214
984.628	-1889
984.710	-1118
984.791	-418
984.872	-1685
984.954	-1624
985.035	-1645
985.116	-2031
985.198	-1866
985.279	-298
985.360	-1388
985.441	-1480
985.522	-930
985.604	-1554
985.685	-3203
985.766	-342
985.847	-682
985.928	-2569
986.009	-1087
986.090	-791
986.171	-1186
986.252	-1060
986.333	-1890
986.414	-1047
986.495	-610
986.576	-1456
986.656	-1907
986.737	-826
986.818	-1196
986.899	-1912
986.980	-1863
987.060	-29
987.141	-2192
987.222	-1008
987.302	-1285
987.383	-228
987.464	-1366
987.544	-1202
987.625	-1039
987.705	-1052
987.786	-1324
987.866	-1787
987.947	-1572
988.027	-1241
988.108	-2184
988.188	-905
988.268	-1321
988.349	-1366
988.429	-135
988.509	-692
988.589	-927
988.670	-2353
988.750	-556
988.830	-1433
988.910	-1227
988.990	-1189
989.070	-797
989.151	-1756
989.231	-1809
989.311	-475
989.391	-992
989.471	-1224
989.551	-1665
989.631	-1634
989.711	-655
989.791	-1455
989.870	-2016
989.950	139
990.030	-1215
990.110	-810
990.190	-669
990.269	-1217
990.349	-1498
990.429	-1408
990.509	-671
990.588	-1874
990.668	-1119
990.747	-1571
990.827	-1195
990.907	-805
990.986	-1339
991.066	-1230
991.145	-1621
991.225	-1195
991.304	-633
991.383	-478
991.463	-1918
991.542	-1304
991.622	-1637
991.701	-1058
991.780	-1809
991.859	-1412
991.939	-1291
992.018	-1530
992.097	-1039
992.176	-1517
992.256	-955
992.335	-1362
992.414	-800
992.493	-986
992.572	-1204
992.651	-396
992.730	-1065
992.809	-279
992.888	-1751
992.967	-1440
993.046	-620
993.125	-1857
993.203	-1188
993.282	-799
993.361	-850
993.440	-1628
993.519	-1654
993.597	-767
993.676	-1910
993.755	-449
993.834	-1372
993.912	-2224
993.991	-536
994.069	-1579
994.148	-452
994.226	-1263
994.305	-929
994.384	-1162
994.462	-464
994.540	-1821
994.619	-1684
994.697	-241
994.776	-1404
994.854	-982
994.932	-1501
995.011	-1121
995.089	-1630
995.167	-332
995.245	-822
995.324	-1733
995.402	-97
995.480	-1053
995.558	-1174
995.636	-1006
995.714	-1160
995.792	-611
995.870	-1533
995.948	-1489
996.026	-899
996.104	-2548
996.182	-754
996.260	-1388
996.338	-749
996.416	-1937
996.494	-1126
996.572	-1128
996.649	-1115
996.727	-1591
996.805	-1015
996.883	-1605
996.960	-1830
997.038	-2045
997.116	-446
997.193	-1207
997.271	-388
997.348	-1765
997.426	-1486
997.504	-1943
997.581	-642
997.658	-731
997.736	-2079
997.813	-1431
997.891	-126
997.968	-2399
998.046	-634
998.123	-1315
998.200	-399
998.277	-1895
998.355	177
998.432	-2187
998.509	-1118
998.586	-972
998.663	-416
998.741	-1970
998.818	-650
998.895	-1151
998.972	-436
999.049	-289
999.126	-1238
999.203	-745
999.280	-2110
999.357	-2285
999.434	-1369
999.511	-1167
999.587	-848
999.664	-1602
999.741	-768
999.818	-817
999.895	-1411
999.971	-1991
1000.048	-1057
1000.125	-246
1000.202	-1712
1000.278	-1173
1000.355	-450
1000.431	-1656
1000.508	-1903
1000.584	-1353
1000.661	-1209
1000.738	-2681
1000.814	-1026
1000.890	-859
1000.967	-892
1001.043	-569
1001.120	-1861
1001.196	-1075
1001.272	-2696
1001.349	-1187
1001.425	-280
1001.501	-1593
1001.577	-1304
1001.654	-761
1001.730	-1039
1001.806	-1523
1001.882	-2180
1001.958	-1088
1002.034	-379
1002.110	-840
1002.186	-1731
1002.262	-1545
1002.338	-2016
1002.414	-1456
1002.490	-716
1002.566	-1592
1002.642	-1498
1002.718	-1157
1002.794	-879
1002.870	-1475
1002.945	-1692
1003.021	-1596
1003.097	-1164
1003.173	-765
1003.248	-1396
1003.324	-1201
1003.400	-1249
1003.475	-761
1003.551	-970
1003.626	-1653
1003.702	-1417
1003.777	-1180
1003.853	-658
1003.928	-1550
1004.004	-1425
1004.079	-745
1004.155	-1580
1004.230	-1300
1004.305	-773
1004.381	-1191
1004.456	-1070
1004.531	-1689
1004.607	-1606
1004.682	-1153
1004.757	-858
1004.832	-1137
1004.907	-1591
1004.982	-1675
1005.057	-1367
1005.133	-1647
1005.208	-946
1005.283	-1834
1005.358	-247
1005.433	-2154
1005.508	-864
1005.583	-1565
1005.657	-1142
1005.732	-971
1005.807	-1555
1005.882	-1365
1005.957	-1363
1006.032	-907
1006.106	-1497
1006.181	-1180
1006.256	-1420
1006.331	-841
1006.405	-1152
1006.480	-1043
1006.554	-1611
1006.629	-1381
1006.704	-1615
1006.778	-686
1006.853	-1248
1006.927	-855
1007.002	-1011
1007.076	-1158
1007.150	-1825
1007.225	-1350
1007.299	-987
1007.373	-1693
1007.448	-1137
1007.522	-87
1007.596	-1123
1007.671	-1464
1007.745	-665
1007.819	-1701
1007.893	-1282
1007.967	-290
1008.041	-1653
1008.115	-993
1008.190	-1369
1008.264	-471
1008.338	-2211
1008.412	-1627
1008.486	-1390
1008.560	-1526
1008.633	-1994
1008.707	-2140
1008.781	-761
1008.855	-1281
1008.929	-1292
1009.003	-1734
1009.076	-1246
1009.150	-1576
1009.224	-1605
1009.298	-971
1009.371	-1689
1009.445	-374
1009.519	-1607
1009.592	-1507
1009.666	-1427
1009.739	-1297
1009.813	-1646
1009.886	-776
1009.960	-2135
1010.033	-810
1010.107	-918
1010.180	-1757
1010.253	-986
1010.327	-2206
1010.400	-860
1010.473	-1661
1010.547	-281
1010.620	-1561
1010.693	-686
1010.766	-2048
1010.840	-482
1010.913	-651
1010.986	-1242
1011.059	-837
1011.132	-1189
1011.205	-1244
1011.278	-1328
1011.351	-1800
1011.424	-304
1011.497	-1827
1011.570	-877
1011.643	-1536
1011.716	-1005
1011.789	-1096
1011.862	-761
1011.934	-886
1012.007	-2040
1012.080	-1525
1012.153	-1124
1012.225	-421
1012.298	-1742
1012.371	-1211
1012.443	-816
1012.516	-2265
1012.588	-1317
1012.661	-1371
1012.733	-1869
1012.806	-642
1012.879	-1336
1012.951	-121
1013.023	-1809
1013.096	-2229
1013.168	-1794
1013.241	-1324
1013.313	-797
1013.385	-1821
1013.458	-1496
1013.530	-843
1013.602	-1497
1013.674	-994
1013.746	-1999
1013.819	-1369
1013.891	-874
1013.963	-2137
1014.035	-844
1014.107	-689
1014.179	-715
1014.251	-1947
1014.323	-493
1014.395	-865
1014.467	-1372
1014.539	-2080
1014.611	-1484
1014.683	-2009
1014.754	-1330
1014.826	-1841
1014.898	-1167
1014.970	-1705
1015.042	-437
1015.113	-1084
1015.185	-1495
1015.257	-1884
1015.328	-719
1015.400	-1606
1015.471	-1259
1015.543	-2460
1015.615	-2250
1015.686	-1609
1015.757	-1449
1015.829	-895
1015.901	-1043
1015.972	-1798
1016.043	-1422
1016.115	-637
1016.186	-1530
1016.257	-1437
1016.328	-751
1016.400	141
1016.471	-2189
1016.542	-1279
1016.613	-1437
1016.685	-1785
1016.756	-1371
1016.827	-1015
1016.898	-1704
1016.969	-233
1017.040	-1252
1017.111	-1351
1017.182	-1011
1017.253	-946
1017.324	-1490
1017.395	-1883
1017.466	-341
1017.537	-1019
1017.608	-970
1017.678	-1816
1017.749	-1461
1017.820	-985
1017.891	-1725
1017.961	-1715
1018.032	-1541
1018.103	-1040
1018.173	-1195
1018.244	-344
1018.315	-1685
1018.385	-1260
1018.456	-1616
1018.526	-2540
1018.597	-1826
1018.667	-1189
1018.738	-2197
1018.808	-1492
1018.878	-1952
1018.949	-1776
1019.019	-926
1019.089	-1483
1019.160	-670
1019.230	-1359
1019.300	-843
1019.371	-2511
1019.441	-1706
1019.511	-1082
1019.581	-913
1019.651	-901
1019.721	-1681
1019.791	-1221
1019.861	-2140
1019.931	-1435
1020.001	-1311
1020.071	-1293
1020.141	-1519
1020.211	-1091
1020.281	-1706
1020.351	-1616
1020.421	-990
1020.491	-1143
1020.560	-1573
1020.630	-1637
1020.700	-1103
1020.770	-1387
1020.839	-1773
1020.909	-1239
1020.979	-1660
1021.048	-1483
1021.118	-1365
1021.187	-1025
1021.257	-1814
1021.326	-870
1021.396	-2310
1021.465	-2266
1021.535	-1233
1021.604	-2439
1021.674	-1311
1021.743	-1436
1021.812	-1662
1021.882	-1671
1021.951	-1556
1022.020	-1249
1022.089	-1474
1022.159	-2037
1022.228	-2707
1022.297	-1696
1022.366	-891
1022.435	-1664
1022.504	-1572
1022.573	-2064
1022.642	-1781
1022.711	-1529
1022.781	-1850
1022.849	-1679
1022.918	-1420
1022.987	-1782
1023.056	-1562
1023.125	-1931
1023.194	-1610
1023.263	-1165
1023.331	-1712
1023.400	-1614
1023.469	-1757
1023.538	-855
1023.606	-2294
1023.675	-1659
1023.744	-1833
1023.812	-1618
1023.881	-1663
1023.949	-1533
1024.018	-1435
1024.086	-1859
1024.155	-1860
1024.223	-1889
1024.292	-1963
1024.360	-2596
1024.429	-1662
1024.497	-1812
1024.565	-1524
1024.634	-775
1024.702	-1491
1024.770	-1017
1024.838	-2580
1024.907	-1484
1024.975	-1439
1025.043	-1723
1025.111	-2117
1025.179	-1542
1025.247	-1961
1025.315	-1714
1025.383	-1575
1025.451	-1610
1025.519	-1610
1025.587	-1706
1025.655	-1460
1025.723	-1692
1025.791	-1593
1025.859	-1740
1025.927	-826
1025.995	-1537
1026.062	-1611
1026.130	-973
1026.198	-1378
1026.266	-2199
1026.333	-1696
1026.401	-1191
1026.469	-2431
1026.536	-1271
1026.604	-1654
1026.671	-1909
1026.739	-1757
1026.806	-1777
1026.874	-1980
1026.941	-1933
1027.009	-2539
1027.076	-2339
1027.144	-1457
1027.211	-2342
1027.278	-1214
1027.345	-1156
1027.413	-1717
1027.480	-2432
1027.547	-2302
1027.614	-1331
1027.682	-1570
1027.749	-1120
1027.816	-1644
1027.883	-1867
1027.950	-2003
1028.017	-1967
1028.084	-2182
1028.151	-2858
1028.218	-1693
1028.285	-1723
1028.352	-1864
1028.419	-2108
1028.486	-2127
1028.553	-1693
1028.619	-2601
1028.686	-1411
1028.753	-1964
1028.820	-2383
1028.886	-1344
1028.953	-1774
1029.020	-2023
1029.086	-2180
1029.153	-1931
1029.220	-1784
1029.286	-2542
1029.353	-2213
1029.419	-1990
1029.486	-2157
1029.552	-2156
1029.619	-1807
1029.685	-1445
1029.751	-1919
1029.818	-1235
1029.884	-1425
1029.951	-777
1030.017	-2243
1030.083	-1832
1030.149	-2038
1030.216	-2186
1030.282	-1790
1030.348	-2190
1030.414	-2128
1030.480	-1985
1030.546	-2280
1030.612	-1184
1030.678	-2445
1030.744	-1935
1030.810	-2142
1030.876	-1917
1030.942	-2169
1031.008	-2490
1031.074	-2215
1031.140	-2187
1031.206	-1943
1031.272	-1619
1031.337	-1978
1031.403	-1979
1031.469	-1966
1031.534	-1656
1031.600	-1827
1031.666	-2080
1031.731	-2082
1031.797	-2717
1031.863	-2188
1031.928	-1838
1031.994	-1534
1032.059	-1265
1032.125	-2676
1032.190	-2752
1032.256	-1810
1032.321	-1603
1032.386	-1458
1032.452	-1733
1032.517	-2156
1032.582	-1881
1032.647	-1937
1032.713	-2805
1032.778	-2503
1032.843	-1721
1032.908	-2699
1032.974	-1763
1033.039	-1902
1033.104	-1699
1033.169	-2222
1033.234	-1881
1033.299	-1634
1033.364	-2453
1033.429	-2553
1033.494	-1728
1033.559	-2324
1033.624	-2409
1033.688	-2061
1033.753	-2428
1033.818	-1866
1033.883	-2220
1033.948	-1617
1034.013	-2630
1034.077	-2076
1034.142	-2034
1034.207	-2236
1034.271	-1561
1034.336	-2082
1034.400	-1301
1034.465	-1829
1034.530	-2177
1034.594	-1699
1034.658	-1832
1034.723	-2631
1034.787	-1660
1034.852	-2484
1034.916	-1917
1034.981	-2241
1035.045	-2775
1035.109	-1955
1035.173	-1405
1035.238	-2243
1035.302	-1694
1035.366	-1997
1035.430	-2147
1035.495	-1722
1035.559	-1538
1035.623	-1468
1035.687	-2000
1035.751	-2224
1035.815	-1618
1035.879	-2248
1035.943	-1206
1036.007	-2202
1036.071	-1680
1036.135	-2734
1036.198	-2354
1036.262	-2324
1036.326	-2035
1036.390	-3313
1036.454	-2108
1036.517	-2364
1036.581	-1893
1036.645	-2168
1036.709	-2262
1036.772	-1700
1036.836	-1689
1036.900	-1878
1036.963	-1898
1037.026	-1439
1037.090	-2651
1037.154	-2112
1037.217	-2831
1037.280	-1984
1037.344	-1963
1037.407	-2936
1037.471	-1667
1037.534	-1904
1037.597	-1985
1037.661	-2586
1037.724	-1904
1037.787	-1245
1037.850	-1491
1037.913	-2739
1037.977	-1713
1038.040	-2066
1038.103	-1705
1038.166	-1915
1038.229	-1424
1038.292	-2346
1038.355	-2157
1038.418	-2040
1038.481	-1730
1038.544	-2478
1038.607	-2145
1038.670	-2499
1038.732	-2260
1038.795	-2183
1038.858	-2000
1038.921	-1895
1038.984	-1730
1039.046	-2529
1039.109	-2571
1039.172	-1526
1039.234	-3024
1039.297	-1255
1039.360	-2103
1039.422	-2425
1039.485	-1697
1039.547	-2290
1039.610	-757
1039.672	-1907
1039.734	-2249
1039.797	-2242
1039.859	-1581
1039.922	-1621
1039.984	-2338
1040.046	-2039
1040.109	-2041
1040.171	-2400
1040.233	-2370
1040.295	-1301
1040.358	-2568
1040.420	-2141
1040.482	-1831
1040.544	-1824
1040.606	-2422
1040.668	-2192
1040.730	-1718
1040.792	-1937
1040.854	-2009
1040.916	-1821
1040.978	-2171
1041.040	-1582
1041.102	-1906
1041.164	-2135
1041.225	-2217
1041.287	-2540
1041.349	-1805
1041.411	-2084
1041.472	-1549
1041.534	-2348
1041.596	-2552
1041.657	-2228
1041.719	-1259
1041.781	-2261
1041.842	-1469
1041.904	-1648
1041.965	-2192
1042.027	-1379
1042.088	-2487
1042.150	-1995
1042.211	-2500
1042.272	-1597
1042.334	-2645
1042.395	-1855
1042.456	-1932
1042.518	-2616
1042.579	-1650
1042.640	-1624
1042.701	-2363
1042.763	-2197
1042.824	-2020
1042.885	-1837
1042.946	-2209
1043.007	-2287
1043.068	-2076
1043.129	-1747
1043.190	-2252
1043.251	-1289
1043.312	-2220
1043.373	-1602
1043.434	-1850
1043.495	-2211
1043.556	-1830
1043.616	-1506
1043.677	-2373
1043.738	-1879
1043.799	-2228
1043.859	-2065
1043.920	-1804
1043.981	-2428
1044.041	-1936
1044.102	-3009
1044.162	-1403
1044.223	-2092
1044.284	-1419
1044.344	-2235
1044.405	-1692
1044.465	-2508
1044.525	-1986
1044.586	-2309
1044.646	-2228
1044.707	-1042
1044.767	-1100
1044.827	-1213
1044.887	-1207
1044.948	-1690
1045.008	-1889
1045.068	-1613
1045.128	-1867
1045.188	-1616
1045.249	-1252
1045.309	-2136
1045.369	-1978
1045.429	-2363
1045.489	-1824
1045.549	-2332
1045.609	-1441
1045.669	-1990
1045.729	-1909
1045.789	-1607
1045.848	-1532
1045.908	-1567
1045.968	-1713
1046.028	-1490
1046.088	-1198
1046.147	-815
1046.207	-1616
1046.267	-2314
1046.326	-1687
1046.386	-2578
1046.446	-1012
1046.505	-1973
1046.565	-806
1046.624	-1391
1046.684	-1393
1046.743	-879
1046.803	-543
1046.862	-758
1046.922	0
