'Start Wavelength	183.907
'End Wavelength	1046.922
'Gate Delay	5.000
'Gate Width (ms)	1.050
'Laser Output Level	0.000
'X Position	0.000
'Y Position	0.000
'Z Position	0.000
'Grid Point Number	1.000
'Shot Number	100.000
183.907	1211.000
183.977	-159.000
184.047	788
184.116	522
184.186	726
184.256	589
184.325	467
184.395	136
184.465	1366
184.534	306
184.604	-847
184.674	677
184.743	-281
184.813	463
184.883	809
184.952	874
185.022	527
185.092	389
185.161	-210
185.231	-481
185.301	123
185.370	1532
185.440	549
185.509	594
185.579	-112
185.649	814
185.718	162
185.788	696
185.857	570
185.927	25
185.996	-454
186.066	-4
186.136	-174
186.205	432
186.275	20
186.344	-177
186.414	-641
186.483	268
186.553	1443
186.622	409
186.692	243
186.761	629
186.831	279
186.900	231
186.970	611
187.039	-174
187.109	267
187.178	306
187.248	319
187.317	577
187.387	259
187.456	22
187.526	253
187.595	699
187.664	-650
187.734	305
187.803	107
187.873	-50
187.942	304
188.012	245
188.081	105
188.150	-109
188.220	212
188.289	1
188.358	269
188.428	449
188.497	-83
188.567	936
188.636	-155
188.705	392
188.775	-36
188.844	-479
188.913	488
188.983	266
189.052	537
189.121	223
189.191	117
189.260	5
189.329	485
189.399	485
189.468	586
189.537	-127
189.606	-64
189.676	1038
189.745	854
189.814	1103
189.883	351
189.953	32
190.022	211
190.091	644
190.161	405
190.230	856
190.299	53
190.368	-287
190.437	-123
190.507	561
190.576	215
190.645	318
190.714	-96
190.783	45
190.853	907
190.922	407
190.991	60
191.060	1563
191.129	-608
191.198	1309
191.268	-204
191.337	212
191.406	98
191.475	475
191.544	89
191.613	-20
191.682	280
191.752	722
191.821	144
191.890	801
191.959	-300
192.028	197
192.097	771
192.166	646
192.235	402
192.304	437
192.373	-64
192.442	-100
192.511	288
192.580	465
192.650	272
192.719	656
192.788	234
192.857	837
192.926	222
192.995	750
193.064	452
193.133	335
193.202	-148
193.271	772
193.340	-303
193.409	978
193.478	109
193.547	140
193.615	455
193.684	169
193.753	268
193.822	685
193.891	779
193.960	567
194.029	-208
194.098	194
194.167	43
194.236	1139
194.305	718
194.374	20
194.443	905
194.512	317
194.580	144
194.649	822
194.718	-165
194.787	-189
194.856	-557
194.925	377
194.994	174
195.062	816
195.131	-316
195.200	-391
195.269	579
195.338	437
195.407	825
195.475	278
195.544	462
195.613	164
195.682	335
195.751	-534
195.819	379
195.888	300
195.957	947
196.026	76
196.094	105
196.163	-252
196.232	801
196.301	-2
196.369	-338
196.438	909
196.507	808
196.576	-148
196.644	924
196.713	56
196.782	-704
196.850	828
196.919	-51
196.988	-188
197.056	-232
197.125	268
197.194	548
197.262	323
197.331	316
197.400	550
197.468	-14
197.537	-102
197.606	542
197.674	1264
197.743	238
197.812	-388
197.880	-157
197.949	117
198.017	297
198.086	205
198.155	774
198.223	447
198.292	-259
198.360	-277
198.429	458
198.497	-47
198.566	-513
198.635	314
198.703	555
198.772	148
198.840	1339
198.909	893
198.977	312
199.046	-659
199.114	259
199.183	-113
199.251	457
199.320	-283
199.388	260
199.457	-310
199.525	-114
199.594	-655
199.662	242
199.731	-71
199.799	51
199.867	174
199.936	-934
200.004	661
200.073	681
200.141	-503
200.210	-413
200.278	242
200.346	76
200.415	701
200.483	-347
200.552	-11
200.620	-77
200.688	278
200.757	153
200.825	341
200.893	-216
200.962	228
201.030	496
201.098	250
201.167	583
201.235	-422
201.303	-55
201.372	295
201.440	-154
201.508	-77
201.577	-228
201.645	-32
201.713	-95
201.781	-218
201.850	-116
201.918	543
201.986	-1020
202.055	860
202.123	-239
202.191	-688
202.259	-257
202.327	-465
202.396	195
202.464	358
202.532	-124
202.600	415
202.669	-606
202.737	-383
202.805	-694
202.873	-907
202.941	-125
203.009	-17
203.078	-418
203.146	147
203.214	-293
203.282	-885
203.350	-851
203.418	-107
203.487	509
203.555	715
203.623	-513
203.691	-355
203.759	-1034
203.827	-419
203.895	-332
203.963	250
204.031	-288
204.099	-877
204.168	-429
204.236	314
204.304	-928
204.372	-46
204.440	433
204.508	-242
204.576	-1174
204.644	-121
204.712	-661
204.780	24
204.848	-167
204.916	-541
204.984	361
205.052	391
205.120	-391
205.188	-623
205.256	262
205.324	-83
205.392	106
205.460	159
205.528	-524
205.596	232
205.664	800
205.732	-319
205.799	-224
205.867	576
205.935	-992
206.003	681
206.071	-443
206.139	189
206.207	76
206.275	-41
206.343	-7
206.411	165
206.478	-88
206.546	763
206.614	-239
206.682	-555
206.750	-42
206.818	45
206.885	468
206.953	-1018
207.021	890
207.089	221
207.157	-2
207.225	188
207.292	-79
207.360	47
207.428	-216
207.496	-160
207.563	-162
207.631	-264
207.699	-912
207.767	-115
207.834	-23
207.902	-54
207.970	-176
208.038	-89
208.105	139
208.173	262
208.241	156
208.309	147
208.376	60
208.444	-559
208.512	-610
208.579	-1286
208.647	329
208.715	393
208.782	167
208.850	-40
208.918	-861
208.985	-218
209.053	488
209.120	203
209.188	-129
209.256	-328
209.323	-1382
209.391	-391
209.459	712
209.526	385
209.594	-10
209.661	-439
209.729	14
209.796	969
209.864	153
209.932	-746
209.999	534
210.067	265
210.134	929
210.202	52
210.269	758
210.337	-332
210.404	627
210.472	228
210.539	193
210.607	57
210.674	-174
210.742	493
210.809	350
210.877	323
210.944	157
211.012	-688
211.079	1756
211.146	-134
211.214	-158
211.281	170
211.349	289
211.416	157
211.484	790
211.551	-207
211.618	-74
211.686	1003
211.753	-628
211.821	900
211.888	-138
211.955	-325
212.023	-40
212.090	165
212.157	837
212.225	-185
212.292	616
212.359	1160
212.427	1933
212.494	889
212.561	394
212.629	224
212.696	71
212.763	109
212.831	-564
212.898	854
212.965	-129
213.032	361
213.100	-24
213.167	324
213.234	352
213.301	1063
213.369	194
213.436	184
213.503	-81
213.570	-204
213.638	95
213.705	-126
213.772	-244
213.839	-462
213.906	949
213.973	-648
214.041	3
214.108	998
214.175	-115
214.242	-420
214.309	-125
214.376	634
214.444	-361
214.511	98
214.578	-475
214.645	512
214.712	-88
214.779	104
214.846	-135
214.913	513
214.980	717
215.048	201
215.115	144
215.182	-10
215.249	-553
215.316	-306
215.383	418
215.450	355
215.517	24
215.584	184
215.651	440
215.718	254
215.785	658
215.852	-64
215.919	656
215.986	-254
216.053	764
216.120	-352
216.187	371
216.254	598
216.321	308
216.388	-360
216.455	-428
216.522	1149
216.589	358
216.656	490
216.722	323
216.789	25
216.856	-265
216.923	-59
216.990	473
217.057	-125
217.124	180
217.191	349
217.258	457
217.324	-193
217.391	-95
217.458	-499
217.525	-229
217.592	377
217.659	-820
217.725	1311
217.792	3
217.859	1308
217.926	-101
217.993	180
218.059	793
218.126	677
218.193	75
218.260	-646
218.327	90
218.393	-123
218.460	-647
218.527	-417
218.594	318
218.660	-343
218.727	1233
218.794	-142
218.860	685
218.927	-475
218.994	-209
219.061	-665
219.127	-160
219.194	195
219.261	135
219.327	35
219.394	765
219.461	-664
219.527	792
219.594	477
219.661	-438
219.727	-260
219.794	274
219.860	-357
219.927	-52
219.994	-204
220.060	480
220.127	637
220.193	285
220.260	125
220.326	557
220.393	53
220.460	-364
220.526	-695
220.593	-404
220.659	1839
220.726	-353
220.792	1324
220.859	597
220.925	540
220.992	262
221.058	501
221.125	1831
221.191	1695
221.258	-498
221.324	448
221.391	355
221.457	185
221.524	-216
221.590	404
221.657	1974
221.723	412
221.789	1105
221.856	893
221.922	-838
221.989	735
222.055	246
222.121	-1438
222.188	1129
222.254	-91
222.321	173
222.387	24
222.453	-145
222.520	295
222.586	-226
222.652	936
222.719	46
222.785	154
222.851	-277
222.918	512
222.984	-765
223.050	-22
223.116	-1458
223.183	943
223.249	-326
223.315	-94
223.382	-35
223.448	299
223.514	-828
223.580	-451
223.647	-493
223.713	-574
223.779	-460
223.845	40
223.911	-29
223.978	-407
224.044	435
224.110	-674
224.176	-250
224.242	-55
224.309	-854
224.375	473
224.441	188
224.507	-614
224.573	-675
224.639	217
224.705	139
224.772	277
224.838	-293
224.904	674
224.970	221
225.036	-239
225.102	111
225.168	-43
225.234	-274
225.300	404
225.366	196
225.432	-498
225.499	16
225.565	266
225.631	-572
225.697	-339
225.763	77
225.829	46
225.895	168
225.961	477
226.027	-431
226.093	-294
226.159	2344
226.225	607
226.291	47
226.357	1572
226.423	427
226.489	439
226.554	188
226.620	493
226.686	344
226.752	540
226.818	722
226.884	1541
226.950	1303
227.016	741
227.082	581
227.148	554
227.214	456
227.279	239
227.345	416
227.411	287
227.477	-10
227.543	77
227.609	-384
227.674	749
227.740	-322
227.806	443
227.872	-85
227.938	11
228.003	607
228.069	21
228.135	-744
228.201	57
228.267	-316
228.332	-612
228.398	-1476
228.464	-114
228.530	39
228.595	244
228.661	-606
228.727	-383
228.792	723
228.858	-392
228.924	-1536
228.990	1422
229.055	-766
229.121	104
229.187	396
229.252	-160
229.318	-541
229.384	78
229.449	-275
229.515	-763
229.581	-952
229.646	1019
229.712	-322
229.777	-245
229.843	-948
229.909	357
229.974	1100
230.040	511
230.105	227
230.171	-367
230.236	-48
230.302	743
230.368	-406
230.433	-804
230.499	237
230.564	777
230.630	-535
230.695	-459
230.761	960
230.826	-1323
230.892	756
230.957	-439
231.023	-767
231.088	-31
231.154	-538
231.219	674
231.284	-24
231.350	720
231.415	-1054
231.481	802
231.546	-605
231.612	446
231.677	-130
231.742	-465
231.808	520
231.873	-579
231.939	-2035
232.004	580
232.069	790
232.135	-221
232.200	-254
232.265	301
232.331	-384
232.396	212
232.461	-333
232.527	-44
232.592	-854
232.657	324
232.723	-338
232.788	-275
232.853	313
232.918	-335
232.984	-742
233.049	-1271
233.114	-409
233.179	173
233.245	563
233.310	668
233.375	-917
233.440	21
233.506	-122
233.571	-405
233.636	-561
233.701	88
233.766	-192
233.832	757
233.897	-207
233.962	-327
234.027	1047
234.092	846
234.157	-443
234.222	-144
234.288	-138
234.353	818
234.418	1124
234.483	795
234.548	353
234.613	144
234.678	-163
234.743	-1192
234.808	1015
234.873	-259
234.938	1157
235.004	-515
235.069	-287
235.134	-167
235.199	518
235.264	363
235.329	-1900
235.394	458
235.459	817
235.524	200
235.589	327
235.654	220
235.719	-1909
235.784	1014
235.849	873
235.913	640
235.978	462
236.043	831
236.108	41
236.173	-560
236.238	1202
236.303	17
236.368	236
236.433	443
236.498	-515
236.563	643
236.627	-212
236.692	2875
236.757	2262
236.822	1639
236.887	-253
236.952	965
237.017	-342
237.081	1810
237.146	-1118
237.211	1822
237.276	2574
237.341	4968
237.405	981
237.470	581
237.535	840
237.600	407
237.664	1088
237.729	-1127
237.794	-967
237.859	698
237.923	697
237.988	518
238.053	1124
238.118	543
238.182	1174
238.247	3142
238.312	35
238.376	1012
238.441	-1950
238.506	1254
238.570	-902
238.635	2123
238.700	51
238.764	-861
238.829	916
238.893	-686
238.958	685
239.023	-221
239.087	-4
239.152	42
239.216	-171
239.281	853
239.346	101
239.410	878
239.475	-561
239.539	1729
239.604	993
239.668	477
239.733	-215
239.797	165
239.862	505
239.926	678
239.991	773
240.055	52
240.120	-186
240.184	482
240.249	-566
240.313	-470
240.378	-235
240.442	338
240.507	1889
240.571	252
240.635	77
240.700	530
240.764	-262
240.829	68
240.893	-817
240.957	735
241.022	1282
241.086	2039
241.151	-567
241.215	-583
241.279	1591
241.344	-194
241.408	649
241.472	-152
241.537	891
241.601	432
241.665	-541
241.730	-891
241.794	962
241.858	-59
241.922	328
241.987	220
242.051	-472
242.115	-612
242.179	-79
242.244	-104
242.308	566
242.372	136
242.436	-397
242.501	-193
242.565	-543
242.629	-686
242.693	965
242.757	-606
242.822	-695
242.886	172
242.950	284
243.014	-382
243.078	-364
243.142	91
243.206	-783
243.271	-99
243.335	-242
243.399	1367
243.463	1218
243.527	5467
243.591	1646
243.655	605
243.719	-1431
243.783	804
243.847	52
243.911	582
243.975	-522
244.040	-690
244.104	2535
244.168	-156
244.232	-560
244.296	482
244.360	1227
244.424	-402
244.488	-267
244.552	904
244.615	-888
244.679	-32
244.743	-478
244.807	-1341
244.871	592
244.935	46
244.999	-850
245.063	-392
245.127	651
245.191	1291
245.255	152
245.319	-602
245.383	-1267
245.446	587
245.510	-922
245.574	125
245.638	1205
245.702	-982
245.766	502
245.829	1243
245.893	-1362
245.957	-512
246.021	257
246.085	-352
246.149	-181
246.212	1042
246.276	-377
246.340	-811
246.404	924
246.467	753
246.531	-2294
246.595	930
246.659	939
246.722	-2054
246.786	75
246.850	832
246.913	-669
246.977	-803
247.041	-261
247.104	-437
247.168	412
247.232	115
247.295	1831
247.359	1077
247.423	-209
247.486	-475
247.550	822
247.614	154
247.677	320
247.741	193
247.804	-365
247.868	859
247.932	362
247.995	2439
248.059	-639
248.122	-1
248.186	1452
248.249	206
248.313	3618
248.376	4207
248.440	1000
248.503	-717
248.567	1840
248.630	209
248.694	289
248.757	2862
248.821	3021
248.884	2451
248.948	302
249.011	2658
249.075	4144
249.138	3866
249.202	1616
249.265	986
249.328	1204
249.392	-545
249.455	1399
249.519	562
249.582	204
249.645	1706
249.709	312
249.772	634
249.835	1467
249.899	912
249.962	874
250.025	284
250.089	1207
250.152	2817
250.215	939
250.279	721
250.342	1575
250.405	1810
250.468	1248
250.532	1973
250.595	2979
250.658	6317
250.721	13181
250.785	3446
250.848	3286
250.911	1483
250.974	2464
251.038	1468
251.101	3067
251.164	2527
251.227	2072
251.290	2463
251.354	2519
251.417	10606
251.480	10792
251.543	6544
251.606	20198
251.669	14511
251.732	5589
251.795	4298
251.859	5674
251.922	12567
251.985	8064
252.048	3386
252.111	3381
252.174	1066
252.237	3056
252.300	6017
252.363	5403
252.426	16195
252.489	5887
252.552	4270
252.615	2569
252.678	2997
252.741	4183
252.804	6631
252.867	16624
252.930	8030
252.993	3909
253.056	2986
253.119	2618
253.182	2215
253.245	1930
253.308	2623
253.371	1221
253.434	2181
253.497	2145
253.559	3251
253.622	2065
253.685	1191
253.748	902
253.811	1482
253.874	1513
253.937	268
254.000	707
254.062	1191
254.125	1662
254.188	2715
254.251	1438
254.314	844
254.376	149
254.439	605
254.502	869
254.565	1145
254.628	2751
254.690	678
254.753	-149
254.816	684
254.878	-149
254.941	1305
255.004	1189
255.067	937
255.129	-164
255.192	180
255.255	-713
255.317	307
255.380	234
255.443	-637
255.505	-37
255.568	-727
255.631	574
255.693	49
255.756	29
255.819	1372
255.881	-692
255.944	307
256.006	-99
256.069	118
256.132	-171
256.194	202
256.257	116
256.319	813
256.382	-226
256.444	1299
256.507	286
256.569	-412
256.632	-193
256.694	-386
256.757	1585
256.819	4013
256.882	213
256.944	152
257.007	292
257.069	205
257.132	477
257.194	1635
257.257	40
257.319	-497
257.381	108
257.444	867
257.506	3575
257.569	4334
257.631	2429
257.693	341
257.756	-263
257.818	344
257.880	-288
257.943	635
258.005	-1473
258.067	-373
258.130	-48
258.192	257
258.254	142
258.317	144
258.379	720
258.441	-503
258.503	410
258.566	410
258.628	2488
258.690	-705
258.753	582
258.815	158
258.877	233
258.939	75
259.001	237
259.064	-35
259.126	88
259.188	-218
259.250	-14
259.312	221
259.375	362
259.437	752
259.499	408
259.561	647
259.623	-190
259.685	-181
259.747	542
259.809	1136
259.872	2333
259.934	4215
259.996	4340
260.058	1416
260.120	-389
260.182	631
260.244	387
260.306	-160
260.368	-118
260.430	-687
260.492	946
260.554	1562
260.616	264
260.678	1028
260.740	1109
260.802	-315
260.864	98
260.926	-64
260.988	299
261.050	324
261.112	-164
261.174	3503
261.236	1455
261.298	-50
261.359	1385
261.421	2524
261.483	-1157
261.545	1248
261.607	-1630
261.669	252
261.731	118
261.793	891
261.854	-713
261.916	-61
261.978	184
262.040	95
262.102	290
262.164	-568
262.225	125
262.287	-394
262.349	-207
262.411	-103
262.472	847
262.534	-337
262.596	922
262.658	-299
262.719	-1041
262.781	1126
262.843	42
262.904	188
262.966	157
263.028	290
263.090	2317
263.151	7182
263.213	1670
263.275	458
263.336	144
263.398	183
263.459	-912
263.521	123
263.583	293
263.644	-635
263.706	78
263.767	-1447
263.829	-166
263.891	205
263.952	-422
264.014	-217
264.075	-337
264.137	1909
264.198	-6
264.260	-674
264.321	156
264.383	-283
264.444	2670
264.506	114
264.567	-483
264.629	1346
264.690	873
264.752	788
264.813	-73
264.875	158
264.936	415
264.998	-96
265.059	-736
265.120	-109
265.182	-198
265.243	510
265.305	936
265.366	-118
265.427	-329
265.489	226
265.550	-1312
265.611	-1032
265.673	-844
265.734	410
265.795	-81
265.857	-685
265.918	-1325
265.979	801
266.040	2112
266.102	1596
266.163	590
266.224	-40
266.286	38
266.347	-810
266.408	-385
266.469	99
266.530	-831
266.592	-899
266.653	-810
266.714	-549
266.775	-10
266.836	515
266.898	-957
266.959	-606
267.020	-1025
267.081	-59
267.142	-354
267.203	-1382
267.264	-906
267.326	139
267.387	-1234
267.448	-546
267.509	-736
267.570	-365
267.631	-515
267.692	-1307
267.753	-30
267.814	-1164
267.875	-298
267.936	-563
267.997	-220
268.058	-689
268.119	-928
268.180	-624
268.241	-757
268.302	-913
268.363	-1237
268.424	-639
268.485	-635
268.546	-882
268.607	-504
268.668	-914
268.729	-253
268.790	-589
268.851	132
268.912	-136
268.972	-1066
269.033	-1156
269.094	-1080
269.155	-392
269.216	-396
269.277	-616
269.338	-431
269.398	-90
269.459	-1162
269.520	-135
269.581	-601
269.642	-948
269.702	-348
269.763	-1297
269.824	-849
269.885	-604
269.945	-1158
270.006	-582
270.067	-928
270.128	-364
270.188	-605
270.249	-1236
270.310	-1430
270.370	529
270.431	-1199
270.492	-1127
270.553	-745
270.613	-305
270.674	-78
270.734	-655
270.795	-787
270.856	-849
270.916	-910
270.977	-165
271.038	-264
271.098	-731
271.159	-222
271.219	-1035
271.280	-962
271.340	-280
271.401	-601
271.462	-153
271.522	-638
271.583	-89
271.643	-1
271.704	-897
271.764	-422
271.825	290
271.885	1689
271.946	5549
272.006	872
272.066	1597
272.127	3837
272.187	620
272.248	-466
272.308	265
272.369	1718
272.429	1764
272.489	460
272.550	-104
272.610	652
272.671	-643
272.731	149
272.791	714
272.852	-339
272.912	125
272.972	-761
273.033	-758
273.093	-586
273.153	678
273.214	163
273.274	304
273.334	1173
273.394	3705
273.455	113
273.515	319
273.575	1146
273.635	151
273.696	1399
273.756	2981
273.816	810
273.876	573
273.936	785
273.997	3934
274.057	476
274.117	499
274.177	-453
274.237	3507
274.297	5710
274.358	1842
274.418	1582
274.478	1994
274.538	-282
274.598	-419
274.658	2540
274.718	3245
274.778	836
274.838	743
274.898	542
274.958	5351
275.018	4231
275.078	2734
275.138	776
275.198	245
275.258	-509
275.318	387
275.378	672
275.438	587
275.498	360
275.558	1354
275.618	4358
275.678	2064
275.738	282
275.798	897
275.858	607
275.918	-848
275.978	-533
276.038	-266
276.098	-198
276.157	4
276.217	790
276.277	574
276.337	-515
276.397	-449
276.457	-354
276.517	313
276.576	-686
276.636	-186
276.696	-72
276.756	611
276.815	-64
276.875	-259
276.935	-208
276.995	-957
277.055	-749
277.114	-478
277.174	432
277.234	901
277.293	-109
277.353	-802
277.413	525
277.472	544
277.532	-1069
277.592	-693
277.651	-120
277.711	1150
277.771	-461
277.830	2175
277.890	1844
277.950	907
278.009	4450
278.069	1914
278.128	1653
278.188	2196
278.248	102
278.307	1412
278.367	1415
278.426	103
278.486	114
278.545	-269
278.605	60
278.664	185
278.724	-83
278.783	1350
278.843	5278
278.902	1499
278.962	-357
279.021	336
279.081	323
279.140	762
279.199	55
279.259	233
279.318	688
279.378	1901
279.437	2067
279.496	9175
279.556	33327
279.615	36180
279.675	7122
279.734	3918
279.793	2979
279.853	8873
279.912	3894
279.971	1248
280.031	1325
280.090	2593
280.149	6468
280.208	4225
280.268	22612
280.327	33809
280.386	5719
280.445	2148
280.505	2356
280.564	1791
280.623	1329
280.682	1319
280.742	1103
280.801	532
280.860	157
280.919	138
280.978	-140
281.037	704
281.097	0
281.156	-20
281.215	-165
281.274	560
281.333	2251
281.392	2428
281.451	-181
281.510	589
281.569	104
281.628	280
281.688	-287
281.747	571
281.806	584
281.865	1063
281.924	-694
281.983	-136
282.042	-151
282.101	-418
282.160	47
282.219	-918
282.278	-291
282.337	224
282.396	327
282.454	411
282.513	118
282.572	1457
282.631	812
282.690	202
282.749	-80
282.808	535
282.867	479
282.926	374
282.985	-345
283.043	-344
283.102	-989
283.161	-5
283.220	1830
283.279	4093
283.338	1323
283.396	-109
283.455	-204
283.514	-80
283.573	1052
283.631	-64
283.690	-272
283.749	-611
283.808	-127
283.866	107
283.925	-732
283.984	995
284.043	-386
284.101	46
284.160	432
284.219	3909
284.277	1303
284.336	422
284.395	2568
284.453	2443
284.512	629
284.570	-195
284.629	431
284.688	170
284.746	300
284.805	418
284.863	464
284.922	905
284.981	1029
285.039	2544
285.098	4014
285.156	10168
285.215	48038
285.273	63403
285.332	17910
285.390	6539
285.449	3252
285.507	2010
285.566	1756
285.624	1849
285.683	1276
285.741	883
285.799	944
285.858	1564
285.916	841
285.975	222
286.033	260
286.091	326
286.150	195
286.208	334
286.267	2554
286.325	1125
286.383	-20
286.442	476
286.500	-363
286.558	-252
286.616	277
286.675	-50
286.733	384
286.791	-145
286.850	316
286.908	1176
286.966	881
287.024	1288
287.083	10
287.141	-187
287.199	187
287.257	161
287.315	807
287.374	38
287.432	1530
287.490	1353
287.548	945
287.606	775
287.664	1137
287.723	2121
287.781	5193
287.839	3165
287.897	3428
287.955	3218
288.013	5879
288.071	10773
288.129	35259
288.187	139227
288.245	78763
288.303	20977
288.361	10537
288.419	8627
288.477	7326
288.535	4248
288.593	3109
288.651	2616
288.709	1778
288.767	1649
288.825	1130
288.883	1556
288.941	1949
288.999	1505
289.057	247
289.115	1615
289.173	1836
289.231	664
289.289	781
289.346	816
289.404	574
289.462	1125
289.520	765
289.578	977
289.636	705
289.694	181
289.751	-890
289.809	350
289.867	325
289.925	1445
289.983	-189
290.040	-117
290.098	615
290.156	-45
290.214	-63
290.271	-714
290.329	568
290.387	-165
290.444	-204
290.502	-134
290.560	-105
290.617	1187
290.675	493
290.733	-211
290.790	700
290.848	656
290.906	1019
290.963	1005
291.021	758
291.078	674
291.136	555
291.194	3156
291.251	10280
291.309	4197
291.366	545
291.424	479
291.481	359
291.539	-898
291.596	360
291.654	657
291.711	271
291.769	123
291.826	89
291.884	94
291.941	-578
291.999	453
292.056	-804
292.114	220
292.171	-577
292.228	982
292.286	179
292.343	642
292.401	1161
292.458	2679
292.515	773
292.573	637
292.630	266
292.687	164
292.745	923
292.802	1676
292.859	8132
292.917	6537
292.974	3248
293.031	488
293.089	731
293.146	700
293.203	-108
293.260	777
293.318	1501
293.375	4175
293.432	2037
293.489	1317
293.546	112
293.604	94
293.661	2946
293.718	11945
293.775	9456
293.832	3281
293.889	1928
293.947	2472
294.004	1509
294.061	1705
294.118	2019
294.175	8037
294.232	19823
294.289	10625
294.346	3261
294.403	1725
294.460	2021
294.517	1077
294.574	2040
294.631	1568
294.688	2307
294.745	2891
294.802	15576
294.859	29836
294.916	13722
294.973	6102
295.030	2455
295.087	1720
295.144	1240
295.201	1339
295.258	1651
295.315	1228
295.372	4110
295.429	9441
295.486	6449
295.542	3851
295.599	10997
295.656	27905
295.713	15891
295.770	9871
295.827	5176
295.883	2550
295.940	1701
295.997	3104
296.054	2047
296.111	1760
296.167	1670
296.224	-59
296.281	874
296.338	1117
296.394	699
296.451	665
296.508	3186
296.564	8821
296.621	8694
296.678	11787
296.734	23672
296.791	11878
296.848	4327
296.904	2919
296.961	3593
297.018	8253
297.074	9638
297.131	5102
297.187	2531
297.244	2355
297.301	8904
297.357	22312
297.414	10293
297.470	3203
297.527	1579
297.583	1392
297.640	1235
297.696	964
297.753	902
297.809	1009
297.866	274
297.922	202
297.979	454
298.035	689
298.092	867
298.148	3794
298.204	4884
298.261	3553
298.317	5316
298.374	17236
298.430	13253
298.486	4392
298.543	2895
298.599	2600
298.656	1751
298.712	3250
298.768	12262
298.824	14336
298.881	5079
298.937	2358
298.993	1365
299.050	1343
299.106	1175
299.162	407
299.218	1076
299.275	1368
299.331	1644
299.387	3009
299.443	12384
299.500	18295
299.556	9045
299.612	3961
299.668	2073
299.724	3531
299.780	4952
299.837	2882
299.893	2382
299.949	7718
300.005	11677
300.061	10724
300.117	23846
300.173	15905
300.229	5530
300.285	3129
300.341	3014
300.397	1753
300.453	928
300.510	1380
300.566	1726
300.622	2564
300.678	7193
300.734	13712
300.790	10999
300.845	13024
300.901	8665
300.957	9529
301.013	6976
301.069	2394
301.125	1888
301.181	795
301.237	1478
301.293	763
301.349	1663
301.405	793
301.461	841
301.516	2152
301.572	800
301.628	1382
301.684	1958
301.740	5835
301.796	7694
301.851	4997
301.907	5316
301.963	7129
302.019	11814
302.074	42922
302.130	53270
302.186	28713
302.242	9213
302.297	4920
302.353	4046
302.409	4782
302.464	5427
302.520	4410
302.576	9485
302.631	14478
302.687	7117
302.743	3690
302.798	2008
302.854	1832
302.910	1891
302.965	3112
303.021	5329
303.076	3614
303.132	3036
303.187	2776
303.243	1912
303.299	1341
303.354	194
303.410	1656
303.465	888
303.521	1285
303.576	1150
303.632	1560
303.687	3134
303.743	11979
303.798	14094
303.853	6674
303.909	2256
303.964	1410
304.020	1011
304.075	1770
304.130	1756
304.186	3361
304.241	5182
304.297	3870
304.352	2175
304.358	2212
304.407	2521
304.449	2298
304.463	2224
304.518	2043
304.539	2115
304.573	2227
304.629	2655
304.630	2704
304.684	4933
304.720	7771
304.739	9214
304.794	18067
304.811	15933
304.850	10969
304.902	5902
304.905	5564
304.960	3325
304.992	2387
305.015	1723
305.071	2445
305.083	2297
305.126	1716
305.173	1639
305.181	1644
305.236	1476
305.264	1557
305.292	1577
305.347	1449
305.354	1485
305.402	1810
305.445	1609
305.457	1533
305.512	2482
305.535	2311
305.567	2114
305.622	3426
305.626	3563
305.678	5766
305.716	9757
305.733	11402
305.788	16084
305.807	15280
305.843	13768
305.897	13953
305.898	13948
305.953	16457
305.988	12594
306.008	10300
306.063	5684
306.078	5086
306.118	3616
306.168	2330
306.173	2196
306.228	1631
306.259	1453
306.283	1383
306.338	2325
306.349	2486
306.393	3091
306.440	3273
306.448	3312
306.503	4153
306.530	4904
306.558	5882
306.613	17632
306.620	19310
306.668	29006
306.711	22827
306.723	21035
306.778	11841
306.801	9205
306.833	6010
306.888	3494
306.892	3464
306.943	2874
306.982	2755
306.997	2785
307.052	3318
307.072	3794
307.107	4512
307.162	7487
307.163	7581
307.217	15331
307.253	19762
307.272	21633
307.327	26685
307.343	23889
307.381	17632
307.434	10487
307.436	10167
307.491	14142
307.524	22647
307.546	27425
307.600	21323
307.614	18873
307.655	11839
307.704	7372
307.710	6957
307.765	6643
307.795	9323
307.819	11369
307.874	27088
307.885	26949
307.929	24950
307.975	15747
307.984	14188
308.038	9207
308.065	9303
308.093	10932
308.148	19341
308.156	23649
308.202	46080
308.246	64969
308.257	68349
308.312	43725
308.336	32336
308.366	20190
308.421	10375
308.426	9980
308.475	6741
308.517	5248
308.530	4647
308.585	3823
308.607	3836
308.639	4271
308.694	5544
308.697	5775
308.748	11047
308.787	22521
308.803	25800
308.857	25609
308.877	21966
308.912	16076
308.967	9479
308.967	9492
309.021	8291
309.058	8603
309.076	8859
309.130	10951
309.148	12938
309.185	22233
309.238	48225
309.239	48355
309.293	80147
309.328	71429
309.348	65410
309.402	33506
309.418	27124
309.457	14378
309.508	8844
309.511	8498
309.566	5700
309.598	5257
309.620	4870
309.674	5139
309.688	5467
309.729	6370
309.778	5769
309.783	5594
309.837	3560
309.868	2665
309.892	2781
309.946	4148
309.959	4645
310.001	5401
310.049	6758
310.055	6810
310.109	5857
310.139	4642
310.163	3294
310.218	1800
310.229	1533
310.272	2187
310.319	3339
310.326	3233
310.381	2877
310.409	2574
310.435	2711
310.489	2575
310.499	2658
310.543	2814
310.589	3192
310.598	3205
310.652	3918
310.679	3653
310.706	2991
310.760	1721
310.769	1555
310.814	1076
310.859	1110
310.868	1119
310.923	1047
310.948	1170
310.977	1327
311.031	1641
311.038	1740
311.085	1536
311.128	912
311.139	889
311.193	970
311.218	1059
311.247	1026
311.301	853
311.308	850
311.356	963
311.398	1220
311.410	1167
311.464	942
311.488	806
311.518	716
311.572	536
311.578	540
311.626	684
311.668	805
311.680	974
311.734	1833
311.758	2306
311.788	2052
311.842	1386
311.847	1359
311.896	2321
311.937	3248
311.950	2859
312.004	1379
312.027	728
312.058	852
312.112	1209
312.117	1277
312.165	1100
312.207	1006
312.297	1150
312.386	599
312.476	743
312.566	875
312.656	814
312.745	-270
312.835	1104
312.925	882
313.015	1155
313.104	1540
313.194	874
313.284	681
313.374	682
313.463	357
313.553	1081
313.643	-367
313.732	491
313.822	-453
313.912	778
314.001	560
314.091	1402
314.180	955
314.270	1051
314.360	1101
314.449	1110
314.539	-134
314.628	634
314.718	770
314.808	1770
314.897	571
314.987	1028
315.076	65
315.166	1133
315.255	1359
315.345	739
315.434	1258
315.524	2187
315.613	826
315.703	1807
315.792	3735
315.881	11026
315.971	2636
316.060	3558
316.150	5308
316.239	5822
316.328	2068
316.418	1510
316.507	-30
316.597	916
316.686	997
316.775	3265
316.865	5828
316.954	1781
317.043	798
317.133	1163
317.222	220
317.311	721
317.400	-200
317.490	2185
317.579	752
317.668	740
317.757	1499
317.847	6473
317.936	17286
318.025	5004
318.114	3567
318.203	1433
318.293	1723
318.382	2933
318.471	2473
318.560	3799
318.649	6472
318.738	2070
318.828	637
318.917	739
319.006	2114
319.095	5710
319.184	8062
319.273	2830
319.362	836
319.451	664
319.540	576
319.629	1111
319.718	1259
319.807	1062
319.896	2545
319.985	11146
320.074	3165
320.163	1798
320.252	4014
320.341	2425
320.430	1481
320.519	731
320.608	390
320.697	1220
320.786	103
320.875	1176
320.964	319
321.053	552
321.142	440
321.230	2395
321.319	1705
321.408	2101
321.497	1771
321.586	1730
321.675	4152
321.764	4311
321.852	2207
321.941	1792
322.030	1682
322.119	1860
322.207	4561
322.296	7517
322.385	3008
322.474	2566
322.562	3376
322.651	2760
322.740	1667
322.829	4873
322.917	6826
323.006	2216
323.095	2207
323.183	2805
323.272	2980
323.361	6602
323.449	18347
323.538	6762
323.626	13732
323.715	6481
323.804	3514
323.892	12593
323.981	4944
324.069	3182
324.158	8624
324.246	6474
324.335	1247
324.424	1634
324.512	1134
324.601	861
324.689	792
324.778	3522
324.866	4525
324.954	1108
325.043	455
325.131	2626
325.220	6637
325.308	6894
325.397	4861
325.485	2087
325.574	-49
325.662	563
325.750	143
325.839	464
325.927	-478
326.015	1525
326.104	2890
326.192	4019
326.280	542
326.369	983
326.457	733
326.545	911
326.634	1
326.722	955
326.810	465
326.898	969
326.987	488
327.075	1012
327.163	3476
327.251	1232
327.340	208
327.428	687
327.516	206
327.604	1319
327.692	727
327.781	1986
327.869	3006
327.957	1443
328.045	117
328.133	334
328.221	898
328.309	634
328.397	841
328.485	776
328.574	465
328.662	1261
328.750	1867
328.838	2017
328.926	488
329.014	508
329.102	1008
329.190	2855
329.278	475
329.366	224
329.454	-557
329.542	592
329.630	261
329.718	1617
329.806	338
329.893	1021
329.981	422
330.069	1637
330.157	3492
330.245	9146
330.333	4466
330.421	567
330.509	1010
330.597	1833
330.684	1036
330.772	2073
330.860	2374
330.948	2840
331.036	720
331.123	784
331.211	-384
331.299	1527
331.387	1757
331.475	3408
331.562	1090
331.650	565
331.738	433
331.825	2107
331.913	458
332.001	1072
332.089	1244
332.176	3903
332.264	7050
332.352	3864
332.439	707
332.527	1212
332.614	686
332.702	2298
332.790	728
332.877	3341
332.965	5714
333.052	1069
333.140	465
333.228	2294
333.315	202
333.403	967
333.490	5138
333.578	2187
333.665	1110
333.753	1118
333.840	100
333.928	1934
334.015	4618
334.103	6730
334.190	14517
334.278	3991
334.365	2625
334.452	1959
334.540	893
334.627	2240
334.715	1615
334.802	5292
334.889	27233
334.977	18208
335.064	2387
335.151	1103
335.239	1756
335.326	1831
335.413	5487
335.501	6206
335.588	1564
335.675	795
335.762	1350
335.850	2383
335.937	1377
336.024	7595
336.111	21508
336.199	6620
336.286	1372
336.373	1015
336.460	-275
336.547	1272
336.635	1441
336.722	1760
336.809	654
336.896	952
336.983	3534
337.070	8703
337.157	11391
337.245	15301
337.332	8357
337.419	1279
337.506	922
337.593	1327
337.680	2221
337.767	7934
337.854	1851
337.941	3474
338.028	5386
338.115	1146
338.202	2868
338.289	4382
338.376	13298
338.463	2741
338.550	4679
338.637	4462
338.724	3773
338.811	4988
338.898	907
338.984	1138
339.071	180
339.158	520
339.245	903
339.332	1629
339.419	3528
339.506	2995
339.593	-1071
339.679	461
339.766	-363
339.853	644
339.940	323
340.027	1186
340.113	221
340.200	351
340.287	-279
340.374	282
340.460	58
340.547	-1011
340.634	495
340.720	2218
340.807	-776
340.894	842
340.980	359
341.067	-392
341.154	486
341.240	-676
341.327	39
341.414	1031
341.500	-747
341.587	374
341.674	545
341.760	1284
341.847	157
341.933	296
342.020	-730
342.106	-253
342.193	-342
342.279	834
342.366	-134
342.452	259
342.539	-90
342.625	951
342.712	388
342.798	322
342.885	-104
342.971	-247
343.058	127
343.144	88
343.230	174
343.317	-34
343.403	-862
343.490	626
343.576	-257
343.662	672
343.749	306
343.835	466
343.921	417
344.008	4817
344.094	8149
344.180	1083
344.267	-530
344.353	2226
344.439	3059
344.525	544
344.612	-46
344.698	827
344.784	-302
344.870	102
344.957	-708
345.043	241
345.129	-230
345.215	790
345.301	-303
345.387	69
345.474	-304
345.560	883
345.646	-137
345.732	-92
345.818	-540
345.904	532
345.990	-456
346.076	1103
346.162	1458
346.249	924
346.335	297
346.421	459
346.507	-49
346.593	2333
346.679	-1041
346.765	863
346.851	-566
346.937	-328
347.023	447
347.108	377
347.194	-473
347.280	174
347.366	-517
347.452	595
347.538	1871
347.624	3389
347.710	2694
347.796	1378
347.882	211
347.967	302
348.053	-435
348.139	89
348.225	-619
348.311	-730
348.397	-332
348.482	1073
348.568	379
348.654	361
348.740	-236
348.825	-650
348.911	1371
348.997	1862
349.083	4250
349.168	746
349.254	-169
349.340	511
349.425	-580
349.511	715
349.597	-12
349.682	2
349.768	1515
349.854	581
349.939	598
350.025	-265
350.110	-374
350.196	-42
350.282	-728
350.367	721
350.453	968
350.538	1824
350.624	-716
350.709	846
350.795	-1039
350.880	-751
350.966	841
351.051	2006
351.137	472
351.222	472
351.308	-213
351.393	843
351.479	-1284
351.564	-395
351.649	81
351.735	526
351.820	-473
351.906	309
351.991	-220
352.076	1041
352.162	790
352.247	-336
352.332	-255
352.418	59
352.503	92
352.588	2019
352.673	286
352.759	762
352.844	-866
352.929	-196
353.014	-408
353.100	714
353.185	216
353.270	600
353.355	1229
353.441	1343
353.526	-637
353.611	773
353.696	-847
353.781	655
353.866	-673
353.952	1015
354.037	-434
354.122	1359
354.207	-171
354.292	852
354.377	-285
354.462	307
354.547	-1180
354.632	1061
354.717	208
354.802	121
354.887	-283
354.972	1061
355.057	-89
355.142	17
355.227	-46
355.312	-556
355.397	-840
355.482	787
355.567	-533
355.652	1291
355.737	251
355.822	1899
355.907	376
355.991	1337
356.076	-1077
356.161	631
356.246	1
356.331	-87
356.416	-601
356.501	4409
356.585	1394
356.670	-62
356.755	2407
356.840	566
356.924	3001
357.009	9423
357.094	2552
357.179	684
357.263	98
357.348	874
357.433	668
357.517	246
357.602	-181
357.687	397
357.771	162
357.856	1293
357.941	1019
358.025	2374
358.110	11731
358.195	5151
358.279	-453
358.364	-15
358.448	1414
358.533	3400
358.617	1251
358.702	2237
358.787	734
358.871	673
358.956	-387
359.040	-30
359.125	-424
359.209	201
359.294	25
359.378	1069
359.462	-226
359.547	1088
359.631	447
359.716	-903
359.800	-677
359.885	1805
359.969	-827
360.053	395
360.138	-488
360.222	-473
360.306	-174
360.391	504
360.475	227
360.559	1198
360.644	489
360.728	-139
360.812	2563
360.896	6281
360.981	1770
361.065	1461
361.149	310
361.233	-36
361.318	-680
361.402	542
361.486	-179
361.570	-322
361.654	-428
361.739	535
361.823	2273
361.907	5783
361.991	-432
362.075	347
362.159	-294
362.243	1459
362.327	-243
362.411	2757
362.495	930
362.580	-281
362.664	386
362.748	477
362.832	342
362.916	213
363.000	4278
363.084	6927
363.168	5766
363.252	1899
363.336	1254
363.420	1671
363.503	6921
363.587	6359
363.671	556
363.755	-172
363.839	1652
363.923	-553
364.007	932
364.091	1720
364.175	2797
364.258	13172
364.342	5484
364.426	8233
364.510	2224
364.594	3236
364.677	2746
364.761	4380
364.845	2430
364.929	404
365.013	-64
365.096	852
365.180	-470
365.264	4178
365.347	10285
365.431	4034
365.515	-508
365.598	-672
365.682	522
365.766	270
365.849	395
365.933	25
366.017	1643
366.100	-451
366.184	-373
366.267	1031
366.351	401
366.435	-257
366.518	-16
366.602	233
366.685	-423
366.769	625
366.852	331
366.936	805
367.019	-903
367.103	-433
367.186	1620
367.270	-501
367.353	-959
367.436	1600
367.520	-949
367.603	1005
367.687	-936
367.770	-594
367.853	854
367.937	1665
368.020	1735
368.104	-997
368.187	239
368.270	875
368.353	-122
368.437	4187
368.520	10165
368.603	2584
368.687	-103
368.770	1643
368.853	-663
368.936	1553
369.020	740
369.103	215
369.186	-681
369.269	-263
369.352	195
369.436	-251
369.519	193
369.602	-2318
369.685	930
369.768	-376
369.851	502
369.934	100
370.018	-715
370.101	-839
370.184	1942
370.267	135
370.350	295
370.433	715
370.516	2209
370.599	5865
370.682	-720
370.765	2493
370.848	2004
370.931	2139
371.014	2095
371.097	-742
371.180	-63
371.263	855
371.346	-1411
371.429	1146
371.511	-314
371.594	336
371.677	765
371.760	2693
371.843	-192
371.926	5062
372.009	8461
372.091	5055
372.174	641
372.257	4052
372.340	-169
372.423	1181
372.505	2582
372.588	239
372.671	1010
372.754	2070
372.836	989
372.919	3625
373.002	5051
373.085	441
373.167	1188
373.250	438
373.332	1516
373.415	7526
373.498	10442
373.580	6182
373.663	10215
373.746	11098
373.828	863
373.911	1764
373.993	188
374.076	6176
374.159	5133
374.241	1655
374.324	1273
374.406	2549
374.489	2578
374.571	8129
374.654	1903
374.736	1588
374.819	4406
374.901	8863
374.983	7386
375.066	1858
375.148	214
375.231	5499
375.313	8585
375.395	2165
375.478	-750
375.560	899
375.643	370
375.725	2836
375.807	6113
375.890	11832
375.972	6858
376.054	4440
376.136	8536
376.219	2875
376.301	2092
376.383	2945
376.465	1567
376.548	231
376.630	864
376.712	3155
376.794	749
376.877	999
376.959	-1390
377.041	786
377.123	556
377.205	1970
377.287	-656
377.369	543
377.452	-602
377.534	-623
377.616	-257
377.698	-325
377.780	-1881
377.862	-164
377.944	237
378.026	-972
378.108	255
378.190	-680
378.272	53
378.354	-420
378.436	-754
378.518	-93
378.600	1375
378.682	562
378.764	292
378.846	1124
378.928	-646
379.010	-483
379.091	-485
379.173	222
379.255	-689
379.337	-146
379.419	283
379.501	2440
379.583	-213
379.664	296
379.746	-1545
379.828	2188
379.910	-290
379.991	1500
380.073	-994
380.155	128
380.237	-475
380.318	-199
380.400	-556
380.482	329
380.564	40
380.645	-216
380.727	-913
380.809	632
380.890	-1214
380.972	-405
381.053	-987
381.135	678
381.217	-186
381.298	2702
381.380	-72
381.461	810
381.543	3044
381.624	3834
381.706	729
381.787	616
381.869	1015
381.951	2923
382.032	6342
382.113	7266
382.195	-427
382.276	1761
382.358	-24
382.439	2563
382.521	4559
382.602	7087
382.684	2447
382.765	4581
382.846	2702
382.928	3329
383.009	556
383.090	1586
383.172	3935
383.253	6809
383.334	3003
383.416	5113
383.497	1682
383.578	495
383.659	682
383.741	3747
383.822	8785
383.903	3562
383.984	1557
384.066	6600
384.147	2365
384.228	871
384.309	-431
384.390	-218
384.471	-651
384.553	551
384.634	28
384.715	617
384.796	-632
384.877	89
384.958	1419
385.039	386
385.120	-230
385.201	1183
385.282	624
385.363	1055
385.444	-400
385.525	1632
385.606	1873
385.687	2099
385.768	145
385.849	256
385.930	4956
386.011	7483
386.092	562
386.173	640
386.254	397
386.335	1725
386.416	-1111
386.496	883
386.577	926
386.658	1428
386.739	-689
386.820	1579
386.901	-512
386.981	789
387.062	99
387.143	-530
387.224	134
387.304	2359
387.385	1403
387.466	-576
387.547	1934
387.627	-246
387.708	704
387.789	3301
387.869	2683
387.950	2499
388.031	117
388.111	-1014
388.192	2170
388.273	4169
388.353	938
388.434	266
388.514	411
388.595	4262
388.676	3025
388.756	2031
388.837	1435
388.917	1297
388.998	-2032
389.078	675
389.159	124
389.239	-1717
389.320	1452
389.400	-890
389.480	1559
389.561	1274
389.641	322
389.722	454
389.802	-113
389.883	1362
389.963	2710
390.043	2917
390.124	1015
390.204	1063
390.284	851
390.365	335
390.445	4420
390.525	9189
390.605	5850
390.686	455
390.766	520
390.846	1397
390.927	-1154
391.007	-566
391.087	818
391.167	185
391.247	-517
391.328	2455
391.408	2703
391.488	992
391.568	-1866
391.648	827
391.728	273
391.808	1041
391.888	-366
391.969	1586
392.049	293
392.129	1759
392.209	966
392.289	2581
392.369	1558
392.449	2992
392.529	602
392.609	2194
392.689	1410
392.769	2349
392.849	2236
392.929	5222
393.009	5310
393.089	5302
393.169	11835
393.248	35274
393.328	106722
393.408	102505
393.488	27854
393.568	9250
393.648	3610
393.728	2212
393.807	1113
393.887	2200
393.967	709
394.047	1533
394.127	200
394.206	2643
394.286	6572
394.366	27311
394.446	26387
394.525	5350
394.605	629
394.685	2381
394.764	4756
394.844	6627
394.924	3264
395.003	1325
395.083	279
395.163	2093
395.242	515
395.322	725
395.402	-1282
395.481	2191
395.561	2062
395.640	6711
395.720	5950
395.799	8299
395.879	4477
395.958	2899
396.038	10074
396.117	36752
396.197	36869
396.276	11743
396.356	3125
396.435	3305
396.515	2965
396.594	3803
396.673	8734
396.753	37988
396.832	95917
396.912	60724
396.991	11391
397.070	5443
397.150	1076
397.229	2213
397.308	1772
397.388	1740
397.467	2578
397.546	638
397.625	-2355
397.705	1772
397.784	364
397.863	162
397.942	-575
398.022	888
398.101	1246
398.180	6995
398.259	2929
398.338	1883
398.417	-84
398.497	-282
398.576	341
398.655	-481
398.734	414
398.813	353
398.892	2445
398.971	8057
399.050	2540
399.129	-759
399.208	62
399.287	369
399.366	-968
399.445	-23
399.524	-269
399.603	-956
399.682	152
399.761	2253
399.840	7403
399.919	5903
399.998	208
400.077	-436
400.156	-1484
400.235	2340
400.313	-1235
400.392	-700
400.471	695
400.550	1327
400.629	-1585
400.708	312
400.786	-1074
400.865	1777
400.944	-442
401.023	1116
401.102	-836
401.180	226
401.259	-377
401.338	-1343
401.416	24
401.495	-715
401.574	330
401.652	-472
401.731	258
401.810	-786
401.888	-1402
401.967	-1063
402.046	-578
402.124	395
402.203	-1748
402.281	195
402.360	-318
402.438	1862
402.517	-478
402.596	-719
402.674	-71
402.753	-579
402.831	322
402.910	1217
402.988	-1070
403.066	1934
403.145	1211
403.223	445
403.302	-846
403.380	655
403.459	-360
403.537	-223
403.615	-777
403.694	-1028
403.772	361
403.850	-700
403.929	-1452
404.007	-868
404.085	646
404.164	-387
404.242	-1062
404.320	1072
404.398	126
404.477	254
404.555	5466
404.633	4191
404.711	300
404.789	-63
404.868	-883
404.946	-1178
405.024	-943
405.102	-849
405.180	-1254
405.258	-1834
405.336	127
405.415	-1001
405.493	-11
405.571	138
405.649	-1409
405.727	-2248
405.805	-363
405.883	-52
405.961	-1
406.039	-955
406.117	-1926
406.195	-163
406.273	-513
406.351	4158
406.429	2159
406.507	142
406.585	-1191
406.663	-561
406.740	-903
406.818	-943
406.896	-1025
406.974	56
407.052	-2027
407.130	1920
407.208	1696
407.285	1338
407.363	-1919
407.441	-484
407.519	-430
407.596	422
407.674	1658
407.752	9885
407.830	8061
407.907	1679
407.985	-1405
408.063	-85
408.141	-1119
408.218	748
408.296	-1232
408.373	-835
408.451	-1226
408.529	-45
408.606	-1661
408.684	-396
408.762	-967
408.839	-992
408.917	-553
408.994	-514
409.072	-1182
409.149	-1049
409.227	-629
409.304	-436
409.382	-517
409.459	-176
409.537	-428
409.614	-30
409.692	-509
409.769	-679
409.846	-795
409.924	1288
410.001	-2500
410.079	-205
410.156	-233
410.233	-574
410.311	-1099
410.388	-1045
410.465	-1543
410.543	-836
410.620	-1286
410.697	-548
410.775	-1361
410.852	-1659
410.929	-296
411.006	131
411.083	-1599
411.161	-462
411.238	-227
411.315	-756
411.392	-1426
411.469	108
411.547	-566
411.624	-2010
411.701	-1786
411.778	-939
411.855	-932
411.932	-793
412.009	-1117
412.086	-551
412.163	-384
412.240	-460
412.317	-104
412.394	-276
412.471	-542
412.548	-1394
412.625	-1001
412.702	-267
412.779	-217
412.856	-101
412.933	-1529
413.010	326
413.087	-1083
413.164	286
413.241	-397
413.318	-917
413.395	7
413.471	-1438
413.548	-1097
413.625	-260
413.702	-1673
413.779	-986
413.855	-1092
413.932	-596
414.009	-1628
414.086	-631
414.162	-1085
414.239	-655
414.316	-88
414.393	1466
414.469	-710
414.546	-843
414.623	-705
414.699	-442
414.776	-1825
414.853	-502
414.929	-834
415.006	-1133
415.082	-766
415.159	-110
415.236	-65
415.312	-380
415.389	-644
415.465	-1246
415.542	-1179
415.618	-1658
415.695	-355
415.771	-782
415.848	-1254
415.924	-248
416.000	-1328
416.077	362
416.153	-1546
416.230	-1932
416.306	-1076
416.383	-727
416.459	-1153
416.535	-148
416.612	-607
416.688	-175
416.764	-1419
416.841	-1045
416.917	-1361
416.993	-299
417.069	-1349
417.146	-270
417.222	-1220
417.298	-587
417.374	-1662
417.451	-302
417.527	-973
417.603	-804
417.679	-1267
417.755	-183
417.831	-1441
417.908	-113
417.984	-1329
418.060	-1504
418.136	-388
418.212	-759
418.288	-903
418.364	75
418.440	-2296
418.516	543
418.592	-431
418.668	-25
418.744	-831
418.820	-58
418.896	-716
418.972	-1593
419.048	-2035
419.124	-73
419.200	-1869
419.276	-83
419.352	-1390
419.428	-1097
419.504	-1210
419.579	-323
419.655	-1541
419.731	-408
419.807	-624
419.883	-83
419.959	-654
420.034	-180
420.110	-1578
420.186	-223
420.262	111
420.337	-262
420.413	-1341
420.489	-796
420.565	102
420.640	-633
420.716	-966
420.792	-1372
420.867	-423
420.943	-973
421.019	-1002
421.094	-1091
421.170	-1270
421.245	-798
421.321	-517
421.397	-7
421.472	2250
421.548	6811
421.623	2557
421.699	613
421.774	-316
421.850	-856
421.925	-324
422.001	-51
422.076	-431
422.152	-56
422.227	-109
422.302	1741
422.378	2063
422.453	3979
422.529	12615
422.604	39344
422.679	68847
422.755	40635
422.830	12242
422.905	5153
422.981	1377
423.056	1510
423.131	377
423.207	417
423.282	-295
423.357	1092
423.432	-556
423.508	220
423.583	-258
423.658	340
423.733	-724
423.808	-221
423.883	-1201
423.959	-599
424.034	-1858
424.109	-327
424.184	-857
424.259	-864
424.334	-1069
424.409	-437
424.484	-371
424.559	-535
424.634	-1067
424.709	-205
424.784	-519
424.859	-683
424.934	-1530
425.009	-66
425.084	272
425.159	-714
425.234	-437
425.309	-1167
425.384	-857
425.459	-1004
425.534	-670
425.609	-168
425.683	-1438
425.758	-967
425.833	-1131
425.908	-231
425.983	-1113
426.058	1593
426.132	-308
426.207	-63
426.282	1539
426.357	-391
426.431	-829
426.506	7
426.581	-688
426.655	-670
426.730	-1880
426.805	-529
426.879	-814
426.954	-452
427.029	-1052
427.103	1078
427.178	3136
427.253	1918
427.327	-947
427.402	-298
427.476	672
427.551	-44
427.625	-1081
427.700	169
427.774	-1216
427.849	-25
427.923	-957
427.998	-794
428.072	-791
428.147	581
428.221	3184
428.296	13608
428.370	6308
428.444	818
428.519	-259
428.593	2109
428.667	2078
428.742	3491
428.816	2941
428.890	9309
428.965	13714
429.039	5775
429.113	2629
429.188	188
429.262	-1312
429.336	434
429.410	877
429.485	329
429.559	2247
429.633	1999
429.707	-239
429.781	1643
429.855	10447
429.930	16098
430.004	11248
430.078	15349
430.152	13224
430.226	21206
430.300	21321
430.374	3747
430.448	745
430.522	5034
430.596	11744
430.670	8835
430.744	11885
430.818	15113
430.892	2380
430.966	-160
431.040	-902
431.114	-1026
431.188	-1150
431.262	-401
431.336	-859
431.410	1195
431.484	2647
431.557	2574
431.631	-1004
431.705	-87
431.779	1941
431.853	13417
431.927	8905
432.000	1178
432.074	-510
432.148	-202
432.222	-244
432.295	-61
432.369	-1142
432.443	-522
432.516	2336
432.590	5558
432.664	1918
432.737	-197
432.811	-1451
432.885	-674
432.958	-240
433.032	-1240
433.106	-1887
433.179	-230
433.253	-1312
433.326	-889
433.400	-1476
433.473	-472
433.547	-1327
433.620	-500
433.694	-2054
433.767	-136
433.841	-1171
433.914	-1064
433.988	-1079
434.061	-779
434.134	-1410
434.208	-833
434.281	-1409
434.355	-350
434.428	-662
434.501	-153
434.575	-1026
434.648	-156
434.721	-2254
434.795	-947
434.868	-1213
434.941	-967
435.014	-2141
435.088	-601
435.161	-1801
435.234	-403
435.307	-1597
435.381	-686
435.454	-942
435.527	-611
435.600	64
435.673	-571
435.746	-1397
435.819	-327
435.892	-1485
435.966	-427
436.039	-1472
436.112	-169
436.185	-1343
436.258	-251
436.331	-1644
436.404	-824
436.477	-1352
436.550	-864
436.623	-1373
436.696	-1797
436.769	-1639
436.842	-837
436.915	-1301
436.987	-606
437.060	-960
437.133	-759
437.206	-1757
437.279	-432
437.352	-1565
437.425	-1384
437.498	-1219
437.570	-447
437.643	-1120
437.716	-709
437.789	-1511
437.861	-214
437.934	974
438.007	-384
438.080	-2006
438.152	-745
438.225	-690
438.298	2930
438.370	11388
438.443	5263
438.516	785
438.588	-678
438.661	-1538
438.734	-395
438.806	-1726
438.879	-1141
438.951	-1377
439.024	86
439.096	-1204
439.169	-799
439.241	-1115
439.314	-131
439.386	-527
439.459	1805
439.531	3116
439.604	696
439.676	-679
439.749	-1076
439.821	-1923
439.893	-947
439.966	-1778
440.038	-562
440.110	-692
440.183	-1197
440.255	-1182
440.327	-599
440.400	1321
440.472	7436
440.544	4637
440.617	261
440.689	164
440.761	-171
440.833	232
440.905	562
440.978	-1563
441.050	-573
441.122	-498
441.194	-1002
441.266	-667
441.338	-1061
441.411	-1174
441.483	933
441.555	2155
441.627	830
441.699	590
441.771	1396
441.843	-19
441.915	-794
441.987	-1241
442.059	-867
442.131	281
442.203	287
442.275	291
442.347	1391
442.419	1840
442.491	11449
442.563	27107
442.635	16226
442.706	7303
442.778	5480
442.850	-237
442.922	-458
442.994	563
443.066	701
443.137	393
443.209	181
443.281	1228
443.353	4490
443.425	16816
443.496	52417
443.568	54224
443.640	23959
443.711	4870
443.783	1925
443.855	319
443.926	1
443.998	-374
444.070	1337
444.141	245
444.213	-17
444.285	573
444.356	2220
444.428	2842
444.499	1338
444.571	-1110
444.642	-265
444.714	-952
444.785	-31
444.857	1512
444.928	7132
445.000	4876
445.071	5546
445.143	6165
445.214	3826
445.285	5766
445.357	19294
445.428	46243
445.500	92878
445.571	70110
445.642	36695
445.714	15837
445.785	14880
445.856	4143
445.928	680
445.999	504
446.070	230
446.141	-199
446.213	540
446.284	-597
446.355	1432
446.426	616
446.497	219
446.569	1368
446.640	2209
446.711	238
446.782	-1
446.853	2531
446.924	3126
446.995	74
447.066	369
447.138	1585
447.209	1619
447.280	-918
447.351	-441
447.422	-1241
447.493	-248
447.564	-327
447.635	-572
447.706	-1424
447.777	-403
447.847	-714
447.918	-510
447.989	121
448.060	1353
448.131	4039
448.202	4416
448.273	810
448.344	526
448.414	-1083
448.485	-577
448.556	-948
448.627	-1161
448.698	-670
448.768	-334
448.839	-1084
448.910	1805
448.981	1411
449.051	-309
449.122	-907
449.193	-54
449.263	-343
449.334	-937
449.405	-731
449.475	901
449.546	-193
449.616	2690
449.687	2966
449.758	434
449.828	-1070
449.899	-1236
449.969	-1540
450.040	-1202
450.110	947
450.181	3343
450.251	60
450.322	-483
450.392	348
450.463	-402
450.533	-1038
450.604	-800
450.674	-1273
450.744	-938
450.815	-473
450.885	-239
450.955	-116
451.026	-519
451.096	-273
451.166	1310
451.237	3182
451.307	9324
451.377	5031
451.447	-51
451.518	-969
451.588	-345
451.658	74
451.728	1398
451.799	8939
451.869	13867
451.939	2392
452.009	13
452.079	-714
452.149	19
452.219	1868
452.289	12237
452.360	10718
452.430	2319
452.500	73
452.570	1037
452.640	2215
452.710	8569
452.780	14990
452.850	7492
452.920	1932
452.990	894
453.060	938
453.129	949
453.199	1976
453.269	14062
453.339	35959
453.409	57910
453.479	51119
453.549	74601
453.619	76780
453.688	38216
453.758	5184
453.828	1750
453.898	434
453.968	138
454.037	-249
454.087	150
454.107	296
454.168	-655
454.177	-818
454.247	-625
454.249	-601
454.316	-666
454.330	-45
454.386	1731
454.411	3666
454.456	6069
454.492	9097
454.525	11859
454.574	5908
454.595	3446
454.655	1081
454.665	772
454.734	1952
454.736	2228
454.804	7514
454.817	9548
454.873	14611
454.898	17533
454.943	21665
454.979	17257
455.013	14091
455.060	8917
455.082	7138
455.141	6408
455.152	5895
455.221	13867
455.222	14191
455.291	19937
455.303	18650
455.360	15043
455.384	15078
455.430	14337
455.465	13985
455.499	12992
455.546	15054
455.569	14878
455.627	9570
455.638	9047
455.707	1157
455.708	1172
455.777	244
455.789	433
455.846	1207
455.869	1037
455.916	748
455.950	687
455.985	371
456.031	1168
456.054	1656
456.112	712
456.124	609
456.193	1035
456.193	1001
456.262	3019
456.274	3615
456.332	5868
456.355	6796
456.401	6108
456.436	4273
456.470	3337
456.516	1032
456.540	88
456.597	225
456.609	238
456.678	158
456.678	145
456.747	-271
456.759	-239
456.817	23
456.840	357
456.886	766
456.920	107
456.955	210
457.001	2046
457.024	3508
457.082	6682
457.093	7331
457.162	13764
457.163	13879
457.232	11828
457.243	10880
457.301	7418
457.324	4417
457.370	659
457.405	886
457.439	1292
457.485	1009
457.508	864
457.566	2261
457.577	2606
457.646	2667
457.647	2697
457.715	5360
457.727	6015
457.784	9777
457.808	12035
457.853	13795
457.889	15977
457.922	16523
457.969	13198
457.991	13945
458.050	16398
458.060	16838
458.129	25457
458.130	25755
458.198	21303
458.211	18843
458.267	12332
458.292	9188
458.336	7035
458.372	7122
458.405	9973
458.453	14657
458.474	17579
458.533	29256
458.543	29666
458.611	37710
458.614	37961
458.680	24831
458.694	19578
458.749	10529
458.775	7997
458.818	5410
458.855	4437
458.887	3711
458.936	3769
458.955	3742
459.016	3589
459.024	3509
459.093	3467
459.097	3414
459.162	2512
459.177	2614
459.230	3128
459.257	2944
459.299	2759
459.338	3309
459.368	3431
459.418	3287
459.437	3110
459.499	2275
459.505	2247
459.574	1578
459.579	1628
459.643	2132
459.659	2032
459.711	1962
459.740	2288
459.780	2940
459.820	3630
459.849	4038
459.900	4556
459.917	4354
459.981	3536
459.986	3454
460.054	2441
460.061	2307
460.123	2263
460.141	2441
460.191	3007
460.222	3100
460.260	2895
460.302	3149
460.328	3342
460.382	3136
460.397	3201
460.462	3998
460.465	4356
460.534	12622
460.543	13839
460.602	32367
460.623	39459
460.671	61391
460.703	81044
460.739	66080
460.783	40584
460.808	35286
460.864	10927
460.876	8674
460.944	5378
460.945	5312
461.013	3836
461.024	3504
461.081	3033
461.104	3267
461.150	3307
461.184	2896
461.218	3047
461.264	3848
461.286	4046
461.345	3875
461.355	3877
461.423	4666
461.425	4664
461.491	6435
461.505	6960
461.559	19311
461.585	25082
461.628	38346
461.665	51623
461.696	51430
461.745	52533
461.764	44276
461.825	10826
461.832	10534
461.901	5448
461.905	5462
461.969	4578
461.985	4221
462.037	4888
462.065	5456
462.105	8857
462.145	12434
462.173	17300
462.225	26403
462.241	29013
462.305	41237
462.310	39656
462.378	14213
462.385	10822
462.446	5495
462.465	4439
462.514	3901
462.545	4089
462.582	4005
462.625	4063
462.650	4179
462.705	4240
462.718	4959
462.785	8655
462.786	8754
462.854	14576
462.865	15612
462.922	17338
462.945	18031
462.990	11948
463.025	6387
463.058	5412
463.104	4039
463.126	3833
463.184	4229
463.194	4406
463.262	4971
463.264	5010
463.330	5664
463.344	5691
463.398	7270
463.424	8177
463.466	8043
463.504	7953
463.533	7767
463.583	7212
463.601	7782
463.663	9359
463.669	9734
463.737	14992
463.743	15424
463.805	29849
463.823	34095
463.873	54395
463.903	67279
463.940	63630
463.982	60003
464.008	45871
464.062	12473
464.076	11586
464.142	6408
464.144	6327
464.211	4996
464.221	4971
464.279	5799
464.301	5931
464.347	7303
464.381	8542
464.414	10682
464.461	13525
464.482	13459
464.540	13531
464.550	12730
464.617	6168
464.620	5936
464.685	5798
464.699	5806
464.753	5932
464.779	6005
464.820	7733
464.859	9320
464.888	10295
464.938	12010
464.956	12368
465.018	13577
465.023	13178
465.091	7634
465.098	7033
465.158	6383
465.177	6237
465.226	7111
465.257	7531
465.293	7203
465.336	6951
465.361	8200
465.416	10829
465.428	13706
465.495	29421
465.496	29616
465.563	52000
465.575	55941
465.631	60675
465.654	62643
465.698	34591
465.734	10282
465.765	8707
465.813	6441
465.833	6309
465.893	6583
465.900	6631
465.968	7092
465.972	7114
466.035	6862
466.052	6729
466.102	6820
466.131	6886
466.170	6865
466.210	6805
466.237	7264
466.290	8238
466.304	8368
466.369	8666
466.372	8696
466.439	9208
466.449	9244
466.506	11899
466.528	12901
466.573	25945
466.607	35688
466.641	51637
466.687	73737
466.708	77541
466.766	87842
466.775	79844
466.842	18240
466.845	15281
466.909	11570
466.925	10777
466.977	10734
467.004	10745
467.044	10262
467.083	9771
467.111	10170
467.163	10838
467.178	10904
467.242	11086
467.245	11112
467.312	11205
467.321	11198
467.379	12579
467.400	13040
467.446	17100
467.480	19982
467.559	12805
467.638	11190
467.717	10026
467.796	11310
467.875	10729
467.955	14710
468.034	41361
468.113	90249
468.192	120635
468.271	15359
468.350	13019
468.429	14999
468.508	14053
468.588	11209
468.667	12166
468.746	11577
468.825	10241
468.904	10054
468.983	17521
469.062	31752
469.141	33034
469.220	10090
469.299	9159
469.378	9125
469.456	7865
469.535	8497
469.614	9564
469.693	13018
469.772	21532
469.851	37522
469.930	13028
470.009	7310
470.088	6515
470.166	5726
470.245	8287
470.324	8468
470.403	6532
470.482	6878
470.560	7347
470.639	7132
470.718	8027
470.797	9771
470.875	15617
470.954	24417
471.033	23448
471.111	6767
471.190	6214
471.269	6560
471.347	6268
471.426	8679
471.505	10148
471.583	7064
471.662	6721
471.740	7410
471.819	6204
471.898	6352
471.976	7696
472.055	6583
472.133	12833
472.212	21235
472.290	19680
472.369	8720
472.447	7498
472.526	5766
472.604	6520
472.683	7124
472.761	6112
472.839	6408
472.918	6190
472.996	9608
473.075	13878
473.153	10009
473.231	8669
473.310	12386
473.388	10385
473.466	8454
473.545	7725
473.623	7929
473.701	7197
473.780	7191
473.858	5616
473.936	8139
474.014	8264
474.093	13029
474.171	27204
474.249	43478
474.327	15427
474.405	6098
474.484	5627
474.562	5420
474.640	7167
474.718	10130
474.796	7487
474.874	7217
474.952	5902
475.030	6536
475.108	8047
475.187	8191
475.265	8980
475.343	10550
475.421	10686
475.499	8010
475.577	10474
475.655	23326
475.733	58146
475.811	102135
475.889	88310
475.966	34888
476.044	8395
476.122	10052
476.200	12174
476.278	9715
476.356	9666
476.434	10667
476.512	11222
476.590	13746
476.667	11375
476.745	7913
476.823	7945
476.901	9717
476.979	10879
477.056	8561
477.134	7966
477.212	8032
477.290	7511
477.367	7842
477.445	9103
477.523	8729
477.601	7689
477.678	10476
477.756	15551
477.834	16960
477.911	9717
477.989	10510
478.066	9847
478.144	12277
478.222	9612
478.299	12230
478.377	10761
478.454	9257
478.532	6608
478.609	7022
478.687	8247
478.764	7464
478.842	6890
478.919	7669
478.997	7429
479.074	8786
479.152	14744
479.229	22310
479.307	8494
479.384	7019
479.461	7723
479.539	10807
479.616	14538
479.694	10435
479.771	13830
479.848	15606
479.926	26413
480.003	19949
480.080	8583
480.157	7487
480.235	6799
480.312	9573
480.389	16365
480.467	34306
480.544	34029
480.621	11350
480.698	12068
480.775	13960
480.853	14642
480.930	8867
481.007	10515
481.084	17767
481.161	19324
481.238	13215
481.315	8614
481.392	9098
481.470	8380
481.547	9808
481.624	9499
481.701	9495
481.778	11140
481.855	15406
481.932	29379
482.009	51646
482.086	19641
482.163	9199
482.240	11957
482.317	15017
482.393	11345
482.470	10455
482.547	13053
482.624	8723
482.701	10222
482.778	8017
482.855	7336
482.932	7544
483.009	8596
483.085	11430
483.162	13162
483.239	11792
483.316	7342
483.393	9829
483.469	10599
483.546	14117
483.623	14341
483.699	10354
483.776	10034
483.853	13738
483.930	30036
484.006	80182
484.083	116789
484.160	17498
484.236	16169
484.313	14976
484.389	12472
484.466	12760
484.543	12184
484.619	13884
484.696	16768
484.772	21096
484.849	22593
484.925	11628
485.002	12421
485.078	14131
485.155	13516
485.231	11869
485.308	10859
485.384	15285
485.461	31784
485.537	71491
485.614	66321
485.690	12086
485.766	10638
485.843	11104
485.919	13178
485.995	11869
486.072	9805
486.148	10197
486.224	10187
486.301	14236
486.377	19523
486.453	15670
486.530	12618
486.606	15596
486.682	22720
486.758	48926
486.835	54597
486.911	42564
486.987	81015
487.063	31357
487.139	22740
487.215	18330
487.292	14721
487.368	14874
487.444	17068
487.520	21891
487.596	22799
487.672	44083
487.748	105744
487.824	128761
487.900	37437
487.976	21103
488.052	22279
488.128	20841
488.204	16441
488.280	17217
488.356	32447
488.432	92876
488.508	118106
488.584	15204
488.660	9110
488.736	9618
488.812	9459
488.888	10755
488.964	13475
489.039	23024
489.115	30279
489.191	17580
489.267	14150
489.343	13393
489.418	9854
489.494	10094
489.570	7581
489.646	10635
489.722	9919
489.797	15188
489.873	44579
489.949	109664
490.024	50281
490.100	10701
490.176	10022
490.251	11153
490.327	11879
490.403	9112
490.478	8532
490.554	7663
490.629	8128
490.705	8195
490.781	9619
490.856	10075
490.932	10609
491.007	10514
491.083	11531
491.158	14116
491.234	30729
491.309	82829
491.385	53488
491.460	13019
491.536	12757
491.611	8129
491.686	9246
491.762	10570
491.837	19759
491.913	36808
491.988	49487
492.063	40150
492.139	42082
492.214	18424
492.289	6563
492.365	7403
492.440	10427
492.515	13635
492.590	11989
492.666	9733
492.741	23937
492.816	39671
492.891	10344
492.967	7292
493.042	7125
493.117	5872
493.192	7773
493.267	14367
493.342	35054
493.418	32555
493.493	7707
493.568	7232
493.643	9306
493.718	16203
493.793	26927
493.868	13873
493.943	6964
494.018	8039
494.093	9982
494.168	8958
494.243	5717
494.318	6960
494.393	6427
494.468	5826
494.543	5400
494.618	6793
494.693	7509
494.768	8932
494.842	7100
494.917	6336
494.992	5803
495.067	5052
495.142	6237
495.217	5252
495.292	7326
495.366	8060
495.441	10140
495.516	12119
495.591	15540
495.665	34922
495.740	58084
495.815	20444
495.890	12737
495.964	9462
496.039	13166
496.114	11953
496.188	15059
496.263	13322
496.338	11550
496.412	17116
496.487	17264
496.561	13141
496.636	12514
496.710	13392
496.785	17528
496.860	19993
496.934	11955
497.009	11415
497.083	12329
497.158	13331
497.232	19487
497.307	24046
497.381	19318
497.455	31214
497.530	40780
497.604	22350
497.679	28947
497.753	51720
497.827	50696
497.902	37498
497.976	58046
498.050	213665
498.125	683607
498.199	374593
498.273	42241
498.348	31408
498.422	27052
498.496	25133
498.570	24672
498.645	24177
498.719	25395
498.793	35290
498.867	62881
498.941	93267
499.016	320852
499.090	642051
499.164	89917
499.238	19718
499.312	18372
499.386	19698
499.460	20129
499.534	21931
499.609	28879
499.683	45795
499.757	45844
499.831	157215
499.905	509403
499.979	261619
500.053	59978
500.127	42022
500.201	19643
500.275	18495
500.349	18073
500.422	21780
500.496	28057
500.570	72382
500.644	284535
500.718	398872
500.792	39275
500.866	23508
500.940	34056
501.013	23409
501.087	22188
501.161	30139
501.235	60860
501.309	203130
501.382	473014
501.456	216230
501.530	80377
501.603	136713
501.677	28736
501.751	16591
501.825	26199
501.898	73189
501.972	190412
502.046	55947
502.119	26233
502.193	87241
502.266	185284
502.340	51823
502.413	100642
502.487	156747
502.561	73357
502.634	14844
502.708	11295
502.781	10077
502.855	10920
502.928	10520
503.002	11132
503.075	12646
503.149	14486
503.222	14763
503.295	17043
503.369	21536
503.442	44099
503.516	178147
503.589	346646
503.662	145898
503.736	67355
503.809	169799
503.882	95302
503.956	183834
504.029	95334
504.102	63135
504.175	63277
504.249	24896
504.322	24303
504.395	17430
504.468	13269
504.542	12081
504.615	7936
504.688	7584
504.761	8019
504.834	11299
504.907	8754
504.980	10230
505.053	7945
505.127	6776
505.200	18677
505.273	25075
505.346	10973
505.419	8729
505.492	6851
505.565	5327
505.638	6902
505.711	6637
505.784	6654
505.857	6974
505.930	9485
506.003	7515
506.076	12340
506.149	19068
506.221	18467
506.294	22061
506.367	86409
506.440	225533
506.513	51319
506.586	22125
506.659	8255
506.731	7014
506.804	10826
506.877	11892
506.950	10274
507.022	9488
507.095	17225
507.168	14060
507.241	7858
507.313	4968
507.386	5436
507.459	6730
507.531	5069
507.604	4451
507.677	5459
507.749	3041
507.822	6591
507.894	8281
507.967	8014
508.040	4574
508.112	6237
508.185	6890
508.257	4535
508.330	8033
508.402	6748
508.475	8687
508.547	8817
508.620	11984
508.692	23700
508.765	7528
508.837	4507
508.909	5599
508.982	5027
509.054	5856
509.127	3466
509.199	4565
509.271	3870
509.344	3846
509.416	4225
509.488	5642
509.560	5180
509.633	4491
509.705	4691
509.777	5040
509.849	6236
509.922	3820
509.994	4227
510.066	5994
510.138	3237
510.210	7864
510.283	7080
510.355	6773
510.427	6046
510.499	5823
510.571	5130
510.643	4703
510.715	6468
510.787	3298
510.859	8405
510.931	9606
511.003	6933
511.076	8132
511.148	4647
511.219	8270
511.291	26702
511.363	19642
511.435	5088
511.507	4505
511.579	5566
511.651	5838
511.723	5066
511.795	5277
511.867	5865
511.939	16068
512.010	45177
512.082	17083
512.154	5112
512.226	5277
512.298	7158
512.369	7804
512.441	6427
512.513	6624
512.585	4386
512.656	7707
512.728	7168
512.800	4861
512.871	9711
512.943	7605
513.015	2507
513.086	5123
513.158	6017
513.230	5666
513.301	6706
513.373	7137
513.444	4410
513.516	3936
513.588	3749
513.659	5274
513.731	5559
513.802	4592
513.874	9978
513.945	10026
514.016	4641
514.088	5328
514.159	4683
514.231	7002
514.302	6601
514.374	6605
514.445	12421
514.516	44485
514.588	14783
514.659	15646
514.730	31165
514.802	10887
514.873	5594
514.944	8856
515.016	7713
515.087	8294
515.158	23269
515.229	24544
515.301	8592
515.372	12733
515.443	6331
515.514	5595
515.585	3528
515.656	5832
515.728	5258
515.799	4005
515.870	5694
515.941	5324
516.012	3776
516.083	5930
516.154	4623
516.225	6755
516.296	6821
516.367	5300
516.438	5091
516.509	6335
516.580	9421
516.651	27946
516.722	59016
516.793	19413
516.864	13189
516.935	14698
517.006	14972
517.077	18265
517.148	31756
517.219	86865
517.289	127650
517.360	182133
517.431	28347
517.502	9834
517.573	10574
517.643	9666
517.714	9246
517.785	9155
517.856	9400
517.926	11767
517.997	11783
518.068	10164
518.138	14410
518.209	19363
518.280	66790
518.350	145822
518.421	28066
518.492	15324
518.562	19076
518.633	21270
518.703	21465
518.774	50161
518.845	108424
518.915	65067
518.986	25159
519.056	20148
519.127	26116
519.197	66625
519.268	222285
519.338	66121
519.408	20275
519.479	12777
519.549	9169
519.620	10282
519.690	7260
519.760	7882
519.831	7011
519.901	7444
519.971	8274
520.042	10826
520.112	13297
520.182	8582
520.253	9650
520.323	9057
520.393	9893
520.463	14132
520.534	14671
520.604	26056
520.674	13936
520.744	18078
520.814	25312
520.885	26811
520.955	100205
521.025	250504
521.095	35125
521.165	13807
521.235	11314
521.305	8067
521.375	6656
521.445	7746
521.515	6897
521.585	8763
521.655	5750
521.725	8066
521.795	9223
521.865	6712
521.935	21594
522.005	11474
522.075	7079
522.145	10483
522.215	15931
522.285	22385
522.355	42121
522.424	79053
522.494	41436
522.564	13622
522.634	22135
522.704	25468
522.774	7531
522.843	8226
522.913	7136
522.983	6368
523.053	6341
523.122	6933
523.192	7345
523.262	16789
523.331	10075
523.401	6432
523.471	4731
523.540	6357
523.610	4188
523.680	5699
523.749	6652
523.819	14908
523.888	9271
523.958	6426
524.027	6932
524.097	7603
524.166	5789
524.236	5914
524.305	8754
524.375	4969
524.444	5007
524.514	9029
524.583	10450
524.653	13613
524.722	14426
524.791	6252
524.861	8467
524.930	4279
524.999	5623
525.069	10034
525.138	11821
525.207	13188
525.277	7618
525.346	7216
525.415	7475
525.484	8844
525.554	14517
525.623	11428
525.692	11050
525.761	10670
525.830	12142
525.900	14294
525.969	25012
526.038	34783
526.107	82366
526.176	175508
526.245	91612
526.314	47342
526.383	109433
526.452	107393
526.522	238960
526.591	127993
526.660	27215
526.729	20459
526.797	25403
526.867	48351
526.935	171678
527.004	395982
527.073	107438
527.142	18019
527.211	11337
527.280	10217
527.349	7957
527.418	6212
527.487	6941
527.555	5621
527.624	5861
527.693	4108
527.762	6000
527.831	4776
527.899	6192
527.968	6199
528.037	4495
528.106	7818
528.174	10589
528.243	13537
528.312	23113
528.380	14130
528.449	5792
528.518	6631
528.586	2728
528.655	6015
528.723	5348
528.792	5607
528.861	6675
528.929	4405
528.998	5217
529.066	4676
529.135	4798
529.203	4549
529.272	3140
529.340	5845
529.409	6497
529.477	5075
529.545	11246
529.614	11598
529.682	15687
529.751	14046
529.819	16300
529.887	6903
529.956	5572
530.024	6136
530.092	3979
530.161	6233
530.229	6246
530.297	3475
530.365	5403
530.434	4413
530.502	3633
530.570	4971
530.638	3172
530.707	4836
530.775	6237
530.843	3917
530.911	4517
530.979	4611
531.047	4650
531.115	5209
531.183	4801
531.252	5446
531.320	5535
531.388	3512
531.456	5407
531.524	2808
531.592	5131
531.660	6219
531.728	4167
531.796	4430
531.864	4413
531.932	5089
532.000	4173
532.067	4344
532.135	4674
532.203	5919
532.271	3909
532.339	9301
532.407	12780
532.475	7768
532.542	6922
532.610	5980
532.678	6085
532.746	27320
532.814	31927
532.881	8019
532.949	5916
533.017	6251
533.084	6350
533.152	5558
533.220	5444
533.287	4347
533.355	4805
533.423	5544
533.490	4594
533.558	5217
533.625	6932
533.693	5958
533.761	5312
533.828	6383
533.896	3536
533.963	7191
534.031	8400
534.098	10130
534.166	6628
534.233	4260
534.300	6902
534.368	6206
534.435	6715
534.503	6480
534.570	6574
534.637	5770
534.705	7182
534.772	10353
534.840	21886
534.907	99356
534.974	58408
535.041	11808
535.109	11109
535.176	5154
535.243	4378
535.310	5367
535.378	4397
535.445	5313
535.512	4536
535.579	5196
535.646	3576
535.714	4672
535.781	5333
535.848	6070
535.915	6024
535.982	3730
536.049	4621
536.116	5887
536.183	5109
536.250	4945
536.317	4933
536.384	6910
536.451	6410
536.518	5608
536.585	3806
536.652	9374
536.719	8129
536.786	4364
536.853	6330
536.920	12409
536.987	11074
537.053	8009
537.120	25002
537.187	11816
537.254	4974
537.321	5376
537.388	6193
537.454	4167
537.521	4746
537.588	4769
537.654	5698
537.721	5044
537.788	5837
537.855	3963
537.921	5264
537.988	4697
538.055	6101
538.121	4642
538.188	5418
538.254	6542
538.321	8483
538.388	5486
538.454	5127
538.521	5015
538.587	4294
538.654	4516
538.720	4064
538.787	5024
538.853	6900
538.920	9775
538.986	9401
539.053	6010
539.119	6464
539.185	3956
539.252	6777
539.318	5391
539.385	6149
539.451	3716
539.517	5409
539.583	6392
539.650	16140
539.716	16305
539.782	5488
539.849	4448
539.915	5870
539.981	4064
540.047	5445
540.114	5085
540.180	5958
540.246	3896
540.312	5719
540.378	10745
540.444	8662
540.510	10472
540.576	15814
540.643	5687
540.709	4166
540.775	5319
540.841	5338
540.907	13399
540.973	13327
541.039	6159
541.105	6975
541.171	4186
541.237	3641
541.303	5502
541.369	7178
541.435	5870
541.500	8622
541.566	4071
541.632	4393
541.698	3859
541.764	4779
541.830	5533
541.896	5217
541.961	5781
542.027	4590
542.093	3585
542.159	5247
542.224	4565
542.290	6958
542.356	8549
542.421	7689
542.487	6395
542.553	5501
542.618	6855
542.684	4475
542.750	4949
542.815	7023
542.881	12555
542.947	17817
543.012	7259
543.078	3766
543.143	3735
543.209	4921
543.274	4010
543.340	6181
543.405	8792
543.471	6938
543.536	4542
543.602	4893
543.667	4559
543.732	5778
543.798	4424
543.863	5403
543.928	3303
543.994	3803
544.059	5068
544.124	4573
544.190	3848
544.255	5115
544.320	4566
544.386	4113
544.451	5816
544.516	6172
544.581	6912
544.646	15385
544.712	11802
544.777	7047
544.842	9343
544.907	8759
544.972	6301
545.037	6860
545.102	8051
545.168	6841
545.233	7647
545.298	9121
545.363	9445
545.428	8130
545.493	11699
545.558	12365
545.623	8261
545.688	6764
545.753	7801
545.818	6862
545.883	8903
545.947	6669
546.012	10665
546.077	8346
546.142	8362
546.207	7422
546.272	8518
546.337	7314
546.401	7436
546.466	8182
546.531	7386
546.596	8531
546.661	7351
546.725	9219
546.790	7782
546.855	9184
546.919	7684
546.984	10197
547.049	12441
547.113	14574
547.178	12100
547.243	14350
547.307	16105
547.372	19853
547.436	18903
547.501	13940
547.565	14201
547.630	15286
547.695	17238
547.759	24285
547.823	15720
547.888	14443
547.952	14328
548.017	17562
548.081	23635
548.146	26970
548.210	19551
548.274	14704
548.339	13721
548.403	13146
548.468	12407
548.532	12565
548.596	14837
548.660	14064
548.725	16133
548.789	21110
548.853	19477
548.917	17322
548.982	28842
549.046	19408
549.110	12906
549.174	13455
549.238	14154
549.303	14196
549.367	16077
549.431	13547
549.495	14218
549.559	13793
549.623	16509
549.687	16948
549.751	17419
549.815	19782
549.879	19111
549.943	17465
550.007	19071
550.071	18826
550.135	18782
550.199	16836
550.263	17241
550.327	23186
550.391	27432
550.455	19108
550.519	18910
550.582	19838
550.646	22908
550.710	22255
550.774	21646
550.838	22640
550.901	23628
550.965	26119
551.029	27370
551.093	33887
551.156	48154
551.220	91998
551.284	64103
551.347	45537
551.411	99125
551.475	53936
551.538	24595
551.602	21120
551.666	19753
551.729	17325
551.793	19232
551.856	17382
551.920	17366
551.983	16821
552.047	16416
552.110	17944
552.174	18036
552.237	17351
552.301	16397
552.364	16518
552.428	15486
552.491	15616
552.554	17191
552.618	16653
552.681	16938
552.745	16374
552.808	18293
552.871	18382
552.934	16878
552.998	18184
553.061	18319
553.124	16271
553.187	15580
553.251	16902
553.314	15921
553.377	16944
553.440	19462
553.503	26987
553.567	24223
553.630	17740
553.693	17725
553.756	17115
553.819	16531
553.882	15622
553.945	15899
554.008	15856
554.071	15746
554.134	15826
554.197	14040
554.260	14353
554.323	15750
554.386	15876
554.449	15607
554.512	16544
554.575	14236
554.638	16588
554.701	15154
554.764	15599
554.827	14062
554.889	12671
554.952	12489
555.015	12493
555.078	13694
555.141	13041
555.203	12705
555.266	13478
555.329	13552
555.391	12412
555.454	12382
555.517	11896
555.580	12116
555.642	11060
555.705	12098
555.768	10463
555.830	11824
555.893	11009
555.955	10720
556.018	10674
556.080	11108
556.143	10730
556.206	10966
556.268	10570
556.330	11792
556.393	12072
556.455	13501
556.518	21887
556.580	13958
556.643	8999
556.705	9383
556.767	8538
556.830	10396
556.892	10773
556.955	10012
557.017	10019
557.079	9030
557.142	9232
557.204	10440
557.266	12548
557.328	10269
557.391	8967
557.453	8973
557.515	8515
557.577	10472
557.639	9279
557.701	9230
557.764	9517
557.826	10609
557.888	13420
557.950	12658
558.012	13831
558.074	23320
558.136	63533
558.198	87281
558.260	20837
558.322	14836
558.384	15500
558.446	17671
558.508	20381
558.570	23585
558.632	29227
558.694	40975
558.756	87386
558.818	306005
558.880	376525
558.942	90613
559.003	103807
559.065	29873
559.127	20264
559.189	20240
559.251	25203
559.312	49049
559.374	149041
559.436	290316
559.498	61508
559.559	20900
559.621	20860
559.683	29555
559.744	62754
559.806	193594
559.868	135282
559.929	25397
559.991	25127
560.052	53738
560.114	104384
560.176	42668
560.237	78231
560.299	65269
560.360	13055
560.422	9788
560.483	9618
560.545	8267
560.606	8827
560.667	7531
560.729	7402
560.790	7687
560.852	6994
560.913	6905
560.974	6769
561.036	7155
561.097	7333
561.158	7248
561.220	6462
561.281	6743
561.342	7030
561.403	8594
561.465	7714
561.526	14195
561.587	11494
561.648	6653
561.709	6110
561.771	7243
561.832	6208
561.893	6556
561.954	6704
562.015	5911
562.076	6494
562.137	5844
562.198	6398
562.259	6657
562.320	5353
562.381	7497
562.442	8249
562.503	6963
562.564	6546
562.625	6210
562.686	6805
562.747	5916
562.808	7070
562.869	7785
562.930	9793
562.991	7429
563.051	8028
563.112	7813
563.173	6130
563.234	5464
563.294	6540
563.355	6751
563.416	6675
563.477	7220
563.537	7168
563.598	7411
563.659	7072
563.720	6521
563.780	6599
563.841	6630
563.901	7742
563.962	6731
564.023	7007
564.083	7250
564.144	6685
564.204	7528
564.265	8816
564.325	14555
564.386	34134
564.446	14294
564.507	6958
564.567	6170
564.628	6184
564.688	6591
564.749	6852
564.809	12002
564.869	10946
564.930	6158
564.990	6573
565.050	5405
565.111	6187
565.171	6132
565.231	6308
565.292	6534
565.352	4578
565.412	7332
565.472	6217
565.532	6179
565.593	6313
565.653	6242
565.713	5825
565.773	7318
565.833	7550
565.893	7624
565.953	6597
566.013	6393
566.074	8937
566.134	16226
566.194	27264
566.254	17604
566.314	9796
566.374	6575
566.434	6990
566.494	7315
566.554	6768
566.614	7569
566.673	6957
566.733	8190
566.793	8916
566.853	8297
566.913	8802
566.973	8577
567.033	9433
567.092	9445
567.152	9627
567.212	9331
567.272	10480
567.331	11565
567.391	10982
567.451	13693
567.511	21660
567.570	14321
567.630	10067
567.690	9749
567.749	9859
567.809	9345
567.868	11268
567.928	12521
567.988	15359
568.047	14946
568.107	17992
568.166	24572
568.226	39249
568.285	44319
568.345	35559
568.404	29823
568.464	25549
568.523	22942
568.582	25280
568.642	28184
568.701	37490
568.761	57537
568.820	80266
568.879	68601
568.939	52957
568.998	36907
569.057	28247
569.116	22770
569.176	19760
569.235	16336
569.294	14257
569.353	13008
569.413	13538
569.472	11375
569.531	9644
569.590	9263
569.649	9688
569.708	8308
569.767	10095
569.827	11067
569.886	8016
569.945	7305
570.004	7967
570.063	7297
570.122	7425
570.181	8965
570.240	11487
570.299	9851
570.358	8599
570.417	7075
570.475	6236
570.534	6539
570.593	6936
570.652	7000
570.711	6693
570.770	8264
570.829	8847
570.887	6783
570.946	6110
571.005	6270
571.064	5683
571.122	7565
571.181	9579
571.240	6634
571.299	6965
571.357	9545
571.416	9119
571.475	12830
571.533	9019
571.592	7902
571.650	7449
571.709	6352
571.768	6922
571.826	5872
571.885	5664
571.943	5960
572.002	6843
572.060	6076
572.119	5644
572.177	4914
572.236	4687
572.294	5227
572.352	5457
572.411	4773
572.469	5294
572.528	4603
572.586	6135
572.644	6684
572.703	7862
572.761	4859
572.819	4759
572.877	5161
572.936	5092
572.994	3697
573.052	5537
573.110	5073
573.169	4251
573.227	4330
573.285	5482
573.343	5688
573.401	4835
573.459	5595
573.517	5572
573.576	5267
573.634	6004
573.692	5130
573.750	6144
573.808	5698
573.866	7355
573.924	11276
573.982	7960
574.040	5552
574.098	5340
574.155	4543
574.213	4652
574.271	5352
574.329	5321
574.387	4199
574.445	4287
574.503	4113
574.560	2766
574.618	3799
574.676	4182
574.734	3813
574.792	4705
574.849	4734
574.907	4476
574.965	3722
575.022	3050
575.080	3490
575.138	3864
575.195	4980
575.253	4073
575.311	4299
575.368	4207
575.426	3767
575.483	4211
575.541	4342
575.598	4449
575.656	4913
575.713	4948
575.771	4782
575.828	4322
575.886	4802
575.943	4716
576.001	4203
576.058	4651
576.115	6544
576.173	9016
576.230	8817
576.287	7939
576.345	6552
576.402	5049
576.459	6478
576.517	6904
576.574	9027
576.631	8810
576.688	4824
576.746	5181
576.803	6635
576.860	3953
576.917	5108
576.974	4107
577.031	4133
577.089	4982
577.146	5414
577.203	5473
577.260	6885
577.317	8354
577.374	9234
577.431	6358
577.488	5410
577.545	4600
577.602	5106
577.659	4399
577.716	4181
577.773	5269
577.830	4256
577.886	4823
577.943	4644
578.000	4789
578.057	5317
578.114	4924
578.171	4877
578.227	4869
578.284	5742
578.341	5345
578.398	5905
578.454	6491
578.511	9413
578.568	10183
578.625	7211
578.681	4844
578.738	5356
578.794	4937
578.851	4566
578.908	4256
578.964	4517
579.021	4232
579.077	3439
579.134	4881
579.190	3185
579.247	4478
579.303	4462
579.360	3769
579.416	3742
579.473	3235
579.529	4042
579.586	4895
579.642	5402
579.698	4454
579.755	4690
579.811	4403
579.867	4870
579.924	3280
579.980	4037
580.036	4843
580.093	5556
580.149	6529
580.205	5718
580.261	5713
580.317	6885
580.374	7927
580.430	10329
580.486	6880
580.542	6143
580.598	5683
580.619	5724
580.654	5804
580.692	6082
580.710	6232
580.765	4732
580.767	4690
580.823	5308
580.838	5257
580.879	5159
580.911	4760
580.935	4477
580.984	4596
580.991	4623
581.047	4955
581.057	5106
581.103	5762
581.130	5694
581.159	5641
581.203	6134
581.215	6280
581.270	5536
581.276	5482
581.326	5008
581.349	5187
581.382	5455
581.422	5419
581.438	5430
581.494	5395
581.494	5392
581.550	5521
581.567	5300
581.606	4887
581.640	4916
581.661	4891
581.713	5534
581.717	5600
581.773	5673
581.786	5552
581.829	5092
581.859	4762
581.885	4506
581.932	5267
581.940	5404
581.996	5460
582.004	5357
582.052	4894
582.077	5005
582.107	5052
582.150	5672
582.163	5918
582.219	4597
582.223	4639
582.274	5057
582.296	5407
582.330	6021
582.368	6054
582.386	6053
582.441	5108
582.441	5109
582.497	5512
582.514	5318
582.552	5078
582.587	5156
582.608	5159
582.659	4661
582.663	4622
582.719	5358
582.732	5443
582.774	5762
582.805	5892
582.830	5958
582.877	4938
582.885	4798
582.941	5526
582.950	5491
582.996	5027
583.023	5209
583.052	5682
583.095	6028
583.107	6048
583.162	6494
583.168	6419
583.218	5772
583.240	5696
583.273	5494
583.313	5319
583.328	5349
583.384	5252
583.385	5257
583.439	4953
583.458	4904
583.494	5136
583.531	5377
583.549	5407
583.603	4985
583.605	4969
583.660	5303
583.676	5274
583.715	5321
583.748	5470
583.770	5584
583.820	4957
583.825	4886
583.881	5417
583.893	5380
583.936	5237
583.965	5397
583.991	5536
584.038	5502
584.046	5506
584.101	5578
584.110	5613
584.156	5599
584.183	5456
584.211	5392
584.255	4983
584.266	4857
584.321	4984
584.328	4975
584.376	4984
584.400	4954
584.431	4830
584.472	4943
584.486	5003
584.541	5487
584.545	5516
584.596	5888
584.617	5970
584.651	6260
584.689	6623
584.706	6613
584.761	5845
584.762	5851
584.816	6511
584.834	6516
584.871	6307
584.906	6122
584.926	6120
584.978	6401
584.980	6393
585.035	6734
585.051	6944
585.090	7630
585.123	7841
585.145	7984
585.195	9036
585.200	9159
585.254	9324
585.267	9886
585.309	11298
585.340	12180
585.364	12930
585.412	13396
585.419	13433
585.473	15746
585.484	16709
585.528	21377
585.556	27408
585.583	34573
585.628	56431
585.637	61966
585.692	122852
585.700	127543
585.747	144898
585.772	109628
585.801	58661
585.845	26031
585.856	20715
585.910	12951
585.917	12232
585.965	9812
585.989	9225
586.019	8867
586.061	8533
586.074	8399
586.128	8034
586.133	8062
586.183	8514
586.205	8649
586.237	8492
586.277	8202
586.292	8212
586.346	8351
586.349	8392
586.401	9233
586.421	9705
586.455	9861
586.493	11238
586.509	12415
586.564	17529
586.565	17804
586.618	28565
586.637	25383
586.672	16551
586.709	12620
586.727	11097
586.781	10235
586.781	10217
586.835	9368
586.853	9223
586.889	8479
586.925	8477
586.944	8690
586.996	8981
586.998	8968
587.052	9341
587.068	9409
587.106	9674
587.140	9712
587.161	9469
587.212	9437
587.215	9457
587.269	10114
587.284	10257
587.323	10306
587.356	10526
587.377	10617
587.427	11560
587.431	11612
587.485	11355
587.499	11547
587.539	11896
587.571	12373
587.593	12827
587.643	13756
587.648	13823
587.702	14760
587.715	15192
587.755	16027
587.786	16229
587.810	16627
587.858	17999
587.864	18088
587.917	20266
587.930	20726
587.971	22256
588.001	23807
588.025	24782
588.073	26421
588.079	26705
588.133	30843
588.145	31988
588.187	35117
588.217	37286
588.241	39486
588.288	45562
588.295	46211
588.348	52287
588.360	54213
588.402	61959
588.431	67635
588.456	72027
588.503	83197
588.510	84852
588.564	102432
588.575	107235
588.617	125794
588.646	142584
588.671	159491
588.718	203072
588.725	211240
588.778	301252
588.789	327233
588.832	469280
588.861	588981
588.886	723108
588.932	989391
588.939	1008268
588.993	1010126
589.004	985814
589.047	681271
589.075	501967
589.100	392794
589.147	250068
589.154	238571
589.207	183168
589.218	174808
589.261	163292
589.290	162877
589.314	169226
589.361	196893
589.368	204464
589.421	296125
589.433	323347
589.475	489617
589.504	630326
589.528	746512
589.576	891818
589.582	870487
589.635	536692
589.647	476244
589.689	281104
589.718	177643
589.742	144669
589.790	94956
589.795	91696
589.849	70779
589.861	66974
589.902	58645
589.932	51190
589.955	45478
590.004	36289
590.009	35558
590.062	30213
590.075	29046
590.115	26365
590.146	24931
590.168	23757
590.218	21185
590.222	20940
590.275	18979
590.289	18553
590.328	17944
590.360	17467
590.381	16752
590.431	15638
590.435	15568
590.488	15109
590.503	15055
590.541	13956
590.574	13232
590.594	13030
590.645	12471
590.647	12406
590.700	11892
590.716	11781
590.753	11264
590.787	10854
590.806	10538
590.859	9908
590.859	9865
590.912	9569
590.930	9495
590.965	9222
591.001	9108
591.018	8996
591.071	8490
591.072	8521
591.124	8600
591.143	8593
591.177	8079
591.214	7643
591.230	7834
591.283	8792
591.285	8855
591.336	8410
591.356	8252
591.389	8435
591.427	8858
591.442	8577
591.495	7499
591.498	7455
591.547	7354
591.569	7386
591.600	7098
591.640	6728
591.653	6806
591.706	7302
591.711	7404
591.759	7272
591.782	7266
591.811	7791
591.853	8494
591.864	8230
591.917	6991
591.924	6874
591.969	7012
591.995	7145
592.022	6754
592.066	6186
592.075	6397
592.127	8090
592.137	8458
592.180	9344
592.208	9812
592.233	8536
592.279	6353
592.285	6298
592.338	6255
592.350	6281
592.390	5975
592.421	5818
592.443	5850
592.491	6049
592.495	6000
592.548	5854
592.562	5853
592.600	5534
592.633	5345
592.653	5380
592.704	5556
592.705	5592
592.775	5888
592.846	6621
592.916	4874
592.987	6354
593.058	5572
593.128	6382
593.199	5481
593.270	6159
593.341	4602
593.411	5886
593.482	5616
593.553	6314
593.623	5786
593.694	6356
593.764	6105
593.835	5639
593.906	4842
593.976	5576
594.047	5006
594.117	8380
594.188	8189
594.258	5864
594.329	5815
594.399	5751
594.470	6174
594.540	6339
594.611	5495
594.681	6611
594.751	5503
594.822	7362
594.892	6774
594.963	6752
595.033	6123
595.103	6935
595.174	7664
595.244	11183
595.314	12785
595.384	7488
595.455	6920
595.525	7714
595.595	6869
595.665	7805
595.736	7471
595.806	8075
595.876	6891
595.946	7665
596.016	6984
596.087	6893
596.157	7296
596.227	7014
596.297	7066
596.367	8792
596.437	9037
596.507	12194
596.577	14705
596.647	8652
596.717	8358
596.787	9835
596.857	8650
596.927	8901
596.997	8271
597.067	9052
597.137	9063
597.207	9332
597.277	9195
597.347	9391
597.417	8610
597.487	8901
597.557	8855
597.626	9455
597.696	10141
597.766	12095
597.836	14789
597.906	9417
597.975	7771
598.045	8667
598.115	8691
598.185	8692
598.254	10758
598.324	10629
598.394	9684
598.464	11116
598.533	10378
598.603	10019
598.672	9008
598.742	10538
598.812	9149
598.881	10065
598.951	9678
599.020	11041
599.090	10788
599.159	11038
599.229	9834
599.299	9493
599.368	10564
599.437	10409
599.507	8916
599.576	9985
599.646	9400
599.715	9300
599.785	8877
599.854	9833
599.924	10550
599.993	9011
600.062	7633
600.132	9688
600.201	9042
600.270	11797
600.340	10890
600.409	10834
600.478	10486
600.547	11521
600.617	9963
600.686	8869
600.755	8435
600.824	8236
600.894	7446
600.963	7820
601.032	8145
601.101	8378
601.170	6969
601.239	7157
601.308	7714
601.378	8028
601.447	7566
601.516	7771
601.585	7478
601.654	7911
601.723	8163
601.792	7971
601.861	7470
601.930	8757
601.999	9155
602.068	8654
602.137	7377
602.206	9132
602.275	7944
602.343	9236
602.412	8325
602.481	8564
602.550	8335
602.619	8861
602.688	9009
602.756	9083
602.825	9104
602.894	9654
602.963	9027
603.032	9946
603.100	8980
603.169	9948
603.238	9336
603.307	10006
603.375	10185
603.444	10439
603.513	9652
603.581	9645
603.650	10752
603.719	9574
603.787	8400
603.856	10348
603.924	10245
603.993	11091
604.061	9391
604.130	11129
604.198	11555
604.267	11571
604.335	11005
604.404	11722
604.472	11200
604.541	11765
604.609	12198
604.678	12748
604.746	12492
604.815	13511
604.883	11323
604.951	13372
605.020	11966
605.088	12865
605.156	12179
605.225	13699
605.293	12445
605.361	13473
605.429	11823
605.498	12838
605.566	12947
605.634	14769
605.702	14294
605.771	15069
605.839	14698
605.907	14198
605.975	14467
606.043	12881
606.111	13118
606.180	14079
606.248	12691
606.316	13666
606.384	13075
606.452	15499
606.520	13301
606.588	12687
606.656	12969
606.724	12908
606.792	12808
606.860	10935
606.928	10110
606.996	10378
607.064	8802
607.132	9983
607.200	10934
607.267	11243
607.335	9495
607.403	11865
607.471	10152
607.539	10712
607.607	11618
607.674	9689
607.742	9092
607.810	9543
607.878	10728
607.946	9805
608.013	10291
608.081	11137
608.149	10398
608.216	9866
608.284	11371
608.352	10763
608.419	10044
608.487	14739
608.555	10617
608.622	12262
608.690	10584
608.757	11992
608.825	12076
608.893	12976
608.960	11615
609.028	13006
609.095	14617
609.163	11590
609.230	10540
609.298	9884
609.365	9129
609.432	11482
609.500	10994
609.567	12492
609.635	14821
609.702	15968
609.769	14856
609.837	13158
609.904	10556
609.971	10259
610.039	13250
610.106	21081
610.173	43623
610.241	109470
610.308	61488
610.375	18005
610.442	11597
610.509	10487
610.577	11181
610.644	10654
610.711	10832
610.778	11836
610.845	11729
610.912	12765
610.980	13184
611.047	13994
611.114	12551
611.181	12679
611.248	11282
611.315	13710
611.382	13384
611.449	13504
611.516	14714
611.583	14384
611.650	14152
611.717	15251
611.784	14927
611.851	16969
611.918	18153
611.984	23382
612.051	40136
612.118	89910
612.185	228477
612.252	148198
612.319	33397
612.386	21810
612.452	18178
612.519	18450
612.586	20110
612.653	18206
612.719	16302
612.786	14660
612.853	14027
612.919	12923
612.986	14406
613.053	13447
613.120	12568
613.186	11472
613.253	12637
613.319	12170
613.386	12138
613.453	11754
613.519	12701
613.586	12762
613.652	13685
613.719	12901
613.785	13559
613.852	13334
613.918	12078
613.985	12902
614.051	14184
614.118	17839
614.184	17038
614.250	12133
614.317	12239
614.383	12948
614.449	12578
614.516	12943
614.582	13157
614.648	13033
614.715	12420
614.781	11981
614.847	12418
614.914	12262
614.980	11981
615.046	12357
615.112	12585
615.179	12383
615.245	12673
615.311	14376
615.377	17537
615.443	18332
615.509	15722
615.575	15740
615.642	14072
615.708	15534
615.774	14492
615.840	17951
615.906	21131
615.972	31797
616.038	56943
616.104	124906
616.170	288611
616.236	243225
616.302	59523
616.368	34637
616.434	22872
616.500	21490
616.565	23425
616.631	29685
616.697	23502
616.763	24692
616.829	39098
616.895	75226
616.961	71516
617.026	31816
617.092	17384
617.158	15827
617.224	13314
617.289	13746
617.355	11563
617.421	10670
617.487	12098
617.552	10716
617.618	10522
617.684	9939
617.749	12051
617.815	10839
617.880	9815
617.946	10494
618.012	9314
618.077	9768
618.143	9838
618.208	10292
618.274	10403
618.339	11053
618.405	7926
618.470	10087
618.536	9078
618.601	10166
618.667	8046
618.732	8763
618.798	6976
618.863	8029
618.928	6850
618.994	8988
619.059	9258
619.124	8640
619.190	7983
619.255	7860
619.320	7930
619.386	8574
619.451	6277
619.516	8182
619.581	7528
619.647	7851
619.712	7517
619.777	7494
619.842	7792
619.907	8229
619.972	7209
620.038	7853
620.103	6177
620.168	6144
620.233	8024
620.298	7712
620.363	7131
620.428	7909
620.493	7997
620.558	8275
620.623	8289
620.688	7815
620.753	7564
620.818	8012
620.883	7225
620.948	7745
621.013	8332
621.078	7957
621.143	6293
621.207	10757
621.272	7859
621.337	8533
621.402	8943
621.467	11200
621.532	10578
621.596	9586
621.661	8505
621.726	8494
621.791	7869
621.855	8874
621.920	8523
621.985	9187
622.049	10428
622.114	9955
622.179	9263
622.243	8414
622.308	7534
622.373	11238
622.437	9250
622.502	8607
622.566	8242
622.631	7482
622.695	8844
622.760	9221
622.824	7770
622.889	8662
622.953	7337
623.018	10280
623.082	9425
623.147	9091
623.211	8201
623.276	8310
623.340	6591
623.404	8087
623.469	8016
623.533	8015
623.597	7280
623.662	8235
623.726	7205
623.790	7176
623.854	6014
623.919	7576
623.983	6468
624.047	7221
624.111	7021
624.176	6708
624.240	7046
624.304	8939
624.368	6372
624.432	7989
624.496	7631
624.560	8127
624.625	6919
624.689	8544
624.753	8238
624.817	7769
624.881	6712
624.945	6725
625.009	5797
625.073	7920
625.137	5998
625.201	7689
625.265	7143
625.329	7156
625.393	7138
625.456	7542
625.520	7711
625.584	9013
625.648	9635
625.712	15121
625.776	32924
625.839	35910
625.903	13306
625.967	7850
626.031	14746
626.095	21906
626.158	8339
626.222	4813
626.286	5648
626.349	4914
626.413	4514
626.477	6535
626.540	4939
626.604	4879
626.668	5997
626.731	4581
626.795	4969
626.858	5390
626.922	3131
626.986	5234
627.049	3111
627.113	6275
627.176	5039
627.240	5136
627.303	4663
627.366	3851
627.430	5112
627.493	4691
627.557	4493
627.620	6310
627.684	4776
627.747	5230
627.810	2317
627.874	5250
627.937	3039
628.000	5886
628.064	3912
628.127	2477
628.190	3792
628.253	3952
628.317	2752
628.380	4518
628.443	3217
628.506	3569
628.569	2979
628.632	3204
628.696	3168
628.759	3485
628.822	2308
628.885	3257
628.948	2976
629.011	3097
629.074	2585
629.137	2544
629.200	1697
629.263	4057
629.326	1837
629.389	2544
629.452	2750
629.515	3289
629.578	2238
629.641	3475
629.704	1785
629.767	2397
629.830	2809
629.892	2756
629.955	1363
630.018	4252
630.081	2473
630.144	3777
630.207	188
630.269	3964
630.332	3525
630.395	2608
630.458	2162
630.520	1369
630.583	2098
630.646	3005
630.708	2173
630.771	1636
630.834	4025
630.896	2467
630.959	1988
631.021	1960
631.084	2330
631.146	2874
631.209	3256
631.272	1906
631.334	2904
631.397	2686
631.459	2769
631.522	2835
631.584	2730
631.646	4046
631.709	3036
631.771	4291
631.834	2932
631.896	3325
631.958	1842
632.021	3624
632.083	1722
632.145	2775
632.208	1636
632.270	2837
632.332	1438
632.395	2052
632.457	3419
632.519	1879
632.581	3166
632.643	2117
632.706	2002
632.768	1607
632.830	2307
632.892	1606
632.954	1578
633.016	3176
633.078	1521
633.141	1714
633.203	1308
633.265	2092
633.327	1785
633.389	1789
633.451	1987
633.513	2088
633.575	3220
633.637	2112
633.698	1309
633.760	2739
633.822	1566
633.884	1996
633.946	1766
634.008	2773
634.070	3313
634.132	2978
634.193	3490
634.255	4299
634.317	2983
634.379	4660
634.441	3243
634.502	2939
634.564	2850
634.626	2206
634.687	1907
634.749	2704
634.811	2217
634.873	1418
634.934	2019
634.996	2634
635.057	1585
635.119	1360
635.181	1546
635.242	3006
635.304	191
635.365	4640
635.427	1491
635.488	2667
635.550	1175
635.611	2679
635.673	-261
635.734	3099
635.796	2042
635.857	4305
635.918	2448
635.980	5708
636.041	4402
636.102	4547
636.164	4133
636.225	6150
636.286	1285
636.348	3334
636.409	2295
636.470	1920
636.531	1758
636.593	2218
636.654	2183
636.715	2337
636.776	1277
636.838	585
636.899	1997
636.960	1065
637.021	1466
637.082	999
637.143	1347
637.204	1027
637.265	599
637.326	2033
637.387	1239
637.448	644
637.509	1591
637.570	2145
637.631	2156
637.692	864
637.753	-211
637.814	2226
637.875	872
637.936	2524
637.997	525
638.058	1540
638.119	1703
638.179	1405
638.240	32
638.301	31
638.362	371
638.423	967
638.483	1376
638.544	236
638.605	982
638.666	-265
638.726	1430
638.787	960
638.848	702
638.908	1181
638.969	1084
639.030	702
639.090	-810
639.151	433
639.211	1070
639.272	2214
639.332	1501
639.393	1249
639.453	563
639.514	1135
639.574	1170
639.635	223
639.695	1440
639.756	24
639.816	1143
639.877	1766
639.937	2083
639.997	2232
640.058	6
640.118	525
640.178	1595
640.239	908
640.299	482
640.359	1151
640.420	791
640.480	2296
640.540	1030
640.600	1321
640.661	1884
640.721	1300
640.781	3635
640.841	1017
640.901	1615
640.961	1179
641.021	725
641.082	777
641.142	564
641.202	2143
641.262	-551
641.322	1300
641.382	-472
641.442	975
641.502	1371
641.562	731
641.622	515
641.682	1137
641.742	451
641.802	1537
641.861	1315
641.921	451
641.981	1374
642.041	2205
642.101	940
642.161	-912
642.221	399
642.280	805
642.340	952
642.400	315
642.460	1657
642.519	495
642.579	308
642.639	1549
642.698	-2795
642.758	1599
642.818	-1
642.877	-574
642.937	12
642.997	1675
643.056	586
643.116	-759
643.175	1756
643.235	915
643.294	977
643.354	1681
643.414	1603
643.473	2741
643.532	2088
643.592	3776
643.651	7212
643.711	17655
643.770	36646
643.830	90862
643.889	185779
643.948	42265
644.008	6556
644.067	3454
644.126	1298
644.186	1860
644.245	1279
644.304	-329
644.363	2108
644.423	-560
644.482	1221
644.541	1976
644.600	-418
644.659	2226
644.719	1402
644.778	3977
644.837	8261
644.896	20722
644.955	46891
645.014	13438
645.073	2754
645.132	857
645.191	872
645.250	954
645.309	2754
645.368	930
645.427	2331
645.486	3547
645.545	8753
645.604	1494
645.663	1134
645.722	776
645.781	2004
645.840	1663
645.898	1598
645.957	5042
646.016	6112
646.075	15774
646.134	33057
646.192	93129
646.251	129684
646.310	17240
646.369	3528
646.427	2875
646.486	918
646.545	1971
646.603	877
646.662	1295
646.721	87
646.779	546
646.838	-379
646.896	1544
646.955	1891
647.014	5866
647.072	9704
647.131	31578
647.189	11686
647.248	703
647.306	519
647.365	1197
647.423	-1917
647.481	1660
647.540	-830
647.598	112
647.657	-3
647.715	638
647.773	-1226
647.832	740
647.890	-1428
647.948	110
648.007	-322
648.065	-560
648.123	-916
648.181	1208
648.240	-381
648.298	-280
648.356	-374
648.414	452
648.472	-326
648.531	262
648.589	-607
648.647	484
648.705	38
648.763	-566
648.821	117
648.879	552
648.937	11
648.995	455
649.053	990
649.111	3440
649.169	5740
649.227	12193
649.285	26206
649.343	80571
649.401	34150
649.459	5315
649.516	2945
649.574	649
649.632	2880
649.690	4040
649.748	2484
649.806	2573
649.863	7941
649.921	21345
649.979	11288
650.037	1496
650.094	-923
650.152	501
650.210	-739
650.268	1851
650.325	208
650.383	490
650.440	-641
650.498	718
650.556	-1272
650.613	-942
650.671	165
650.728	-294
650.786	-594
650.843	748
650.901	-1879
650.958	954
651.016	-711
651.073	-368
651.131	-1735
651.188	-546
651.246	-629
651.303	-558
651.360	-132
651.418	-352
651.475	67
651.532	-621
651.590	-483
651.647	-1130
651.704	-612
651.762	-779
651.819	-18
651.876	-710
651.933	-503
651.990	-139
652.048	-1708
652.105	-732
652.162	-695
652.219	-1667
652.276	-681
652.333	-160
652.390	-1465
652.448	-438
652.505	-555
652.562	-236
652.619	-584
652.676	-106
652.733	85
652.790	-840
652.847	-1479
652.904	-94
652.961	-1771
653.017	-987
653.074	166
653.131	-275
653.188	-1538
653.245	434
653.302	-868
653.359	-866
653.415	-10
653.472	-432
653.529	-239
653.586	-1006
653.642	-1144
653.699	70
653.756	-1077
653.813	-794
653.869	-130
653.926	-950
653.983	-1183
654.039	-57
654.096	-1193
654.152	-130
654.209	-1737
654.266	1
654.322	-1062
654.379	155
654.435	-319
654.492	137
654.548	299
654.605	557
654.661	460
654.717	-213
654.774	-551
654.830	-451
654.887	-350
654.943	-318
655.000	-83
655.056	139
655.112	-1000
655.168	-426
655.225	-1095
655.281	488
655.337	71
655.394	1374
655.450	830
655.506	447
655.562	1380
655.618	2059
655.675	-984
655.731	34
655.787	-374
655.843	295
655.899	-1561
655.955	443
656.011	-264
656.067	-1058
656.123	57
656.179	-448
656.235	286
656.291	-648
656.347	226
656.403	-1006
656.459	-480
656.515	323
656.571	-367
656.627	28
656.683	-514
656.739	-69
656.795	-728
656.850	442
656.906	-763
656.962	265
657.018	-1249
657.074	-528
657.129	-1009
657.185	156
657.241	685
657.297	16
657.352	-316
657.408	-671
657.464	-636
657.519	-302
657.575	-1818
657.630	-705
657.686	-1566
657.742	-1048
657.797	-1057
657.853	-579
657.908	-677
657.964	-1491
658.019	-592
658.075	-363
658.130	202
658.186	-694
658.241	-165
658.297	-1720
658.352	-1286
658.407	-506
658.463	-1151
658.518	500
658.573	-808
658.629	-1445
658.684	-770
658.739	261
658.795	-1903
658.850	-424
658.905	-1064
658.960	-447
659.016	-1816
659.071	-594
659.126	-567
659.181	-1405
659.236	-231
659.291	687
659.346	-1353
659.401	-447
659.457	166
659.512	-463
659.567	-74
659.622	-658
659.677	-735
659.732	-1169
659.787	-1340
659.842	-961
659.897	-276
659.952	692
660.007	-974
660.061	-1131
660.116	-1425
660.171	-1243
660.226	-952
660.281	307
660.336	-1628
660.391	-704
660.445	-1805
660.500	-741
660.555	-1206
660.610	-649
660.664	-755
660.719	-1101
660.774	-1305
660.828	-429
660.883	-974
660.938	-320
660.992	-2314
661.047	-323
661.101	-933
661.156	-1201
661.211	-845
661.265	442
661.320	-963
661.374	-590
661.429	-1369
661.483	-855
661.538	-2221
661.592	-1119
661.647	-484
661.701	-264
661.755	-1414
661.810	-559
661.864	-1050
661.919	-994
661.973	-296
662.027	-875
662.081	-1785
662.136	-968
662.190	-909
662.244	-592
662.299	-1495
662.353	-876
662.407	-768
662.461	-192
662.515	-938
662.569	-166
662.624	-543
662.678	-1255
662.732	-1887
662.786	-547
662.840	-1021
662.894	-1298
662.948	-1457
663.002	-1024
663.056	-1234
663.110	-941
663.164	-1445
663.218	-960
663.272	-595
663.326	-1149
663.380	-1378
663.434	-1234
663.488	-1323
663.542	-794
663.595	-1588
663.649	-1222
663.703	-1202
663.757	11
663.811	-1349
663.864	-1272
663.918	-1075
663.972	-1031
664.026	-538
664.079	-1600
664.133	-654
664.187	-564
664.240	-1748
664.294	-33
664.348	-567
664.401	-831
664.455	-922
664.508	-991
664.562	-1044
664.615	-340
664.669	-1480
664.722	-507
664.776	-1300
664.829	-1004
664.883	-1906
664.936	-1200
664.990	-1271
665.043	139
665.097	-1776
665.150	-171
665.203	-1570
665.257	-788
665.310	-961
665.363	-919
665.417	-568
665.470	-910
665.523	-661
665.576	-758
665.630	-1291
665.683	-297
665.736	-733
665.789	-1291
665.842	-1765
665.895	-1374
665.949	-1156
666.002	-983
666.055	-1633
666.108	-491
666.161	-1493
666.214	-248
666.267	-916
666.320	-23
666.373	-765
666.426	-775
666.479	-1706
666.532	-138
666.585	-1460
666.638	924
666.691	-894
666.744	-635
666.796	-943
666.849	569
666.902	-569
666.955	-1059
667.008	-1150
667.060	-686
667.113	-1331
667.166	-921
667.219	-959
667.271	-894
667.324	-630
667.377	-694
667.430	-1375
667.482	-1209
667.535	-1039
667.587	-592
667.640	-1427
667.693	-938
667.745	-1231
667.798	373
667.850	-1636
667.903	-458
667.955	-503
668.008	-1248
668.060	-1196
668.113	-1211
668.165	-987
668.218	-1076
668.270	-506
668.322	-342
668.375	-1721
668.427	-490
668.479	-1047
668.532	-88
668.584	-1125
668.636	-512
668.689	-707
668.741	-566
668.793	-1202
668.845	-546
668.898	-743
668.950	-921
669.002	-1522
669.054	-1336
669.106	-1466
669.158	-383
669.211	-1726
669.263	-907
669.315	-701
669.367	-965
669.419	-1569
669.471	-276
669.523	-729
669.575	293
669.627	-761
669.679	-684
669.731	-435
669.783	-432
669.835	-985
669.886	-558
669.938	-1030
669.990	-154
670.042	-2107
670.094	40
670.146	-584
670.197	-1062
670.249	-747
670.301	-1120
670.353	-1038
670.404	42
670.456	-304
670.508	480
670.560	1414
670.611	3394
670.663	7718
670.715	21441
670.766	32321
670.818	5990
670.869	-370
670.921	-436
670.972	-193
671.024	-112
671.075	-20
671.127	68
671.178	-977
671.230	-367
671.281	-384
671.333	-744
671.384	-1425
671.436	-373
671.487	-298
671.538	-8
671.590	1160
671.641	3197
671.692	5608
671.744	11031
671.795	6836
671.846	2766
671.897	301
671.949	165
672.000	-1169
672.051	-424
672.102	-371
672.153	-1003
672.204	-1520
672.256	-314
672.307	-767
672.358	-684
672.409	-768
672.460	-592
672.511	-1218
672.562	-814
672.613	-1220
672.664	-472
672.715	-649
672.766	-1136
672.817	-956
672.868	-416
672.919	-1941
672.970	-795
673.021	-794
673.071	-1524
673.122	-981
673.173	-1110
673.224	-652
673.275	-727
673.326	-858
673.376	-678
673.427	-1616
673.478	-807
673.528	-1226
673.579	-946
673.630	-1756
673.680	69
673.731	-1750
673.782	-1779
673.832	-1427
673.883	103
673.934	-1024
673.984	-1004
674.035	-601
674.085	-888
674.136	-704
674.186	-276
674.237	-1016
674.287	-559
674.338	-1102
674.388	-1059
674.438	-1570
674.489	-157
674.539	-633
674.589	-606
674.640	-1460
674.690	-905
674.740	-1227
674.791	-668
674.841	-1180
674.891	-10
674.942	-1288
674.992	-1368
675.042	-1633
675.092	-872
675.142	-1184
675.193	-905
675.243	-1924
675.293	-784
675.343	-1474
675.393	-1038
675.443	-898
675.493	-406
675.543	-1547
675.593	-1186
675.643	-888
675.693	-1149
675.743	-471
675.793	-819
675.843	-1327
675.893	-1117
675.943	-1081
675.993	-1274
676.043	-536
676.093	-571
676.142	-1495
676.192	-43
676.242	-708
676.292	-1583
676.341	-1274
676.391	-1147
676.441	-825
676.491	-811
676.540	-1054
676.590	-1049
676.640	-1417
676.689	-789
676.739	-1942
676.789	-911
676.838	-1717
676.888	-1142
676.937	-792
676.987	-663
677.037	-2178
677.086	-1602
677.136	-1525
677.185	-1583
677.235	-1907
677.284	-670
677.333	-935
677.383	-1255
677.432	-1613
677.482	-982
677.531	-722
677.580	-1344
677.630	-2109
677.679	-1177
677.728	-1588
677.778	-758
677.827	-1549
677.876	-1063
677.925	-1540
677.975	-1599
678.024	-1923
678.073	-1611
678.122	-1406
678.171	-1109
678.220	-2342
678.269	-668
678.319	-777
678.368	-346
678.417	-1486
678.466	-423
678.515	-1291
678.564	-802
678.613	-1503
678.662	-1694
678.711	-1367
678.760	-774
678.809	-1322
678.857	-688
678.906	-1640
678.955	-1078
679.004	-930
679.053	-775
679.102	-1458
679.151	-836
679.199	-1697
679.248	-1147
679.297	-1653
679.346	-673
679.394	-1412
679.443	-913
679.492	-1648
679.540	-715
679.589	-1411
679.638	-1095
679.686	-1690
679.735	-680
679.784	-1881
679.832	-956
679.881	-2242
679.929	-1088
679.978	-2320
680.026	-1465
680.075	-1524
680.123	-1734
680.172	-1604
680.220	-1011
680.268	-1012
680.317	-906
680.365	-2501
680.414	-1605
680.462	-1557
680.510	-637
680.559	-1829
680.607	-1276
680.655	-1900
680.703	-948
680.752	-1811
680.800	-764
680.848	-2638
680.896	-1201
680.945	-1778
680.993	-1548
681.041	-1620
681.089	-1476
681.137	-1490
681.185	-743
681.233	-1369
681.258	-1275
681.281	-1200
681.329	-1415
681.377	-1644
681.380	-1623
681.425	-1478
681.473	-593
681.502	-1283
681.521	-1787
681.569	-964
681.617	-987
681.624	-907
681.665	-478
681.713	-1754
681.745	-1233
681.761	-1007
681.809	-1827
681.857	-305
681.867	-472
681.904	-1092
681.952	-1008
681.989	-1414
682.000	-1551
682.048	-1266
682.096	-970
682.111	-746
682.143	-304
682.191	-1427
682.233	-655
682.239	-552
682.286	-981
682.334	-857
682.354	-1022
682.382	-1286
682.430	-586
682.476	-1391
682.477	-1419
682.525	-936
682.572	-1637
682.598	-820
682.620	-130
682.667	-961
682.715	-559
682.720	-590
682.763	-1041
682.810	-496
682.841	-503
682.857	-513
682.905	-391
682.952	287
682.963	321
683.000	394
683.047	-696
683.085	298
683.095	568
683.142	-1083
683.190	-289
683.206	-325
683.237	-470
683.284	455
683.328	-843
683.332	-958
683.379	-465
683.426	-341
683.449	-238
683.473	-136
683.521	-73
683.568	-146
683.571	-124
683.615	38
683.662	518
683.693	-113
683.709	-484
683.757	-646
683.804	-398
683.814	-273
683.851	140
683.898	122
683.936	188
683.945	191
683.992	-149
684.039	-440
684.057	-296
684.086	-51
684.133	-769
684.179	-226
684.180	-217
684.227	398
684.274	391
684.300	488
684.321	557
684.368	-395
684.415	451
684.422	388
684.462	-123
684.509	256
684.543	-164
684.556	-287
684.603	598
684.649	-235
684.665	-118
684.696	70
684.743	261
684.786	462
684.790	477
684.837	293
684.883	1272
684.908	709
684.930	136
684.977	900
685.023	483
685.029	484
685.070	416
685.117	290
685.150	753
685.164	968
685.210	695
685.257	1169
685.272	1064
685.303	698
685.350	1153
685.393	866
685.396	839
685.443	1267
685.490	863
685.514	630
685.536	476
685.583	699
685.629	586
685.636	626
685.675	760
685.722	769
685.757	642
685.768	588
685.815	879
685.861	1040
685.878	973
685.908	1019
685.954	653
686.000	1921
686.000	1939
686.047	1221
686.093	2027
686.121	1984
686.139	1743
686.185	1428
686.232	1437
686.242	1291
686.278	897
686.324	757
686.363	675
686.370	680
686.416	1120
686.463	944
686.484	1283
686.509	1608
686.555	1023
686.601	916
686.606	1008
686.647	1905
686.693	863
686.727	1222
686.739	1364
686.785	1513
686.831	1920
686.848	1768
686.877	1388
686.923	1756
686.969	1309
686.969	1307
687.015	1792
687.061	1550
687.090	1450
687.107	1286
687.153	1345
687.199	1366
687.211	1232
687.245	1158
687.291	1954
687.332	1730
687.336	1693
687.382	2012
687.428	1767
687.453	1958
687.474	1989
687.520	1386
687.565	1439
687.574	1312
687.611	1171
687.657	2226
687.695	2097
687.702	2107
687.748	2904
687.794	2945
687.816	3590
687.839	3826
687.885	2796
687.931	2123
687.937	2004
687.976	1441
688.022	1904
688.058	1773
688.067	1787
688.113	1586
688.158	1190
688.179	1334
688.204	1543
688.249	1417
688.295	1968
688.300	1918
688.340	1655
688.386	2353
688.421	2123
688.431	2028
688.477	1837
688.522	1767
688.542	1855
688.567	2081
688.613	1912
688.658	2443
688.663	2410
688.703	1903
688.749	1857
688.784	1942
688.794	2030
688.839	1885
688.884	2287
688.905	2355
688.930	2356
688.975	2289
689.020	2352
689.026	2333
689.065	2299
689.110	2302
689.146	2477
689.155	2516
689.201	2233
689.246	2124
689.267	2194
689.291	2244
689.336	2115
689.381	1836
689.388	1837
689.426	1946
689.471	2420
689.509	1872
689.516	1783
689.561	2599
689.606	2330
689.630	2456
689.651	2545
689.696	2116
689.741	2415
689.750	2417
689.785	2452
689.830	2406
689.871	2098
689.875	2077
689.920	2465
689.965	2614
689.992	2361
690.010	2207
690.054	2205
690.099	2703
690.112	2555
690.144	2122
690.189	2378
690.233	2151
690.233	2156
690.278	2576
690.323	2489
690.354	2633
690.367	2667
690.412	2345
690.457	2615
690.474	2551
690.501	2530
690.546	2261
690.590	2604
690.595	2572
690.635	2372
690.680	2395
690.716	2478
690.724	2496
690.769	2438
690.813	3091
690.836	2756
690.857	2673
690.902	3379
690.946	3264
690.957	3555
690.991	4416
691.035	4173
691.077	4693
691.080	4720
691.124	4891
691.168	5087
691.198	4827
691.213	4560
691.257	4626
691.301	3939
691.318	3757
691.346	3591
691.390	3280
691.434	3040
691.439	2977
691.478	2782
691.522	3203
691.559	3035
691.567	3025
691.611	3392
691.655	3218
691.680	3322
691.699	3349
691.743	3227
691.787	3293
691.800	3206
691.831	3157
691.875	3373
691.919	3462
691.921	3456
691.964	3541
692.008	3694
692.041	3838
692.052	3888
692.096	3637
692.139	3797
692.162	3784
692.183	3658
692.227	3225
692.271	2995
692.282	2963
692.315	3368
692.359	3405
692.402	4379
692.403	4392
692.447	3628
692.490	3665
692.523	3259
692.534	3261
692.578	3678
692.622	3498
692.643	3665
692.666	3665
692.709	3295
692.753	3338
692.763	3245
692.797	3196
692.840	3373
692.884	3215
692.884	3225
692.928	3619
692.971	3331
693.004	3566
693.015	3615
693.059	3585
693.102	3545
693.124	3460
693.146	3497
693.189	3612
693.233	3641
693.245	3705
693.276	3941
693.320	4034
693.363	4156
693.365	4145
693.407	3937
693.450	4021
693.485	3879
693.493	3914
693.537	4357
693.580	4070
693.605	4236
693.624	4479
693.667	4667
693.710	5249
693.725	5369
693.753	6418
693.797	8004
693.840	9803
693.845	9975
693.883	9301
693.926	8477
693.966	7628
693.970	7530
694.013	6438
694.056	5446
694.086	4604
694.099	4505
694.142	4409
694.185	4176
694.206	4019
694.229	4131
694.272	4228
694.315	4770
694.326	4715
694.358	4360
694.401	4532
694.444	4187
694.446	4170
694.487	4172
694.530	4159
694.566	4093
694.573	4043
694.616	3494
694.659	3192
694.686	2841
694.702	2890
694.745	3233
694.787	3398
694.806	3578
694.830	3784
694.873	3540
694.916	3833
694.926	3805
694.959	3561
695.002	3412
695.044	3291
695.046	3275
695.087	3438
695.130	3385
695.166	3605
695.172	3676
695.215	3741
695.258	4104
695.286	4163
695.301	4072
695.343	3847
695.386	3627
695.406	3550
695.428	3631
695.471	3632
695.514	3591
695.526	3627
695.556	3701
695.599	3771
695.641	3647
695.646	3634
695.684	3746
695.726	3758
695.766	3790
695.769	3818
695.811	3895
695.854	4240
695.886	4342
695.896	4300
695.938	4221
695.981	3828
696.005	3844
696.023	3961
696.065	3865
696.108	3973
696.125	3935
696.150	4116
696.192	4507
696.235	4931
696.245	5017
696.277	4770
696.319	4316
696.361	3865
696.365	3814
696.404	3968
696.446	4099
696.485	4295
696.488	4340
696.530	4741
696.572	4973
696.604	5320
696.614	5261
696.656	4586
696.698	4207
696.724	3863
696.740	3830
696.783	3806
696.825	3799
696.844	3753
696.867	3895
696.909	4135
696.951	4422
696.964	4459
696.992	4293
697.034	4070
697.076	3766
697.083	3757
697.118	4064
697.160	4031
697.202	4181
697.203	4168
697.244	4032
697.286	3964
697.323	3720
697.327	3755
697.369	4097
697.411	4324
697.442	4581
697.453	4598
697.494	4442
697.536	4471
697.562	4392
697.578	4428
697.620	4448
697.661	4538
697.682	4568
697.703	4588
697.744	4582
697.786	4595
697.801	4567
697.828	4679
697.869	4835
697.911	4931
697.921	4965
697.952	4783
697.994	4479
698.035	4208
698.040	4149
698.077	4141
698.118	4175
698.160	4189
698.160	4173
698.201	4257
698.243	4291
698.279	4360
698.284	4405
698.325	4645
698.367	4912
698.399	5035
698.408	4938
698.449	4472
698.491	3995
698.518	3669
698.532	3779
698.573	4061
698.614	4336
698.638	4477
698.656	4344
698.697	3998
698.738	3655
698.757	3484
698.779	3812
698.820	4401
698.862	4987
698.877	5190
698.903	5273
698.944	5374
698.985	5474
698.996	5485
699.026	5396
699.067	5249
699.116	5058
699.235	4237
699.354	4814
699.474	4436
699.593	5014
699.713	5705
699.832	5234
699.951	4655
700.070	5200
700.190	4678
700.309	4660
700.428	6051
700.547	5048
700.667	4541
700.786	5473
700.905	3880
701.024	5050
701.143	4481
701.262	3208
701.381	3979
701.500	4158
701.619	4669
701.738	4615
701.857	4271
701.976	4434
702.095	3753
702.214	4327
702.333	3794
702.452	3940
702.571	3906
702.690	3801
702.809	2845
702.928	3795
703.047	4526
703.165	4582
703.284	4486
703.403	4136
703.522	3821
703.640	4347
703.759	4881
703.878	8362
703.997	4434
704.115	4031
704.234	4212
704.353	3702
704.471	2790
704.590	3155
704.708	3777
704.827	4370
704.946	2927
705.064	5049
705.183	2886
705.301	4455
705.420	6244
705.538	5451
705.656	4054
705.775	4283
705.893	5230
706.012	6638
706.130	4318
706.249	4829
706.367	5040
706.485	5997
706.604	4882
706.722	4442
706.840	7969
706.958	10458
707.077	6282
707.195	4427
707.313	4552
707.431	4882
707.549	4177
707.668	3288
707.786	4513
707.904	3558
708.022	3814
708.140	3945
708.258	3652
708.376	4331
708.494	3880
708.612	4126
708.730	6858
708.848	5697
708.966	5693
709.084	5099
709.202	5788
709.320	4912
709.438	5577
709.556	5620
709.674	4655
709.791	6278
709.909	4491
710.027	5232
710.145	4809
710.263	4708
710.380	4996
710.498	5889
710.616	4459
710.733	4294
710.851	5351
710.969	6031
711.086	4852
711.204	5018
711.322	4972
711.439	5515
711.557	4736
711.674	5135
711.792	5516
711.909	4277
712.027	4391
712.144	4664
712.262	4814
712.379	5329
712.497	7504
712.614	7361
712.732	5664
712.849	5767
712.966	6457
713.084	6774
713.201	5872
713.318	5358
713.436	5969
713.553	5836
713.670	5861
713.787	7135
713.905	7562
714.022	6573
714.139	4457
714.256	6587
714.373	9758
714.490	15545
714.608	39911
714.725	165264
714.842	172516
714.959	13630
715.076	7621
715.193	6553
715.310	4870
715.427	5759
715.544	4587
715.661	5608
715.778	5152
715.895	4721
716.011	5474
716.128	5602
716.245	4636
716.362	5026
716.479	4659
716.596	5040
716.713	4801
716.829	4319
716.946	3938
717.063	4324
717.180	4005
717.296	3944
717.413	4336
717.530	3981
717.646	4284
717.763	4053
717.880	3391
717.996	3842
718.113	3047
718.229	3822
718.346	4052
718.462	4058
718.579	3607
718.695	5950
718.812	6226
718.928	6346
719.045	4812
719.161	3792
719.277	3264
719.394	3906
719.510	3449
719.626	3961
719.743	5725
719.859	7044
719.975	11649
720.092	46850
720.208	106509
720.324	13859
720.440	4995
720.557	4970
720.673	6247
720.789	9839
720.905	24799
721.021	7963
721.137	4254
721.253	4138
721.369	3439
721.486	3705
721.602	6535
721.718	3162
721.834	2541
721.950	3492
722.066	2722
722.181	2701
722.297	3656
722.413	3017
722.529	3437
722.645	2299
722.761	3070
722.877	2532
722.993	2786
723.108	2857
723.224	3303
723.340	2592
723.456	3120
723.571	4028
723.687	2208
723.803	2461
723.918	1797
724.034	2809
724.150	2820
724.265	3511
724.381	8033
724.497	10953
724.612	2843
724.728	2708
724.843	2577
724.959	3221
725.074	8429
725.190	9585
725.305	3436
725.421	2375
725.536	2378
725.651	2429
725.767	2322
725.882	2300
725.997	2640
726.113	2665
726.228	1885
726.343	1873
726.459	2704
726.574	1985
726.689	1448
726.804	1634
726.920	1621
727.035	2195
727.150	2033
727.265	2581
727.380	2687
727.495	3472
727.610	1570
727.725	2048
727.841	1692
727.956	3066
728.071	3482
728.186	1539
728.301	1212
728.416	2226
728.531	2086
728.645	1865
728.760	1736
728.875	2327
728.990	1776
729.105	2552
729.220	1476
729.335	1542
729.449	947
729.564	1617
729.679	1890
729.794	1776
729.908	2765
730.023	1727
730.138	2194
730.253	1681
730.367	1677
730.482	1134
730.596	1805
730.711	1855
730.826	1913
730.940	3584
731.055	1348
731.169	1867
731.284	1643
731.398	1749
731.513	2684
731.627	2616
731.742	2944
731.856	3288
731.970	1940
732.085	2039
732.199	4013
732.313	7733
732.428	18085
732.542	55825
732.656	33201
732.771	6130
732.885	2319
732.999	1936
733.113	2899
733.227	2624
733.342	1064
733.456	1425
733.570	1818
733.684	1718
733.798	2002
733.912	1233
734.026	1390
734.140	1489
734.254	1304
734.368	3778
734.482	5369
734.596	925
734.710	682
734.824	1785
734.938	1483
735.052	1192
735.166	1537
735.280	1783
735.393	1615
735.507	1153
735.621	1760
735.735	5655
735.849	2223
735.962	1112
736.076	2481
736.190	1836
736.303	2606
736.417	3661
736.531	1119
736.644	2161
736.758	1588
736.872	788
736.985	509
737.099	1003
737.212	1271
737.326	1676
737.439	1255
737.553	1636
737.666	1013
737.780	922
737.893	136
738.007	1226
738.120	448
738.233	1042
738.347	649
738.460	1118
738.573	683
738.687	831
738.800	1503
738.913	540
739.026	1094
739.140	493
739.253	814
739.366	665
739.479	1005
739.592	1217
739.705	1048
739.818	1711
739.932	627
740.045	889
740.158	1454
740.271	1129
740.384	513
740.497	1577
740.610	1129
740.723	1074
740.836	510
740.949	1336
741.062	1270
741.174	1306
741.287	1038
741.400	541
741.513	1560
741.626	1196
741.739	1663
741.851	1675
741.964	1061
742.077	1517
742.189	1584
742.302	3772
742.415	1663
742.527	1423
742.640	-80
742.753	838
742.865	385
742.978	377
743.090	811
743.203	1097
743.316	880
743.428	445
743.541	647
743.653	1176
743.766	497
743.878	1669
743.990	1963
744.103	3770
744.215	4065
744.327	833
744.440	1706
744.552	1798
744.664	2
744.777	-133
744.889	21
745.001	751
745.113	915
745.226	1143
745.338	519
745.450	619
745.562	-286
745.674	1028
745.786	804
745.898	1352
746.010	269
746.122	270
746.234	199
746.347	422
746.459	1052
746.570	725
746.682	2067
746.794	7326
746.906	2433
747.018	1439
747.130	352
747.242	977
747.354	180
747.466	867
747.577	485
747.689	848
747.801	531
747.913	420
748.024	-70
748.136	1
748.248	-568
748.359	1396
748.471	456
748.583	214
748.694	-146
748.806	1271
748.918	1649
749.029	640
749.141	956
749.252	1450
749.364	-397
749.475	1110
749.587	677
749.698	810
749.809	948
749.921	859
750.032	397
750.144	162
750.255	-43
750.366	457
750.478	253
750.589	-58
750.700	-591
750.811	588
750.923	474
751.034	808
751.145	949
751.256	-161
751.367	348
751.479	-352
751.590	-116
751.701	1311
751.812	-12
751.923	382
752.034	-284
752.145	637
752.256	1011
752.367	1180
752.478	-124
752.589	774
752.700	201
752.811	226
752.922	346
753.032	37
753.143	501
753.254	-233
753.365	811
753.476	-461
753.586	480
753.697	159
753.808	-97
753.919	-225
754.029	634
754.140	419
754.251	-69
754.361	576
754.472	832
754.582	491
754.693	-68
754.804	626
754.914	-228
755.025	437
755.135	-14
755.246	748
755.356	77
755.466	798
755.577	638
755.687	795
755.798	497
755.908	564
756.018	112
756.129	530
756.239	323
756.349	565
756.460	232
756.570	944
756.680	123
756.790	496
756.900	-26
757.011	548
757.121	-107
757.231	112
757.341	458
757.451	293
757.561	-583
757.671	-180
757.781	-335
757.891	1168
758.001	-43
758.111	868
758.221	1220
758.331	-82
758.441	-276
758.551	1019
758.661	526
758.771	1035
758.880	139
758.990	971
759.100	-69
759.210	-84
759.320	1377
759.429	1257
759.539	850
759.649	702
759.758	43
759.868	1656
759.978	474
760.087	654
760.197	831
760.307	575
760.416	464
760.526	821
760.635	331
760.745	403
760.854	153
760.964	1059
761.073	797
761.182	871
761.292	913
761.401	1645
761.511	263
761.620	971
761.729	-235
761.839	-8
761.948	1267
762.057	609
762.166	721
762.276	-436
762.385	1031
762.494	389
762.603	456
762.712	1001
762.822	-309
762.931	892
763.040	213
763.149	93
763.258	923
763.367	1070
763.476	685
763.585	614
763.694	1173
763.803	846
763.912	1181
764.021	1120
764.130	553
764.238	81
764.347	317
764.456	396
764.565	1272
764.674	1269
764.783	811
764.891	298
765.000	1183
765.109	1054
765.217	847
765.326	2902
765.435	2903
765.543	3448
765.652	2966
765.761	4083
765.869	5939
765.978	10385
766.086	17786
766.195	34833
766.303	86142
766.412	238787
766.520	240376
766.629	58130
766.737	22884
766.846	12335
766.954	7792
767.062	6292
767.171	4342
767.279	3878
767.387	3003
767.496	2881
767.604	1324
767.712	1821
767.820	1692
767.928	1685
768.037	1693
768.145	2360
768.253	978
768.361	1701
768.469	1858
768.577	1270
768.685	1680
768.793	1149
768.901	772
769.009	1586
769.117	2216
769.225	2221
769.333	3551
769.441	7088
769.549	12832
769.657	30262
769.765	93368
769.873	225903
769.981	80611
770.088	17546
770.196	7992
770.304	6173
770.412	3103
770.519	2960
770.627	2708
770.735	1730
770.842	1047
770.950	916
771.058	1040
771.165	1625
771.273	789
771.380	1414
771.488	1452
771.595	759
771.703	50
771.810	966
771.918	940
772.025	161
772.133	113
772.240	1169
772.348	986
772.455	794
772.562	1362
772.670	358
772.777	1312
772.884	192
772.991	408
773.099	-203
773.206	-128
773.313	878
773.420	901
773.528	-590
773.635	-404
773.742	698
773.849	222
773.956	514
774.063	691
774.170	700
774.277	1014
774.384	689
774.491	-244
774.598	663
774.705	78
774.812	351
774.919	1628
775.026	680
775.133	991
775.239	582
775.346	239
775.453	411
775.560	545
775.667	712
775.773	-417
775.880	516
775.987	-191
776.093	1491
776.200	73
776.307	448
776.413	1544
776.520	-232
776.627	1219
776.733	1114
776.840	25
776.946	2067
777.053	4660
777.159	12783
777.266	5316
777.372	11162
777.478	7721
777.585	3464
777.691	828
777.798	460
777.904	638
778.010	927
778.117	-329
778.223	463
778.329	26
778.435	932
778.542	846
778.648	-417
778.754	-146
778.860	19
778.966	94
779.072	342
779.178	346
779.284	602
779.391	-223
779.497	-1034
779.603	1016
779.708	-460
779.815	819
779.920	2566
780.026	5473
780.132	1067
780.238	-383
780.344	233
780.450	848
780.556	27
780.661	-184
780.767	-249
780.873	-438
780.979	-53
781.085	-201
781.190	-49
781.296	-72
781.402	318
781.507	408
781.613	650
781.719	-214
781.824	-128
781.930	283
782.035	399
782.141	522
782.246	70
782.352	-390
782.457	466
782.563	-192
782.668	-494
782.773	-886
782.879	-574
782.984	-2
783.090	953
783.195	-62
783.300	25
783.405	733
783.511	-647
783.616	234
783.721	299
783.826	-556
783.932	806
784.037	271
784.142	346
784.247	-382
784.352	495
784.457	-493
784.562	271
784.667	-108
784.772	140
784.877	-609
784.982	-176
785.087	-227
785.192	-14
785.297	-365
785.402	-517
785.507	-575
785.611	381
785.716	571
785.821	161
785.926	-518
786.031	-18
786.135	-256
786.240	-42
786.345	-899
786.450	950
786.554	-427
786.659	-90
786.763	-1652
786.868	621
786.973	98
787.077	-559
787.182	-793
787.286	-42
787.391	128
787.495	-741
787.600	274
787.704	-660
787.809	-618
787.913	-326
788.017	-397
788.122	-102
788.226	60
788.330	253
788.435	-294
788.539	550
788.643	-682
788.747	-324
788.852	-518
788.956	-1021
789.060	189
789.164	50
789.268	-1115
789.372	721
789.476	-241
789.580	-444
789.684	-110
789.788	-406
789.892	-1239
789.996	-256
790.100	-884
790.204	134
790.308	-842
790.412	-382
790.516	-907
790.620	-194
790.724	-237
790.828	-402
790.931	-1708
791.035	1716
791.139	-651
791.242	-973
791.346	482
791.450	-144
791.554	-243
791.657	-1226
791.761	664
791.864	593
791.968	-268
792.072	-227
792.175	-350
792.279	-782
792.382	-441
792.486	-35
792.589	-21
792.693	668
792.796	-1320
792.899	44
793.003	780
793.106	-655
793.209	-905
793.313	737
793.416	-1428
793.519	513
793.623	-157
793.726	-563
793.829	-359
793.932	384
794.035	-1053
794.138	840
794.242	-5
794.345	279
794.448	-300
794.551	-860
794.654	2445
794.757	3531
794.860	382
794.963	433
795.066	-670
795.169	-87
795.272	-999
795.375	705
795.477	-1206
795.580	-453
795.683	-2172
795.786	-482
795.889	-1601
795.991	631
796.094	585
796.197	-1509
796.300	255
796.402	-859
796.505	-1308
796.608	-782
796.710	361
796.813	-115
796.915	-1325
797.018	-345
797.120	5
797.223	-880
797.326	658
797.428	-573
797.530	-137
797.633	-1285
797.735	386
797.838	-56
797.940	1106
798.042	-592
798.145	-327
798.247	591
798.349	-1922
798.452	500
798.554	-1023
798.656	-1120
798.758	422
798.860	221
798.962	-553
799.065	-125
799.167	-1504
799.269	262
799.371	337
799.473	-745
799.575	-610
799.677	-376
799.779	148
799.881	-1677
799.983	84
800.085	-799
800.187	-734
800.289	-678
800.390	-1454
800.492	-515
800.594	513
800.696	-1329
800.798	-207
800.899	-974
801.001	-961
801.103	-782
801.205	-476
801.306	-231
801.408	-2048
801.509	-763
801.611	-985
801.713	-265
801.814	-1669
801.916	-313
802.017	-1174
802.119	-19
802.220	-1045
802.322	-1733
802.423	868
802.525	-924
802.626	-712
802.727	-225
802.829	208
802.930	-2595
803.031	655
803.133	-483
803.234	-1091
803.335	355
803.436	-1665
803.538	-672
803.639	-1385
803.740	-745
803.841	-1083
803.942	99
804.043	-467
804.144	-956
804.245	-768
804.346	-1172
804.447	-783
804.548	-1411
804.649	-322
804.750	-1429
804.851	-1140
804.952	-1643
805.053	-725
805.154	-915
805.255	107
805.355	-419
805.456	-665
805.557	-1326
805.658	-1467
805.758	-83
805.859	-1705
805.960	-328
806.061	-1076
806.161	-698
806.262	-1399
806.362	-1251
806.463	-1312
806.564	-751
806.664	-470
806.765	-843
806.865	-1097
806.966	-952
807.066	-1518
807.166	521
807.267	-385
807.367	-1015
807.468	-277
807.568	-2122
807.668	-829
807.769	-49
807.869	-977
807.969	-932
808.069	-758
808.170	-229
808.270	-1058
808.370	-449
808.470	-1226
808.570	-1291
808.670	-1225
808.770	-432
808.870	-1332
808.970	-365
809.070	-1629
809.170	-1368
809.271	-1318
809.370	-932
809.470	-638
809.570	-839
809.670	-1091
809.770	-779
809.870	-373
809.970	-512
810.070	-1210
810.169	-445
810.269	-2184
810.369	154
810.469	-885
810.568	-1979
810.668	-1370
810.768	-947
810.867	-141
810.967	-668
811.066	-1070
811.166	-1282
811.265	-58
811.365	-1454
811.464	-1328
811.564	-1159
811.663	-995
811.763	-1803
811.862	-940
811.962	395
812.061	-1463
812.160	-1203
812.260	-82
812.359	-1028
812.458	-615
812.557	-418
812.657	-1845
812.756	111
812.855	-1109
812.954	-1572
813.053	-321
813.153	-472
813.252	-1780
813.351	-1035
813.450	-1103
813.549	-1118
813.648	-949
813.747	-703
813.846	-554
813.945	-1343
814.044	-2026
814.143	-1018
814.242	91
814.341	-1129
814.439	-548
814.538	-181
814.637	-733
814.736	-1590
814.835	-684
814.933	-1722
815.032	-806
815.131	-833
815.229	-1765
815.328	-147
815.427	-1193
815.525	-108
815.624	-1036
815.722	-982
815.821	-251
815.919	-352
816.018	-1557
816.116	808
816.215	-788
816.313	60
816.412	-709
816.510	-93
816.609	513
816.707	-548
816.805	13
816.904	-1308
817.002	212
817.100	601
817.198	-339
817.296	-529
817.395	-844
817.493	1163
817.591	945
817.689	795
817.787	778
817.885	3401
817.983	6736
818.081	15420
818.179	36766
818.277	96615
818.375	82805
818.473	23497
818.571	8444
818.669	6765
818.767	5852
818.865	4437
818.963	5231
819.061	6667
819.158	13709
819.256	32436
819.354	73468
819.452	166357
819.549	103874
819.647	28962
819.745	11801
819.842	6547
819.940	4140
820.038	3042
820.135	2338
820.233	1970
820.330	592
820.428	417
820.525	708
820.623	913
820.720	-938
820.818	838
820.915	-10
821.012	793
821.110	-1119
821.207	421
821.304	-819
821.402	-253
821.499	774
821.596	5600
821.693	1813
821.791	66
821.888	-79
821.985	521
822.082	-1577
822.179	1279
822.276	1146
822.373	308
822.470	-423
822.567	-35
822.664	-1225
822.761	85
822.858	-2012
822.955	-786
823.052	-548
823.149	-1165
823.246	-690
823.343	-937
823.440	253
823.536	-1248
823.633	-1682
823.730	-837
823.827	-437
823.923	-1022
824.020	100
824.117	176
824.213	-258
824.310	880
824.407	-944
824.503	-1027
824.600	-501
824.696	-675
824.793	-430
824.889	-1280
824.986	-540
825.082	-679
825.179	-312
825.275	-793
825.371	-1273
825.468	-841
825.564	-1363
825.660	-1134
825.757	-706
825.853	276
825.949	-1376
826.045	-650
826.142	-1622
826.238	-1307
826.334	-605
826.430	-1350
826.526	-417
826.622	-883
826.718	-1420
826.814	-1525
826.910	-1214
827.006	-1257
827.102	-1746
827.198	-303
827.294	-1121
827.390	-1173
827.486	-403
827.582	-2245
827.678	-2411
827.774	-405
827.869	-2506
827.965	115
828.061	-1529
828.157	-578
828.252	-1269
828.348	-1337
828.444	-1246
828.539	-1548
828.635	-1445
828.731	-290
828.826	-1867
828.922	-902
829.017	-1530
829.113	-485
829.208	-1662
829.304	-1287
829.399	-143
829.495	-919
829.590	-339
829.685	-1670
829.781	-1645
829.876	-884
829.971	-1602
830.066	-1048
830.162	-1831
830.257	-1060
830.352	-1833
830.447	-684
830.543	-1667
830.638	-1585
830.733	-643
830.828	-1230
830.923	-540
831.018	-655
831.113	-1349
831.208	-1872
831.303	-1403
831.398	-1391
831.493	-1633
831.588	-1011
831.683	-1905
831.778	-1561
831.873	-1393
831.967	-1029
832.062	-1057
832.157	-1647
832.252	124
832.346	-1298
832.441	-1202
832.536	-885
832.631	-1056
832.725	-592
832.820	-1946
832.914	-2037
833.009	-1316
833.104	-1378
833.198	-468
833.293	-1214
833.387	-753
833.482	-1134
833.576	-1808
833.670	452
833.765	-1631
833.859	-1080
833.954	-1145
834.048	-432
834.142	-895
834.237	-1540
834.331	-1344
834.425	-1157
834.519	-1662
834.613	-557
834.708	-595
834.802	-474
834.896	-1786
834.990	-1227
835.084	-1011
835.178	-1312
835.272	-1682
835.366	-1336
835.460	-1296
835.554	-1070
835.648	-1945
835.742	-1035
835.836	-694
835.930	-2120
836.024	-1004
836.117	581
836.211	-1076
836.305	-1187
836.399	327
836.493	-2530
836.586	-543
836.680	-1871
836.774	-2143
836.867	-478
836.961	-1666
837.055	-2306
837.148	-1356
837.242	-590
837.335	-1440
837.429	-985
837.522	-2075
837.616	-804
837.709	154
837.803	-1181
837.896	-257
837.989	-1195
838.083	-382
838.176	821
838.269	-971
838.363	-407
838.456	-1351
838.549	-1576
838.642	-1899
838.735	-1224
838.829	-662
838.922	-1419
839.015	-1246
839.108	-1983
839.201	-1373
839.294	-1618
839.387	-1011
839.480	-1927
839.573	-624
839.666	-826
839.759	-1186
839.852	-1114
839.945	-1116
840.038	-1391
840.131	-1806
840.223	-1122
840.316	-403
840.409	-1369
840.502	-1873
840.594	-89
840.687	-1715
840.780	-653
840.873	-1269
840.965	-1344
841.058	-1021
841.150	733
841.243	-1195
841.336	-788
841.428	-1705
841.521	-960
841.613	-1631
841.706	-979
841.798	-1334
841.890	-1454
841.983	-1593
842.075	227
842.167	-1649
842.260	-1202
842.352	-133
842.444	-383
842.537	628
842.629	2000
842.721	-679
842.813	-1502
842.905	-2431
842.997	-843
843.090	-1531
843.182	266
843.274	-1006
843.366	3107
843.458	6509
843.550	3685
843.642	-922
843.734	-18
843.826	-1893
843.918	-433
844.009	-531
844.101	-1395
844.193	-1570
844.285	-1627
844.377	-597
844.469	2242
844.560	2309
844.652	1623
844.744	-771
844.835	-1308
844.927	-802
845.019	-786
845.110	-1580
845.202	-1013
845.293	-1496
845.385	-1500
845.476	-1348
845.568	-45
845.659	-1568
845.751	-455
845.842	-1505
845.934	-1655
846.025	-1374
846.116	-638
846.208	-1830
846.299	-1402
846.390	-529
846.482	-120
846.573	-1235
846.664	-774
846.755	-1322
846.846	-195
846.937	-2720
847.029	-1045
847.120	-1071
847.211	-1153
847.302	59
847.393	-1916
847.484	-1662
847.575	-773
847.666	-1377
847.757	-1659
847.847	-1363
847.938	-213
848.029	-2046
848.120	-1145
848.211	-1494
848.302	-1782
848.392	-1620
848.483	-814
848.574	-1336
848.664	-1175
848.755	-965
848.846	-614
848.936	-1593
849.027	-705
849.118	-1481
849.208	-1057
849.299	-635
849.389	839
849.480	2886
849.570	7228
849.661	16360
849.751	30409
849.841	9467
849.932	192
850.022	-772
850.112	-788
850.203	-1286
850.293	-892
850.383	-1360
850.474	-1194
850.564	-1857
850.654	-615
850.744	-1790
850.834	-838
850.924	-1225
851.014	-1410
851.104	-1462
851.194	-1078
851.284	-1233
851.374	-1336
851.464	-2130
851.554	-947
851.644	-1394
851.734	-283
851.824	-472
851.914	-1296
852.004	-1202
852.094	-1233
852.183	-1379
852.273	-944
852.363	-1307
852.452	-1390
852.542	-1608
852.632	-1181
852.721	39
852.811	-1325
852.901	-1683
852.990	-1450
853.080	-933
853.169	-769
853.259	-902
853.348	-1346
853.438	-215
853.527	510
853.617	1027
853.706	5135
853.795	7342
853.885	22516
853.974	45116
854.063	82497
854.152	135786
854.242	50018
854.331	7011
854.420	1173
854.509	761
854.598	366
854.687	-736
854.777	657
854.866	-939
854.955	71
855.044	-711
855.133	-88
855.222	-1707
855.311	-1527
855.400	-307
855.488	-1620
855.577	-1130
855.666	-404
855.755	-511
855.844	-835
855.933	-1344
856.021	-1085
856.110	-1017
856.199	-1934
856.288	-1477
856.376	-2153
856.465	-1394
856.554	-801
856.642	-962
856.731	-282
856.819	-1352
856.908	-1363
856.996	-1455
857.085	-1765
857.173	-1731
857.262	-1794
857.350	-732
857.438	-975
857.527	-1274
857.615	-1693
857.703	-780
857.792	-1601
857.880	-1543
857.968	-1476
858.056	-2093
858.145	-2050
858.233	-2045
858.321	-972
858.409	-1439
858.497	-1998
858.585	-1788
858.673	-1172
858.761	-2332
858.849	-1389
858.937	-1506
859.025	-1511
859.113	-1563
859.201	-1025
859.289	-858
859.377	-244
859.465	-1233
859.552	-1619
859.640	-1484
859.728	-1305
859.816	-1975
859.903	-1606
859.991	-2417
860.079	-791
860.166	-1988
860.254	-667
860.342	-1172
860.429	-1241
860.517	-1965
860.604	-1229
860.692	-1233
860.779	-1217
860.867	-1599
860.954	-811
861.042	-1059
861.129	-927
861.216	-1570
861.304	-1633
861.391	-1315
861.478	-1687
861.565	-1875
861.653	-710
861.740	-1451
861.827	-1690
861.914	-1307
862.001	-1584
862.089	-1689
862.176	-1300
862.263	-956
862.350	-901
862.437	-1853
862.524	-1925
862.611	-2071
862.698	-364
862.785	-545
862.871	-26
862.958	-1301
863.045	-1358
863.132	-1542
863.219	-1720
863.306	-2781
863.392	-1045
863.479	-1329
863.566	-985
863.652	-1627
863.739	-1689
863.826	-1326
863.912	-875
863.999	-1228
864.086	-2413
864.172	-1217
864.259	-2388
864.345	-1300
864.432	-1653
864.518	-1289
864.604	-1833
864.691	-983
864.777	-1287
864.863	-884
864.950	-729
865.036	-1693
865.122	-233
865.209	122
865.295	-1869
865.381	-172
865.467	472
865.553	87
865.639	904
865.726	3782
865.812	10448
865.898	22206
865.984	33167
866.070	63551
866.156	73714
866.242	16580
866.328	2542
866.414	-332
866.499	-19
866.585	-493
866.671	-696
866.757	-1286
866.843	-158
866.928	-1493
867.014	-837
867.100	-1132
867.186	-1096
867.271	-880
867.357	-298
867.442	21
867.528	-1134
867.614	-813
867.699	-19
867.785	1171
867.870	1201
867.956	2088
868.041	928
868.127	4
868.212	1375
868.297	851
868.383	-661
868.468	-26
868.553	428
868.639	-754
868.724	-1083
868.809	-398
868.894	-1213
868.979	-1187
869.065	-861
869.150	-1184
869.235	-1278
869.320	-1682
869.405	-1580
869.490	-1710
869.575	-1244
869.660	-1036
869.745	-2168
869.830	-1972
869.915	-1617
870.000	-938
870.085	-1039
870.169	-604
870.254	71
870.339	-1692
870.424	-1683
870.509	-1286
870.593	-1261
870.678	-1339
870.763	-1003
870.847	-1403
870.932	-1507
871.016	-508
871.101	-719
871.186	-1142
871.270	-1392
871.355	-1535
871.439	-922
871.523	-1173
871.608	-1226
871.692	-965
871.777	343
871.861	-569
871.945	-1489
872.030	-1346
872.114	-989
872.198	-1208
872.282	-1499
872.367	-1500
872.451	-1959
872.535	-1205
872.619	-1071
872.703	-1683
872.787	-922
872.871	-916
872.955	-1504
873.039	-1320
873.123	-1528
873.207	-93
873.291	-1502
873.375	-1754
873.459	-639
873.543	-1168
873.627	-1440
873.711	-1404
873.794	-1408
873.878	-1890
873.962	-1654
874.045	-1940
874.129	-1555
874.137	-1589
874.213	-1931
874.245	-1542
874.296	-909
874.352	-1596
874.380	-1938
874.460	-1662
874.464	-1651
874.547	-2192
874.568	-2013
874.631	-1496
874.676	-1499
874.714	-1493
874.784	-584
874.798	-408
874.881	-485
874.892	-663
874.965	-1892
874.999	-1706
875.048	-1438
875.107	-1092
875.131	-962
875.215	-857
875.215	-857
875.298	-1692
875.323	-1564
875.381	-1166
875.430	-1475
875.465	-1736
875.538	-1163
875.548	-1074
875.631	-1447
875.646	-1354
875.714	-1046
875.753	-1542
875.798	-2047
875.861	-1660
875.881	-1537
875.964	-1325
875.968	-1337
876.047	-1627
876.076	-1542
876.130	-1346
876.183	-1272
876.213	-1215
876.291	-1607
876.296	-1644
876.379	-2515
876.398	-2312
876.462	-1545
876.506	-1195
876.545	-875
876.613	-986
876.628	-994
876.711	-1325
876.721	-1313
876.794	-1378
876.828	-1552
876.877	-1748
876.935	-1065
876.960	-784
877.043	-1163
877.043	-1164
877.125	-1341
877.150	-1273
877.208	-1184
877.258	-910
877.291	-694
877.365	-1829
877.374	-1977
877.456	-398
877.472	-596
877.539	-1321
877.579	-683
877.622	-37
877.687	-1144
877.704	-1436
877.787	-1718
877.794	-1734
877.869	-2076
877.901	-1850
877.952	-1308
878.008	-993
878.034	-929
878.115	-1562
878.117	-1568
878.199	-1092
878.222	-925
878.282	-680
878.329	-1061
878.364	-1295
878.437	-1049
878.447	-998
878.529	-1471
878.544	-1353
878.611	-1105
878.651	-1419
878.694	-1491
878.758	-1173
878.776	-1157
878.858	-1123
878.865	-1143
878.941	-1487
878.972	-1559
879.023	-1441
879.078	-1176
879.105	-1035
879.185	-866
879.187	-868
879.269	-988
879.292	-960
879.351	-787
879.399	-1363
879.433	-1700
879.506	-835
879.516	-759
879.598	-1314
879.613	-1399
879.680	-1448
879.720	-1085
879.762	-938
879.827	-1607
879.844	-1690
879.926	-897
879.933	-925
880.007	-1381
880.040	-1249
880.089	-1044
880.147	-1228
880.171	-1293
880.253	-1397
880.254	-1399
880.335	-1180
880.360	-1080
880.417	-1021
880.467	-1153
880.499	-1186
880.574	-934
880.580	-901
880.662	-1342
880.680	-1292
880.744	-1173
880.787	-1085
880.825	-1096
880.893	-1258
880.907	-1227
880.989	-1201
881.000	-1120
881.070	-827
881.106	-909
881.152	-901
881.213	-925
881.233	-983
881.315	-771
881.319	-779
881.396	-690
881.426	-787
881.478	-1061
881.532	-884
881.559	-723
881.639	-1010
881.641	-1025
881.722	-893
881.745	-910
881.803	-145
881.852	98
881.885	-329
881.958	-1335
881.966	-1327
882.047	-625
882.064	-563
882.129	-833
882.171	-951
882.210	-912
882.277	-756
882.291	-768
882.372	-1188
882.383	-1270
882.454	-1300
882.489	-1110
882.535	-996
882.596	-931
882.616	-986
882.697	-769
882.702	-823
882.778	-1023
882.808	-743
882.859	-664
882.914	-860
882.940	-925
883.020	-1044
883.021	-1041
883.102	-1113
883.127	-1062
883.183	-904
883.233	-783
883.264	-665
883.339	-107
883.345	-98
883.426	-763
883.445	-884
883.507	-835
883.551	-678
883.587	-778
883.657	-826
883.668	-789
883.749	-980
883.763	-962
883.830	-1031
883.869	-1017
883.910	-896
883.975	-1004
883.991	-1028
884.072	-1043
884.081	-1044
884.152	-835
884.187	-806
884.233	-930
884.292	-858
884.314	-816
884.394	-1051
884.398	-1057
884.475	-1195
884.504	-1168
884.555	-886
884.610	-626
884.636	-579
884.716	-725
884.716	-720
884.797	-385
884.821	-187
884.877	-146
884.927	-340
884.958	-398
885.033	-430
885.038	-420
885.118	-360
885.139	-328
885.199	-408
885.244	-399
885.279	-152
885.350	0
885.359	-85
885.439	-660
885.456	-791
885.520	-471
885.561	-11
885.600	242
885.667	89
885.680	104
885.760	281
885.773	291
885.840	-395
885.878	-625
885.920	-543
885.984	-656
886.000	-691
886.080	-685
886.089	-708
886.160	-634
886.195	-488
886.240	-223
886.300	-42
886.320	-184
886.400	-793
886.406	-831
886.480	-931
886.511	-1033
886.560	-1227
886.616	-1504
886.640	-1270
886.720	-139
886.722	-123
886.800	-265
886.827	-248
886.879	-361
886.932	-734
886.959	-595
887.038	93
887.039	96
887.119	-471
887.143	-492
887.198	-260
887.248	-225
887.278	-308
887.354	-540
887.358	-524
887.437	-408
887.459	-319
887.517	-215
887.564	-192
887.596	-184
887.669	-196
887.676	-204
887.755	-336
887.774	-381
887.835	-363
887.880	-358
887.914	-377
887.985	-445
887.994	-478
888.073	-772
888.090	-836
888.153	-354
888.195	-85
888.232	-128
888.300	-58
888.311	-14
888.391	27
888.405	69
888.470	-142
888.510	-360
888.549	-150
888.615	248
888.628	198
888.708	-108
888.720	-169
888.787	-217
888.825	-262
888.866	-185
888.930	-49
888.945	-49
889.024	-45
889.035	-53
889.103	6
889.140	31
889.182	-244
889.245	-617
889.261	-570
889.340	-413
889.349	-386
889.419	-260
889.454	-226
889.498	-486
889.559	-835
889.577	-756
889.656	-395
889.664	-359
889.735	-466
889.768	-515
889.814	-113
889.873	423
889.978	-592
890.083	228
890.187	549
890.292	-244
890.397	-696
890.501	-14
890.606	-18
890.710	118
890.815	-514
890.919	-28
891.024	-436
891.128	674
891.233	-7
891.337	-167
891.442	-789
891.546	-803
891.650	-43
891.755	99
891.859	761
891.963	172
892.068	306
892.172	-171
892.276	-400
892.380	-377
892.484	-777
892.589	46
892.693	217
892.797	345
892.901	157
893.005	66
893.109	-461
893.213	-178
893.317	-49
893.421	312
893.525	-282
893.629	-405
893.733	108
893.837	-138
893.941	-377
894.045	-122
894.148	-407
894.252	-637
894.356	-682
894.460	-744
894.564	-505
894.667	-695
894.771	-173
894.875	-86
894.978	-385
895.082	-514
895.186	-22
895.289	305
895.393	-27
895.496	175
895.600	-810
895.703	-151
895.807	-549
895.910	-192
896.014	-83
896.117	-76
896.221	-935
896.324	90
896.427	462
896.531	-574
896.634	-537
896.737	89
896.840	-531
896.944	-263
897.047	-320
897.150	155
897.253	-623
897.356	-233
897.460	-663
897.563	-306
897.666	-410
897.769	-211
897.872	-262
897.975	-1162
898.078	-259
898.181	408
898.284	-527
898.387	-249
898.490	-620
898.593	-335
898.695	-713
898.798	-591
898.901	-896
899.004	487
899.107	-768
899.209	-216
899.312	48
899.415	-42
899.518	-347
899.620	603
899.723	-35
899.826	395
899.928	-758
900.031	-530
900.133	-375
900.236	-1284
900.338	-969
900.441	-766
900.543	-296
900.646	404
900.748	-587
900.851	324
900.953	-439
901.055	-51
901.158	-302
901.260	-306
901.362	-604
901.465	-492
901.567	-260
901.669	-4
901.771	-1204
901.873	-641
901.976	-270
902.078	-244
902.180	-472
902.282	-299
902.384	-651
902.486	44
902.588	-192
902.690	-365
902.792	339
902.894	75
902.996	360
903.098	-68
903.200	-322
903.302	-278
903.404	-1259
903.505	-443
903.607	166
903.709	38
903.811	-615
903.913	-1030
904.014	-195
904.116	277
904.218	-521
904.319	-524
904.421	-196
904.523	203
904.624	-868
904.726	712
904.827	108
904.929	-404
905.030	514
905.132	-313
905.233	-810
905.335	-747
905.436	-856
905.537	58
905.639	88
905.740	-429
905.841	-531
905.943	-603
906.044	-1393
906.145	296
906.247	-964
906.348	392
906.449	6
906.550	-653
906.651	-1094
906.752	-398
906.854	-1019
906.955	-740
907.056	-270
907.157	-388
907.258	-1607
907.359	-827
907.460	-431
907.561	-629
907.662	-12
907.762	-498
907.863	-614
907.964	329
908.065	-196
908.166	-261
908.267	-251
908.367	-785
908.468	-1382
908.569	-753
908.670	-17
908.770	-411
908.871	-253
908.971	-26
909.072	169
909.173	178
909.273	-715
909.374	143
909.474	-896
909.575	43
909.675	-732
909.776	262
909.876	-548
909.977	-967
910.077	-130
910.177	-675
910.278	-45
910.378	-993
910.478	269
910.579	17
910.679	-338
910.779	194
910.879	-253
910.980	-235
911.080	-1383
911.180	-835
911.280	-263
911.380	-705
911.480	-64
911.580	-408
911.680	-597
911.780	170
911.880	-216
911.980	186
912.080	-1144
912.180	77
912.280	-557
912.380	-271
912.480	-535
912.580	141
912.679	-997
912.779	170
912.879	238
912.979	151
913.078	-483
913.178	-537
913.278	-384
913.377	-776
913.477	-643
913.577	-346
913.676	812
913.776	-819
913.875	-559
913.975	262
914.074	-1007
914.174	-317
914.273	-1099
914.373	-459
914.472	-718
914.572	-177
914.671	-463
914.770	-1168
914.870	-299
914.969	-1013
915.068	-4
915.167	546
915.267	-510
915.366	-599
915.465	598
915.564	93
915.663	-827
915.763	-474
915.862	-247
915.961	-276
916.060	-576
916.159	-404
916.258	-275
916.357	-154
916.456	626
916.555	-926
916.654	-662
916.752	-336
916.851	-1075
916.950	372
917.049	-543
917.148	-522
917.247	197
917.345	-169
917.444	-848
917.543	-95
917.642	87
917.740	399
917.839	-347
917.937	-120
918.036	-161
918.135	-445
918.233	-573
918.332	-391
918.430	-622
918.529	-414
918.627	-275
918.726	-113
918.824	-675
918.923	-270
919.021	-1020
919.119	-164
919.218	-880
919.316	-191
919.414	44
919.512	-748
919.611	-553
919.709	-230
919.807	-1413
919.905	-127
920.003	-791
920.102	-679
920.200	-607
920.298	464
920.396	-330
920.494	-638
920.592	-736
920.690	-717
920.788	-61
920.886	73
920.984	-114
921.082	-931
921.180	-406
921.277	65
921.375	-733
921.473	-309
921.571	-1045
921.669	-810
921.766	-431
921.864	-674
921.962	-846
922.060	-720
922.157	810
922.255	104
922.352	-449
922.450	-203
922.548	-482
922.645	-557
922.743	-951
922.840	-209
922.938	-418
923.035	-67
923.133	-178
923.230	28
923.327	-716
923.425	17
923.522	-543
923.619	-1241
923.717	-233
923.814	149
923.911	-389
924.008	357
924.106	-973
924.203	-579
924.300	-595
924.397	-364
924.494	630
924.591	-49
924.688	-801
924.786	-104
924.883	-447
924.979	-435
925.077	-598
925.173	78
925.270	-948
925.367	-544
925.464	120
925.561	163
925.658	-426
925.755	-369
925.852	-329
925.948	250
926.045	21
926.142	-210
926.239	63
926.335	1192
926.432	245
926.529	-49
926.625	1054
926.722	482
926.818	442
926.915	-124
927.011	-465
927.108	-800
927.204	-65
927.301	-333
927.397	-560
927.494	-328
927.590	-811
927.687	77
927.783	-81
927.879	-389
927.976	-243
928.072	188
928.168	-765
928.264	-1147
928.361	-546
928.457	49
928.553	-258
928.649	-376
928.745	-31
928.841	161
928.937	-430
929.033	370
929.129	-674
929.225	-1288
929.321	-578
929.417	-88
929.513	-373
929.609	117
929.705	-79
929.801	-821
929.897	-506
929.993	-20
930.089	115
930.184	337
930.280	-493
930.376	-90
930.471	-1061
930.567	-864
930.663	-314
930.758	210
930.854	-893
930.950	-803
931.045	-1085
931.141	217
931.236	-744
931.332	-210
931.427	-359
931.523	-414
931.618	-224
931.714	-651
931.809	18
931.905	-710
932.000	-332
932.095	-1283
932.191	179
932.286	-467
932.381	-144
932.476	31
932.572	329
932.667	-51
932.762	-493
932.857	415
932.952	-428
933.047	257
933.142	-404
933.237	-48
933.332	100
933.427	-967
933.522	-343
933.617	-8
933.712	-361
933.807	-90
933.902	-271
933.997	82
934.092	-104
934.187	-27
934.282	-256
934.376	395
934.471	-330
934.566	-422
934.661	73
934.755	147
934.850	-451
934.945	-478
935.039	-356
935.134	288
935.228	24
935.323	360
935.417	-712
935.512	-87
935.606	-852
935.701	248
935.795	-335
935.890	-679
935.984	180
936.079	-439
936.173	-1143
936.267	250
936.362	-561
936.456	-663
936.550	-196
936.644	-580
936.738	-417
936.833	-427
936.927	-636
937.021	-1033
937.115	-852
937.209	-865
937.303	-235
937.397	-4
937.491	-233
937.585	-53
937.679	-177
937.773	34
937.867	-233
937.961	255
938.055	223
938.149	-176
938.243	-627
938.337	474
938.430	-469
938.524	368
938.618	683
938.712	511
938.805	111
938.899	-719
938.993	-735
939.086	708
939.180	474
939.274	861
939.367	31
939.461	152
939.554	-809
939.648	274
939.741	-256
939.835	5
939.928	195
940.022	-962
940.115	144
940.208	455
940.302	-97
940.395	-239
940.488	-978
940.582	-105
940.675	-1262
940.768	242
940.861	-228
940.954	216
941.048	-1137
941.141	-171
941.234	-448
941.327	128
941.420	1156
941.513	260
941.606	-1103
941.699	-357
941.792	-165
941.885	-306
941.978	592
942.071	574
942.164	-692
942.257	-116
942.349	0
942.442	-87
942.535	14
942.628	4
942.721	-270
942.813	-1012
942.906	328
942.999	-376
943.091	-1082
943.184	-661
943.277	-659
943.369	-373
943.462	-1020
943.554	136
943.647	-798
943.739	375
943.832	-106
943.924	-1391
944.017	236
944.109	-1293
944.201	-911
944.294	330
944.386	-601
944.478	-543
944.571	-933
944.663	-236
944.755	190
944.847	322
944.940	-95
945.032	-1060
945.124	193
945.216	529
945.308	-1674
945.400	-273
945.492	-100
945.584	-453
945.676	-896
945.768	-13
945.860	635
945.952	-343
946.044	534
946.136	-65
946.228	91
946.320	-696
946.412	-387
946.503	-898
946.595	8
946.687	-925
946.779	-736
946.870	-245
946.962	-1142
947.054	468
947.145	-542
947.237	-1072
947.329	-207
947.420	-1020
947.512	-10
947.603	-899
947.695	-54
947.786	-859
947.878	-919
947.969	319
948.061	-1076
948.152	-614
948.243	-843
948.335	334
948.426	301
948.517	-525
948.609	-441
948.700	-316
948.791	475
948.882	-363
948.973	-732
949.065	-200
949.156	-982
949.247	-114
949.338	-166
949.429	-496
949.520	-1229
949.611	-2022
949.702	-623
949.793	29
949.884	-729
949.975	-135
950.066	-1184
950.157	-1001
950.247	-1369
950.338	-774
950.429	-346
950.520	-36
950.611	-492
950.701	-49
950.792	-399
950.883	-1246
950.973	-1303
951.064	-803
951.155	-796
951.245	320
951.336	19
951.427	-1132
951.517	-1114
951.608	-590
951.698	-984
951.788	-868
951.879	-500
951.969	-260
952.060	-986
952.150	-542
952.240	-119
952.331	-2036
952.421	550
952.511	-559
952.602	-707
952.692	-1083
952.782	268
952.872	-496
952.962	-441
953.052	-1528
953.143	-1515
953.233	-641
953.323	-873
953.413	-764
953.503	-673
953.593	-933
953.683	-115
953.773	-1536
953.863	-1149
953.953	-1294
954.042	-1009
954.132	-1322
954.222	-508
954.312	-374
954.402	-779
954.492	-378
954.581	-532
954.671	-913
954.761	-1080
954.850	-129
954.940	-1121
955.030	-736
955.119	-1120
955.209	-1090
955.298	-1738
955.388	-443
955.477	253
955.567	-1558
955.656	-808
955.746	-593
955.835	-869
955.925	-983
956.014	-1030
956.103	-483
956.193	-437
956.282	-117
956.371	-738
956.461	-834
956.550	-1709
956.639	-568
956.728	-1287
956.817	-423
956.906	-1119
956.995	160
957.085	-1404
957.174	-547
957.263	-1697
957.352	-195
957.441	-1184
957.530	-682
957.619	-912
957.708	-950
957.796	-1490
957.885	-789
957.974	-1052
958.063	280
958.152	-1475
958.241	-619
958.329	-388
958.418	-373
958.507	-1531
958.596	-406
958.684	-1404
958.773	-356
958.861	-1152
958.950	-317
959.039	-768
959.127	-1038
959.216	-580
959.304	-1063
959.393	-1360
959.481	-1295
959.570	-528
959.658	-798
959.746	-489
959.835	-771
959.923	-879
960.011	-606
960.100	-391
960.188	-1049
960.276	-1739
960.365	-1232
960.453	-1271
960.541	-1606
960.629	-1178
960.717	-1395
960.805	-1097
960.893	-735
960.981	-943
961.069	118
961.158	-1524
961.245	-499
961.333	-819
961.421	-1183
961.509	-988
961.597	-1774
961.685	-1045
961.773	-585
961.861	-910
961.949	-431
962.036	-1209
962.124	-396
962.212	-1328
962.299	-1265
962.387	-1655
962.475	-813
962.562	-1675
962.650	-956
962.738	-556
962.825	-1005
962.913	-1187
963.000	-1613
963.088	-1334
963.175	-1070
963.263	-916
963.350	-1237
963.438	-1142
963.525	-913
963.612	-127
963.700	105
963.787	1175
963.874	-86
963.962	-1891
964.049	-1020
964.136	-1370
964.223	-1282
964.310	-1372
964.398	-705
964.485	-1927
964.572	-709
964.659	-570
964.746	-732
964.833	-964
964.920	-1017
965.007	-1150
965.094	-447
965.181	-900
965.268	-1109
965.355	-417
965.441	-285
965.528	-1707
965.615	-393
965.702	-1357
965.789	-1075
965.875	-1365
965.962	-1585
966.049	-1201
966.136	-563
966.222	-1119
966.309	-61
966.395	-1206
966.482	29
966.569	-1062
966.655	-695
966.742	-1506
966.828	-975
966.915	-1365
967.001	-899
967.087	-1170
967.174	-891
967.260	-821
967.347	-439
967.433	-833
967.519	442
967.605	-769
967.692	-1540
967.778	-333
967.864	-104
967.950	-821
968.036	-1620
968.123	-885
968.209	-1056
968.295	-2034
968.381	444
968.467	-1052
968.553	-1947
968.639	-280
968.725	-1927
968.811	-1209
968.897	-697
968.983	-1640
969.069	-1406
969.154	-547
969.240	81
969.326	-2659
969.412	-989
969.497	61
969.583	-1905
969.669	-168
969.755	-421
969.840	-1488
969.926	-535
970.012	-964
970.097	-817
970.183	-2007
970.268	-1093
970.354	-1163
970.439	-1721
970.525	625
970.610	-1185
970.696	-643
970.781	-955
970.866	-1858
970.952	-369
971.037	-2113
971.122	-1503
971.208	-864
971.293	-1210
971.378	-1681
971.463	-1538
971.549	-960
971.634	-656
971.719	-1026
971.804	-853
971.889	-550
971.974	-949
972.059	-1147
972.144	-829
972.229	-1193
972.314	-1610
972.399	-1151
972.484	-1352
972.569	-535
972.654	-1836
972.739	-282
972.824	-862
972.908	-941
972.993	-1055
973.078	-1618
973.163	-1577
973.247	-557
973.332	-1764
973.417	-191
973.501	-1877
973.586	-1217
973.671	-541
973.755	-1337
973.840	-329
973.924	-185
974.009	-635
974.093	-1351
974.178	371
974.262	-1153
974.346	-1597
974.431	-1560
974.515	-1357
974.600	-1839
974.684	-1297
974.768	-1584
974.852	-117
974.937	-2161
975.021	-1438
975.105	-1295
975.189	-1094
975.273	-1381
975.358	-818
975.442	-1820
975.526	-520
975.610	-1655
975.694	-1826
975.778	-667
975.862	-1108
975.946	-3301
976.030	62
976.114	-2209
976.198	-1272
976.281	-1672
976.365	-570
976.449	-1515
976.533	-1041
976.617	-1828
976.700	-1764
976.784	-817
976.868	-1450
976.951	-2059
977.035	-1001
977.119	-868
977.202	-1601
977.286	-329
977.369	-1119
977.453	-1344
977.536	-904
977.620	-1930
977.703	-1015
977.787	-1844
977.870	-537
977.953	-662
978.037	-1949
978.120	-687
978.203	-1341
978.287	-1232
978.370	-1293
978.453	-1201
978.536	-809
978.620	-695
978.703	-654
978.786	-1746
978.869	-1602
978.952	-1995
979.035	180
979.118	-1319
979.201	-1683
979.284	-968
979.367	-1687
979.450	-1328
979.533	-1927
979.616	-1367
979.699	-1519
979.782	-606
979.865	-1575
979.948	-1397
980.030	-605
980.113	-1784
980.196	-1086
980.279	-35
980.361	-1185
980.444	-1809
980.526	-1203
980.609	-1706
980.692	-1519
980.774	-1226
980.857	-2284
980.939	-736
981.022	-980
981.104	-2281
981.187	-1418
981.269	-1180
981.352	-1551
981.434	-2445
981.516	-1913
981.599	184
981.681	-666
981.763	-1651
981.846	-1305
981.928	-2212
982.010	-1483
982.092	-1781
982.174	-967
982.256	-1368
982.339	-1934
982.421	-1208
982.503	-934
982.585	-2496
982.667	-778
982.749	-1428
982.831	-1422
982.913	-2872
982.995	-358
983.077	-2257
983.158	-498
983.240	-3004
983.322	-1087
983.404	-1342
983.486	-2169
983.568	-1093
983.649	-1329
983.731	-1185
983.813	-1564
983.894	-1091
983.976	-1585
984.058	-2290
984.139	579
984.221	-2568
984.302	-1062
984.384	-2117
984.465	-1518
984.547	-1647
984.628	-1754
984.710	-1243
984.791	-1236
984.872	-1812
984.954	-1812
985.035	-1643
985.116	-2414
985.198	-2023
985.279	259
985.360	-2105
985.441	-2165
985.522	-1179
985.604	-1061
985.685	-3015
985.766	-244
985.847	-783
985.928	-2312
986.009	-1972
986.090	-892
986.171	-367
986.252	-1822
986.333	-2512
986.414	-1183
986.495	-1846
986.576	-2121
986.656	-1471
986.737	-1993
986.818	-1224
986.899	-1564
986.980	-1534
987.060	-1024
987.141	-2074
987.222	-1120
987.302	-1641
987.383	-1346
987.464	-1569
987.544	-173
987.625	-1949
987.705	-1239
987.786	-1593
987.866	-1963
987.947	-1542
988.027	-1914
988.108	-2495
988.188	-946
988.268	-2121
988.349	-1691
988.429	-2007
988.509	-1273
988.589	-1770
988.670	-2483
988.750	-620
988.830	-1220
988.910	-1597
988.990	-2564
989.070	-1738
989.151	-2056
989.231	-2186
989.311	-290
989.391	-1600
989.471	-984
989.551	-2205
989.631	-1994
989.711	-1098
989.791	-1555
989.870	-2601
989.950	-482
990.030	-2040
990.110	-1332
990.190	-1086
990.269	-1836
990.349	-1820
990.429	-1734
990.509	-2048
990.588	-1790
990.668	-1447
990.747	-2000
990.827	-1079
990.907	-1117
990.986	-2137
991.066	-1120
991.145	-1581
991.225	-1164
991.304	-1768
991.383	-128
991.463	-1915
991.542	-796
991.622	-1858
991.701	-1512
991.780	-1346
991.859	-1173
991.939	-1611
992.018	-1722
992.097	-1713
992.176	-792
992.256	-1609
992.335	-2128
992.414	-774
992.493	-1744
992.572	-1848
992.651	-768
992.730	-1662
992.809	-1361
992.888	-2983
992.967	-1643
993.046	-1647
993.125	-1979
993.203	-1856
993.282	-984
993.361	-1975
993.440	-1167
993.519	-2047
993.597	-2059
993.676	-2098
993.755	-832
993.834	-1357
993.912	-2679
993.991	-1062
994.069	-1885
994.148	-1689
994.226	-1681
994.305	-1427
994.384	-3020
994.462	-773
994.540	-1599
994.619	-2324
994.697	-1335
994.776	-2183
994.854	-734
994.932	-2240
995.011	-1639
995.089	-1873
995.167	-1447
995.245	-1646
995.324	-1820
995.402	-954
995.480	-2637
995.558	-1611
995.636	-2117
995.714	-2341
995.792	-148
995.870	-2531
995.948	-2079
996.026	-1049
996.104	-2653
996.182	-1473
996.260	-2606
996.338	-917
996.416	-2140
996.494	-2187
996.572	-1102
996.649	-1602
996.727	-1660
996.805	-1734
996.883	-1493
996.960	-2182
997.038	-1537
997.116	-1312
997.193	-2025
997.271	-1446
997.348	-1997
997.426	-1059
997.504	-2253
997.581	-1039
997.658	-1012
997.736	-2352
997.813	-2220
997.891	-955
997.968	-2057
998.046	-1761
998.123	-2561
998.200	-1546
998.277	-2387
998.355	-1557
998.432	-2567
998.509	-1051
998.586	-1361
998.663	-2327
998.741	-1201
998.818	-3112
998.895	-2181
998.972	-2132
999.049	-1965
999.126	-2045
999.203	-1213
999.280	-1145
999.357	-1885
999.434	-2110
999.511	-1297
999.587	-1480
999.664	-2087
999.741	-1554
999.818	-480
999.895	-2212
999.971	-1804
1000.048	-2223
1000.125	-1805
1000.202	-2885
1000.278	-1760
1000.355	-1697
1000.431	-1802
1000.508	-2354
1000.584	-1658
1000.661	-1230
1000.738	-2067
1000.814	-2059
1000.890	-1215
1000.967	-2185
1001.043	-1304
1001.120	-2606
1001.196	-1500
1001.272	-1826
1001.349	-1951
1001.425	-1732
1001.501	-1526
1001.577	-2438
1001.654	-1204
1001.730	-2064
1001.806	-1767
1001.882	-2514
1001.958	-1737
1002.034	-2347
1002.110	-1647
1002.186	-2461
1002.262	-2053
1002.338	-2027
1002.414	-1299
1002.490	-2676
1002.566	-2379
1002.642	-2417
1002.718	-851
1002.794	-2528
1002.870	-1687
1002.945	-2479
1003.021	-1929
1003.097	-2141
1003.173	-1088
1003.248	-2518
1003.324	-1490
1003.400	-1775
1003.475	-2205
1003.551	-1731
1003.626	-1347
1003.702	-2521
1003.777	-1837
1003.853	-1969
1003.928	-1906
1004.004	-1629
1004.079	-1128
1004.155	-1518
1004.230	-2962
1004.305	-951
1004.381	-2279
1004.456	-1918
1004.531	-2252
1004.607	-2143
1004.682	-1363
1004.757	-1875
1004.832	-1527
1004.907	-2896
1004.982	-1217
1005.057	-1268
1005.133	-2203
1005.208	-2422
1005.283	-2112
1005.358	-1755
1005.433	-1530
1005.508	-1225
1005.583	-2947
1005.657	-2547
1005.732	-715
1005.807	-2941
1005.882	-1393
1005.957	-1934
1006.032	-1909
1006.106	-1765
1006.181	-1399
1006.256	-1763
1006.331	-1561
1006.405	-2478
1006.480	-1362
1006.554	-1952
1006.629	-2044
1006.704	-2300
1006.778	-2073
1006.853	-1328
1006.927	-1732
1007.002	-1537
1007.076	-2172
1007.150	-2112
1007.225	-2048
1007.299	-1754
1007.373	-2258
1007.448	-2017
1007.522	-746
1007.596	-2398
1007.671	-2312
1007.745	-2319
1007.819	-2557
1007.893	-1149
1007.967	-1294
1008.041	-2924
1008.115	-897
1008.190	-2788
1008.264	-1214
1008.338	-2807
1008.412	-2091
1008.486	-1405
1008.560	-2622
1008.633	-2931
1008.707	-1822
1008.781	-2083
1008.855	-1599
1008.929	-1989
1009.003	-2914
1009.076	-2298
1009.150	-1760
1009.224	-2529
1009.298	-1489
1009.371	-2530
1009.445	-2045
1009.519	-1786
1009.592	-2819
1009.666	-1802
1009.739	-1396
1009.813	-2897
1009.886	-1904
1009.960	-2587
1010.033	-2035
1010.107	-1592
1010.180	-2267
1010.253	-2217
1010.327	-2625
1010.400	-2092
1010.473	-2264
1010.547	-1050
1010.620	-1965
1010.693	-1878
1010.766	-2891
1010.840	-1402
1010.913	-1887
1010.986	-2627
1011.059	-1230
1011.132	-2052
1011.205	-1353
1011.278	-1680
1011.351	-1762
1011.424	-2295
1011.497	-2448
1011.570	-1594
1011.643	-2588
1011.716	-2679
1011.789	-2260
1011.862	-1819
1011.934	-1583
1012.007	-2520
1012.080	-2627
1012.153	-2810
1012.225	-1995
1012.298	-2501
1012.371	-1931
1012.443	-1874
1012.516	-3271
1012.588	-2297
1012.661	-2152
1012.733	-2628
1012.806	-1362
1012.879	-2165
1012.951	-1756
1013.023	-2841
1013.096	-2374
1013.168	-2193
1013.241	-2013
1013.313	-2318
1013.385	-2258
1013.458	-2020
1013.530	-1624
1013.602	-2723
1013.674	-1544
1013.746	-2390
1013.819	-1973
1013.891	-1449
1013.963	-2687
1014.035	-2432
1014.107	-1854
1014.179	-2595
1014.251	-2520
1014.323	-2522
1014.395	-2369
1014.467	-2648
1014.539	-3032
1014.611	-3034
1014.683	-1705
1014.754	-3014
1014.826	-2848
1014.898	-2429
1014.970	-2521
1015.042	-2050
1015.113	-1946
1015.185	-2662
1015.257	-3180
1015.328	-2881
1015.400	-2858
1015.471	-2824
1015.543	-3071
1015.615	-2458
1015.686	-2519
1015.757	-2613
1015.829	-2084
1015.901	-1551
1015.972	-2116
1016.043	-1513
1016.115	-2118
1016.186	-1840
1016.257	-2043
1016.328	-2291
1016.400	-2076
1016.471	-2897
1016.542	-2503
1016.613	-2157
1016.685	-2285
1016.756	-1654
1016.827	-2282
1016.898	-3658
1016.969	-1578
1017.040	-2393
1017.111	-2608
1017.182	-2879
1017.253	-2619
1017.324	-2871
1017.395	-2254
1017.466	-1565
1017.537	-2929
1017.608	-2212
1017.678	-2703
1017.749	-2763
1017.820	-2458
1017.891	-2690
1017.961	-2984
1018.032	-2783
1018.103	-2502
1018.173	-2236
1018.244	-2628
1018.315	-2444
1018.385	-2265
1018.456	-2884
1018.526	-3018
1018.597	-2614
1018.667	-2736
1018.738	-2772
1018.808	-2076
1018.878	-2752
1018.949	-2161
1019.019	-2303
1019.089	-2672
1019.160	-2629
1019.230	-3174
1019.300	-1789
1019.371	-3098
1019.441	-2090
1019.511	-3527
1019.581	-2816
1019.651	-2050
1019.721	-2033
1019.791	-2371
1019.861	-3027
1019.931	-2755
1020.001	-3199
1020.071	-2562
1020.141	-2868
1020.211	-2298
1020.281	-2839
1020.351	-2946
1020.421	-2521
1020.491	-2103
1020.560	-2998
1020.630	-2428
1020.700	-2821
1020.770	-3135
1020.839	-2472
1020.909	-2509
1020.979	-2641
1021.048	-2590
1021.118	-2595
1021.187	-2956
1021.257	-2597
1021.326	-3033
1021.396	-2506
1021.465	-2610
1021.535	-2207
1021.604	-3395
1021.674	-2536
1021.743	-3007
1021.812	-2578
1021.882	-2654
1021.951	-2888
1022.020	-2226
1022.089	-2559
1022.159	-2763
1022.228	-2989
1022.297	-2845
1022.366	-2017
1022.435	-3140
1022.504	-2079
1022.573	-2670
1022.642	-3229
1022.711	-2725
1022.781	-2800
1022.849	-3100
1022.918	-2891
1022.987	-2441
1023.056	-2289
1023.125	-2377
1023.194	-3445
1023.263	-2568
1023.331	-2350
1023.400	-3552
1023.469	-3152
1023.538	-2002
1023.606	-2966
1023.675	-2307
1023.744	-2704
1023.812	-2956
1023.881	-3361
1023.949	-3365
1024.018	-3063
1024.086	-2773
1024.155	-2656
1024.223	-3010
1024.292	-3331
1024.360	-2979
1024.429	-2565
1024.497	-2971
1024.565	-2362
1024.634	-2794
1024.702	-2483
1024.770	-2399
1024.838	-3184
1024.907	-2547
1024.975	-3785
1025.043	-1720
1025.111	-3109
1025.179	-2777
1025.247	-2703
1025.315	-2772
1025.383	-2859
1025.451	-2427
1025.519	-3080
1025.587	-2756
1025.655	-3514
1025.723	-2389
1025.791	-3045
1025.859	-2651
1025.927	-2740
1025.995	-2582
1026.062	-3314
1026.130	-2207
1026.198	-2853
1026.266	-3267
1026.333	-2439
1026.401	-2324
1026.469	-3367
1026.536	-2656
1026.604	-2771
1026.671	-2962
1026.739	-2278
1026.806	-3111
1026.874	-2611
1026.941	-2344
1027.009	-2505
1027.076	-2781
1027.144	-2684
1027.211	-3027
1027.278	-3814
1027.345	-2697
1027.413	-1988
1027.480	-2473
1027.547	-2414
1027.614	-3069
1027.682	-2636
1027.749	-1645
1027.816	-2889
1027.883	-2693
1027.950	-2085
1028.017	-3073
1028.084	-2626
1028.151	-3199
1028.218	-3445
1028.285	-2846
1028.352	-2646
1028.419	-3488
1028.486	-2999
1028.553	-2642
1028.619	-3183
1028.686	-2204
1028.753	-3150
1028.820	-2999
1028.886	-2834
1028.953	-3023
1029.020	-3126
1029.086	-3417
1029.153	-3576
1029.220	-3373
1029.286	-2581
1029.353	-2387
1029.419	-3043
1029.486	-2862
1029.552	-3276
1029.619	-2142
1029.685	-2733
1029.751	-2900
1029.818	-2030
1029.884	-2429
1029.951	-2350
1030.017	-2776
1030.083	-3388
1030.149	-2097
1030.216	-3375
1030.282	-2184
1030.348	-2603
1030.414	-3813
1030.480	-2848
1030.546	-2945
1030.612	-2406
1030.678	-2187
1030.744	-2577
1030.810	-2895
1030.876	-2185
1030.942	-2031
1031.008	-2758
1031.074	-2579
1031.140	-2854
1031.206	-2224
1031.272	-3571
1031.337	-2016
1031.403	-1669
1031.469	-2632
1031.534	-3488
1031.600	-2711
1031.666	-4120
1031.731	-2504
1031.797	-2701
1031.863	-2144
1031.928	-2325
1031.994	-2782
1032.059	-2546
1032.125	-2699
1032.190	-2525
1032.256	-2579
1032.321	-3227
1032.386	-2846
1032.452	-1888
1032.517	-3162
1032.582	-2838
1032.647	-2736
1032.713	-3695
1032.778	-2692
1032.843	-3440
1032.908	-1947
1032.974	-1847
1033.039	-1932
1033.104	-2211
1033.169	-2958
1033.234	-3683
1033.299	-1756
1033.364	-3304
1033.429	-3303
1033.494	-2639
1033.559	-2528
1033.624	-2220
1033.688	-1765
1033.753	-2875
1033.818	-3283
1033.883	-2446
1033.948	-1693
1034.013	-2829
1034.077	-2620
1034.142	-2368
1034.207	-3114
1034.271	-2879
1034.336	-2644
1034.400	-2656
1034.465	-2870
1034.530	-2421
1034.594	-2623
1034.658	-3018
1034.723	-2345
1034.787	-2021
1034.852	-2382
1034.916	-3784
1034.981	-2636
1035.045	-2226
1035.109	-2296
1035.173	-2454
1035.238	-2249
1035.302	-2794
1035.366	-3566
1035.430	-2475
1035.495	-2676
1035.559	-3088
1035.623	-2729
1035.687	-2508
1035.751	-2334
1035.815	-2549
1035.879	-2165
1035.943	-3242
1036.007	-3237
1036.071	-2969
1036.135	-2992
1036.198	-2197
1036.262	-2684
1036.326	-2616
1036.390	-2279
1036.454	-2445
1036.517	-2366
1036.581	-3065
1036.645	-2773
1036.709	-2197
1036.772	-2188
1036.836	-1839
1036.900	-2090
1036.963	-2971
1037.026	-2314
1037.090	-2391
1037.154	-2328
1037.217	-2745
1037.280	-2335
1037.344	-3809
1037.407	-2320
1037.471	-2917
1037.534	-1964
1037.597	-2613
1037.661	-2765
1037.724	-1747
1037.787	-2572
1037.850	-2870
1037.913	-2466
1037.977	-2395
1038.040	-2278
1038.103	-2678
1038.166	-3843
1038.229	-1683
1038.292	-2867
1038.355	-2472
1038.418	-2889
1038.481	-2306
1038.544	-2539
1038.607	-2516
1038.670	-2242
1038.732	-2328
1038.795	-2381
1038.858	-2405
1038.921	-1899
1038.984	-2202
1039.046	-3130
1039.109	-2872
1039.172	-2353
1039.234	-3406
1039.297	-2469
1039.360	-2680
1039.422	-2602
1039.485	-2631
1039.547	-1984
1039.610	-1558
1039.672	-2471
1039.734	-2714
1039.797	-2872
1039.859	-2714
1039.922	-2289
1039.984	-2598
1040.046	-1662
1040.109	-2120
1040.171	-2665
1040.233	-2706
1040.295	-2317
1040.358	-2166
1040.420	-1883
1040.482	-2424
1040.544	-2601
1040.606	-2795
1040.668	-2209
1040.730	-1958
1040.792	-2642
1040.854	-2661
1040.916	-1932
1040.978	-2465
1041.040	-908
1041.102	-2187
1041.164	-3230
1041.225	-2198
1041.287	-2589
1041.349	-2813
1041.411	-2350
1041.472	-2382
1041.534	-2615
1041.596	-2215
1041.657	-2891
1041.719	-2116
1041.781	-2251
1041.842	-2340
1041.904	-2677
1041.965	-1599
1042.027	-1991
1042.088	-2008
1042.150	-2233
1042.211	-2313
1042.272	-2304
1042.334	-2812
1042.395	-2661
1042.456	-2898
1042.518	-2809
1042.579	-1993
1042.640	-2382
1042.701	-2516
1042.763	-2510
1042.824	-3026
1042.885	-2806
1042.946	-2120
1043.007	-2061
1043.068	-2192
1043.129	-2414
1043.190	-2614
1043.251	-2195
1043.312	-2957
1043.373	-2421
1043.434	-2688
1043.495	-2556
1043.556	-2183
1043.616	-2838
1043.677	-2350
1043.738	-1432
1043.799	-2181
1043.859	-2049
1043.920	-2507
1043.981	-2072
1044.041	-2214
1044.102	-2609
1044.162	-2021
1044.223	-2754
1044.284	-1863
1044.344	-2203
1044.405	-2361
1044.465	-1640
1044.525	-2988
1044.586	-2345
1044.646	-2198
1044.707	-2109
1044.767	-1954
1044.827	-2297
1044.887	-2241
1044.948	-2140
1045.008	-2283
1045.068	-2309
1045.128	-2022
1045.188	-1937
1045.249	-2696
1045.309	-2855
1045.369	-1700
1045.429	-1944
1045.489	-1978
1045.549	-1768
1045.609	-1631
1045.669	-2056
1045.729	-1982
1045.789	-1991
1045.848	-2342
1045.908	-1854
1045.968	-2541
1046.028	-1545
1046.088	-2154
1046.147	-1509
1046.207	-2033
1046.267	-1678
1046.326	-2597
1046.386	-1694
1046.446	-1763
1046.505	-1902
1046.565	-1714
1046.624	-1555
1046.684	-1862
1046.743	-1464
1046.803	-1768
1046.862	-456
1046.922	0
