'Start Wavelength	183.907
'End Wavelength	1046.922
'Gate Delay	5.000
'Gate Width (ms)	1.050
'Laser Output Level	0.000
'X Position	0.000
'Y Position	0.000
'Z Position	0.000
'Grid Point Number	1.000
'Shot Number	100.000
183.907	751.000
183.977	-820.000
184.047	-264
184.116	-25
184.186	268
184.256	65
184.325	-785
184.395	-148
184.465	767
184.534	739
184.604	300
184.674	125
184.743	-61
184.813	1063
184.883	-423
184.952	449
185.022	196
185.092	-124
185.161	-497
185.231	242
185.301	11
185.370	224
185.440	36
185.509	-34
185.579	-294
185.649	844
185.718	-59
185.788	715
185.857	-461
185.927	130
185.996	469
186.066	64
186.136	-315
186.205	-330
186.275	-215
186.344	-851
186.414	443
186.483	258
186.553	64
186.622	845
186.692	-581
186.761	286
186.831	-178
186.900	-207
186.970	97
187.039	313
187.109	1217
187.178	170
187.248	422
187.317	805
187.387	132
187.456	1083
187.526	541
187.595	871
187.664	464
187.734	51
187.803	268
187.873	1140
187.942	772
188.012	571
188.081	164
188.150	482
188.220	644
188.289	754
188.358	-4
188.428	688
188.497	476
188.567	511
188.636	93
188.705	579
188.775	-68
188.844	560
188.913	427
188.983	859
189.052	-39
189.121	571
189.191	88
189.260	1040
189.329	774
189.399	1114
189.468	144
189.537	615
189.606	253
189.676	274
189.745	600
189.814	604
189.883	853
189.953	516
190.022	1587
190.091	5751
190.161	7658
190.230	3091
190.299	970
190.368	1149
190.437	1023
190.507	1079
190.576	286
190.645	712
190.714	524
190.783	-337
190.853	1400
190.922	-230
190.991	-309
191.060	849
191.129	-202
191.198	422
191.268	294
191.337	97
191.406	796
191.475	790
191.544	-428
191.613	1020
191.682	493
191.752	-290
191.821	620
191.890	327
191.959	59
192.028	227
192.097	990
192.166	1089
192.235	408
192.304	909
192.373	283
192.442	1012
192.511	453
192.580	521
192.650	-219
192.719	537
192.788	334
192.857	1463
192.926	861
192.995	1268
193.064	526
193.133	2504
193.202	2080
193.271	2896
193.340	1725
193.409	2348
193.478	2408
193.547	2759
193.615	4646
193.684	4000
193.753	2408
193.822	1945
193.891	529
193.960	1092
194.029	339
194.098	498
194.167	472
194.236	1690
194.305	962
194.374	528
194.443	403
194.512	942
194.580	130
194.649	1385
194.718	509
194.787	516
194.856	-64
194.925	1294
194.994	543
195.062	424
195.131	1387
195.200	802
195.269	960
195.338	339
195.407	460
195.475	924
195.544	1121
195.613	1389
195.682	271
195.751	1031
195.819	767
195.888	1756
195.957	1080
196.026	1172
196.094	255
196.163	770
196.232	300
196.301	698
196.369	1560
196.438	923
196.507	1108
196.576	1248
196.644	904
196.713	939
196.782	777
196.850	948
196.919	1227
196.988	1798
197.056	489
197.125	339
197.194	726
197.262	448
197.331	1453
197.400	897
197.468	1226
197.537	1441
197.606	1564
197.674	3436
197.743	8373
197.812	2387
197.880	7289
197.949	5949
198.017	5869
198.086	4246
198.155	2230
198.223	2607
198.292	8402
198.360	4032
198.429	1891
198.497	2457
198.566	4614
198.635	9064
198.703	3493
198.772	2677
198.840	10019
198.909	10901
198.977	2991
199.046	2264
199.114	1868
199.183	1710
199.251	1151
199.320	1155
199.388	960
199.457	1670
199.525	967
199.594	739
199.662	1092
199.731	914
199.799	869
199.867	1486
199.936	1005
200.004	1573
200.073	1843
200.141	223
200.210	647
200.278	1087
200.346	1148
200.415	2136
200.483	2371
200.552	1749
200.620	728
200.688	595
200.757	1328
200.825	2079
200.893	1327
200.962	1373
201.030	1243
201.098	1321
201.167	1237
201.235	2017
201.303	1495
201.372	2086
201.440	1694
201.508	2042
201.577	980
201.645	1496
201.713	1169
201.781	606
201.850	1120
201.918	2079
201.986	937
202.055	1913
202.123	999
202.191	1088
202.259	596
202.327	1923
202.396	863
202.464	2213
202.532	971
202.600	3198
202.669	2017
202.737	1038
202.805	1397
202.873	795
202.941	1656
203.009	1129
203.078	1257
203.146	1950
203.214	1130
203.282	1026
203.350	1583
203.418	1372
203.487	712
203.555	1835
203.623	1329
203.691	1283
203.759	1146
203.827	1140
203.895	1872
203.963	1683
204.031	1617
204.099	1655
204.168	1033
204.236	2081
204.304	1768
204.372	1708
204.440	1359
204.508	1524
204.576	1211
204.644	1360
204.712	1898
204.780	2005
204.848	1708
204.916	1572
204.984	2281
205.052	1668
205.120	1392
205.188	2349
205.256	1908
205.324	1847
205.392	2580
205.460	2915
205.528	2714
205.596	2231
205.664	2707
205.732	3176
205.799	9164
205.867	17631
205.935	4819
206.003	3298
206.071	1944
206.139	3219
206.207	2405
206.275	2168
206.343	2135
206.411	1458
206.478	2037
206.546	2568
206.614	2685
206.682	2482
206.750	1993
206.818	2897
206.885	2708
206.953	1141
207.021	3170
207.089	2803
207.157	1099
207.225	3484
207.292	2854
207.360	2392
207.428	2322
207.496	2054
207.563	1986
207.631	1504
207.699	2300
207.767	2464
207.834	2221
207.902	2685
207.970	1786
208.038	3007
208.105	2330
208.173	3441
208.241	4450
208.309	4604
208.376	3045
208.444	5240
208.512	4052
208.579	2743
208.647	3789
208.715	3372
208.782	2896
208.850	2647
208.918	2315
208.985	2852
209.053	2421
209.120	2772
209.188	1845
209.256	3110
209.323	1314
209.391	3173
209.459	3531
209.526	3088
209.594	2220
209.661	2239
209.729	2278
209.796	3056
209.864	3421
209.932	1608
209.999	3581
210.067	3602
210.134	2518
210.202	2808
210.269	3542
210.337	3806
210.404	2778
210.472	3086
210.539	2455
210.607	3011
210.674	2860
210.742	3281
210.809	3479
210.877	3380
210.944	3356
211.012	2506
211.079	4140
211.146	3526
211.214	2743
211.281	3588
211.349	3841
211.416	3870
211.484	3742
211.551	2419
211.618	3633
211.686	3357
211.753	2167
211.821	4126
211.888	2877
211.955	4120
212.023	3696
212.090	3731
212.157	4085
212.225	5448
212.292	10061
212.359	21246
212.427	51120
212.494	26187
212.561	8819
212.629	6278
212.696	5658
212.763	5062
212.831	3156
212.898	4077
212.965	4125
213.032	3310
213.100	4466
213.167	2519
213.234	2949
213.301	3635
213.369	3753
213.436	3355
213.503	3793
213.570	4190
213.638	3446
213.705	3514
213.772	2893
213.839	3619
213.906	3831
213.973	3162
214.041	3612
214.108	3656
214.175	3656
214.242	3629
214.309	3797
214.376	4039
214.444	3764
214.511	3838
214.578	3094
214.645	4230
214.712	4002
214.779	4367
214.846	3919
214.913	4824
214.980	4345
215.048	4195
215.115	3928
215.182	3651
215.249	4224
215.316	3561
215.383	3812
215.450	3515
215.517	3310
215.584	3333
215.651	2965
215.718	3317
215.785	2860
215.852	2763
215.919	3200
215.986	3275
216.053	2816
216.120	2718
216.187	3117
216.254	3267
216.321	3258
216.388	3334
216.455	3903
216.522	4162
216.589	3683
216.656	4984
216.722	5942
216.789	6333
216.856	5168
216.923	5639
216.990	4810
217.057	5239
217.124	5581
217.191	4665
217.258	5758
217.324	6998
217.391	7392
217.458	6445
217.525	5218
217.592	5384
217.659	4529
217.725	5389
217.792	5027
217.859	5817
217.926	3655
217.993	3798
218.059	4428
218.126	3385
218.193	3653
218.260	3240
218.327	2941
218.393	3013
218.460	2846
218.527	2893
218.594	2803
218.660	4287
218.727	4322
218.794	2519
218.860	3106
218.927	2471
218.994	3117
219.061	2272
219.127	2737
219.194	3677
219.261	3100
219.327	2564
219.394	3047
219.461	2823
219.527	3284
219.594	3638
219.661	3136
219.727	2656
219.794	3385
219.860	3054
219.927	4003
219.994	4532
220.060	5577
220.127	6007
220.193	5566
220.260	5592
220.326	7912
220.393	11841
220.460	13539
220.526	9556
220.593	6977
220.659	8866
220.726	9771
220.792	23223
220.859	19093
220.925	18857
220.992	21819
221.058	26969
221.125	31290
221.191	23898
221.258	10256
221.324	7040
221.391	6146
221.457	5119
221.524	5124
221.590	8468
221.657	29769
221.723	21805
221.789	18606
221.856	17499
221.922	8854
221.989	6044
222.055	5445
222.121	3961
222.188	5266
222.254	4866
222.321	3240
222.387	3436
222.453	2463
222.520	3754
222.586	3416
222.652	2947
222.719	2900
222.785	3972
222.851	3025
222.918	2705
222.984	2223
223.050	2660
223.116	1627
223.183	4037
223.249	2209
223.315	2818
223.382	2766
223.448	2728
223.514	1569
223.580	2815
223.647	1919
223.713	2197
223.779	2306
223.845	2974
223.911	2210
223.978	2642
224.044	2285
224.110	1950
224.176	2905
224.242	2642
224.309	1895
224.375	2977
224.441	2348
224.507	2547
224.573	1779
224.639	2088
224.705	1696
224.772	2175
224.838	2004
224.904	2121
224.970	1540
225.036	2387
225.102	2052
225.168	3974
225.234	2760
225.300	2537
225.366	2504
225.432	3044
225.499	2834
225.565	2718
225.631	3118
225.697	3639
225.763	4172
225.829	5332
225.895	5199
225.961	6378
226.027	6301
226.093	6082
226.159	7560
226.225	13260
226.291	26149
226.357	37621
226.423	20520
226.489	13275
226.554	8474
226.620	9180
226.686	9588
226.752	13651
226.818	25809
226.884	51890
226.950	45864
227.016	21518
227.082	11927
227.148	7933
227.214	6489
227.279	5718
227.345	4253
227.411	4682
227.477	3760
227.543	6955
227.609	6571
227.674	4941
227.740	3508
227.806	5045
227.872	4631
227.938	4124
228.003	3168
228.069	3004
228.135	2648
228.201	3783
228.267	2566
228.332	3556
228.398	2022
228.464	3457
228.530	2174
228.595	3093
228.661	2510
228.727	3055
228.792	2795
228.858	2333
228.924	2473
228.990	5126
229.055	2346
229.121	4255
229.187	2758
229.252	2896
229.318	2393
229.384	3084
229.449	2174
229.515	1087
229.581	1015
229.646	3359
229.712	1957
229.777	3182
229.843	3760
229.909	4465
229.974	4053
230.040	5465
230.105	4360
230.171	4763
230.236	8263
230.302	10915
230.368	6403
230.433	4143
230.499	5230
230.564	4696
230.630	2773
230.695	4156
230.761	4659
230.826	2514
230.892	4859
230.957	2118
231.023	2282
231.088	2739
231.154	3299
231.219	3797
231.284	2986
231.350	4264
231.415	2508
231.481	3703
231.546	2604
231.612	2828
231.677	2327
231.742	1927
231.808	3867
231.873	2936
231.939	1016
232.004	3775
232.069	3641
232.135	3326
232.200	3576
232.265	3095
232.331	2132
232.396	2439
232.461	1621
232.527	2088
232.592	2540
232.657	2229
232.723	2534
232.788	2415
232.853	2424
232.918	2659
232.984	2107
233.049	1726
233.114	1277
233.179	3379
233.245	3616
233.310	3853
233.375	1826
233.440	2252
233.506	1646
233.571	1852
233.636	2740
233.701	1532
233.766	3039
233.832	3261
233.897	1365
233.962	876
234.027	3006
234.092	2368
234.157	1707
234.222	2309
234.288	2802
234.353	7595
234.418	6799
234.483	5286
234.548	4273
234.613	3916
234.678	3925
234.743	4266
234.808	7752
234.873	5906
234.938	5048
235.004	4086
235.069	3663
235.134	3370
235.199	3428
235.264	2649
235.329	2908
235.394	4799
235.459	3992
235.524	3397
235.589	3532
235.654	3023
235.719	1403
235.784	4704
235.849	3201
235.913	5174
235.978	4811
236.043	5617
236.108	3912
236.173	3385
236.238	4791
236.303	3679
236.368	3279
236.433	5202
236.498	7256
236.563	9848
236.627	20827
236.692	68310
236.757	62613
236.822	24107
236.887	14548
236.952	13265
237.017	10568
237.081	11077
237.146	13433
237.211	32222
237.276	71839
237.341	112195
237.405	55682
237.470	23102
237.535	14851
237.600	9814
237.664	8487
237.729	5961
237.794	8613
237.859	17293
237.923	10296
237.988	6559
238.053	6372
238.118	5806
238.182	13632
238.247	14306
238.312	4709
238.376	4832
238.441	2982
238.506	5161
238.570	2079
238.635	4346
238.700	3439
238.764	3580
238.829	4743
238.893	5659
238.958	4361
239.023	3268
239.087	3178
239.152	4732
239.216	2364
239.281	3686
239.346	3758
239.410	2300
239.475	3362
239.539	11338
239.604	9096
239.668	4542
239.733	2816
239.797	5188
239.862	8939
239.926	9160
239.991	5002
240.055	3318
240.120	2713
240.184	3493
240.249	1964
240.313	2050
240.378	2112
240.442	5811
240.507	9484
240.571	2911
240.635	3347
240.700	5642
240.764	2189
240.829	2756
240.893	1045
240.957	2434
241.022	4575
241.086	8330
241.151	2329
241.215	2106
241.279	3454
241.344	3674
241.408	4115
241.472	4515
241.537	5114
241.601	4067
241.665	3165
241.730	3595
241.794	4904
241.858	3943
241.922	3605
241.987	3965
242.051	3729
242.115	2956
242.179	4391
242.244	3659
242.308	4258
242.372	4069
242.436	3260
242.501	4241
242.565	2922
242.629	3339
242.693	4411
242.757	3945
242.822	3690
242.886	4229
242.950	4231
243.014	4040
243.078	3895
243.142	4173
243.206	3786
243.271	5710
243.335	6323
243.399	13809
243.463	52955
243.527	133255
243.591	43523
243.655	14788
243.719	8553
243.783	8342
243.847	12776
243.911	19129
243.975	8028
244.040	5255
244.104	6027
244.168	3987
244.232	3772
244.296	8166
244.360	15009
244.424	4746
244.488	4229
244.552	4390
244.615	1683
244.679	3773
244.743	2771
244.807	2671
244.871	3148
244.935	3376
244.999	1749
245.063	2631
245.127	4405
245.191	10299
245.255	10319
245.319	3904
245.383	1615
245.446	3963
245.510	1575
245.574	2975
245.638	2558
245.702	873
245.766	4145
245.829	3946
245.893	2270
245.957	3261
246.021	3798
246.085	3336
246.149	3702
246.212	6928
246.276	11084
246.340	4669
246.404	3867
246.467	4881
246.531	3426
246.595	4996
246.659	3261
246.722	3401
246.786	3147
246.850	4114
246.913	4188
246.977	2660
247.041	2630
247.104	3128
247.168	4157
247.232	5632
247.295	14920
247.359	7592
247.423	3575
247.486	4538
247.550	3448
247.614	3192
247.677	4031
247.741	2925
247.804	2554
247.868	4087
247.932	4980
247.995	14201
248.059	5039
248.122	2613
248.186	5010
248.249	6945
248.313	26680
248.376	26525
248.440	14387
248.503	4838
248.567	6116
248.630	5552
248.694	7343
248.757	11439
248.821	31092
248.884	17106
248.948	13389
249.011	19585
249.075	34834
249.138	28005
249.202	10397
249.265	7490
249.328	9100
249.392	6879
249.455	7133
249.519	6491
249.582	6894
249.645	8764
249.709	8150
249.772	8031
249.835	8115
249.899	7402
249.962	7482
250.025	7619
250.089	11644
250.152	14867
250.215	8381
250.279	8065
250.342	9369
250.405	9833
250.468	9907
250.532	13040
250.595	27213
250.658	117272
250.721	202512
250.785	64578
250.848	29186
250.911	18699
250.974	16504
251.038	17047
251.101	24582
251.164	15223
251.227	15606
251.290	20274
251.354	39030
251.417	162964
251.480	173439
251.543	120021
251.606	298713
251.669	238751
251.732	88539
251.795	59154
251.859	69443
251.922	188623
251.985	111275
252.048	38251
252.111	23991
252.174	19315
252.237	25319
252.300	50397
252.363	83323
252.426	223371
252.489	91346
252.552	33963
252.615	21930
252.678	22982
252.741	42880
252.804	91962
252.867	240248
252.930	108185
252.993	38912
253.056	24104
253.119	18123
253.182	16741
253.245	36521
253.308	24732
253.371	11470
253.434	9420
253.497	8947
253.559	13122
253.622	8643
253.685	8384
253.748	7689
253.811	5352
253.874	6294
253.937	6326
254.000	5100
254.062	8940
254.125	13258
254.188	8280
254.251	6557
254.314	5023
254.376	5351
254.439	6038
254.502	4681
254.565	7003
254.628	13432
254.690	5871
254.753	3678
254.816	3575
254.878	3182
254.941	9068
255.004	9404
255.067	4385
255.129	2632
255.192	3509
255.255	1315
255.317	2353
255.380	2517
255.443	2654
255.505	1443
255.568	1368
255.631	1554
255.693	2679
255.756	2048
255.819	3923
255.881	2899
255.944	3172
256.006	2681
256.069	2890
256.132	1860
256.194	3417
256.257	5050
256.319	4592
256.382	4880
256.444	6009
256.507	4799
256.569	5013
256.632	5519
256.694	9101
256.757	33775
256.819	108359
256.882	48255
256.944	16785
257.007	11103
257.069	8722
257.132	6419
257.194	7387
257.257	5057
257.319	5132
257.381	8885
257.444	26723
257.506	122445
257.569	131904
257.631	41143
257.693	20048
257.756	13508
257.818	8761
257.880	6664
257.943	6261
258.005	4597
258.067	3708
258.130	3983
258.192	4204
258.254	4935
258.317	4344
258.379	3659
258.441	6003
258.503	6907
258.566	8522
258.628	11066
258.690	3963
258.753	4391
258.815	5434
258.877	4194
258.939	4423
259.001	4515
259.064	4013
259.126	4357
259.188	5398
259.250	4393
259.312	3975
259.375	7111
259.437	5368
259.499	3485
259.561	4385
259.623	3364
259.685	3021
259.747	4002
259.809	8562
259.872	15608
259.934	26187
259.996	19904
260.058	5644
260.120	3268
260.182	3866
260.244	2960
260.306	2676
260.368	3098
260.430	2157
260.492	2823
260.554	4811
260.616	4543
260.678	8040
260.740	12040
260.802	4499
260.864	3493
260.926	2168
260.988	3305
261.050	2218
261.112	2664
261.174	12138
261.236	11288
261.298	4181
261.359	6055
261.421	8794
261.483	2460
261.545	3696
261.607	1031
261.669	2964
261.731	4119
261.793	6971
261.854	1798
261.916	3457
261.978	1653
262.040	2963
262.102	3852
262.164	3202
262.225	3034
262.287	2964
262.349	3085
262.411	3847
262.472	3271
262.534	3575
262.596	6841
262.658	3803
262.719	1832
262.781	3134
262.843	6672
262.904	4657
262.966	4590
263.028	10234
263.090	52542
263.151	151284
263.213	42905
263.275	12966
263.336	7513
263.398	6411
263.459	3662
263.521	3761
263.583	3990
263.644	3340
263.706	1268
263.767	1453
263.829	2310
263.891	1700
263.952	663
264.014	2094
264.075	1142
264.137	1879
264.198	2478
264.260	1047
264.321	1599
264.383	2090
264.444	2532
264.506	1908
264.567	2492
264.629	3408
264.690	680
264.752	2428
264.813	2435
264.875	1514
264.936	2062
264.998	1952
265.059	2432
265.120	3607
265.182	7953
265.243	47752
265.305	54715
265.366	12852
265.427	6139
265.489	5192
265.550	1847
265.611	2929
265.673	1929
265.734	2014
265.795	2820
265.857	2635
265.918	4753
265.979	14556
266.040	84149
266.102	77992
266.163	18014
266.224	8626
266.286	6007
266.347	4565
266.408	3059
266.469	3307
266.530	2040
266.592	2098
266.653	2313
266.714	2995
266.775	1384
266.836	1759
266.898	1352
266.959	2052
267.020	1616
267.081	3131
267.142	1722
267.203	1744
267.264	1424
267.326	2538
267.387	2025
267.448	1655
267.509	2231
267.570	1769
267.631	1938
267.692	973
267.753	2172
267.814	1210
267.875	3170
267.936	5151
267.997	4937
268.058	5029
268.119	2445
268.180	2266
268.241	1024
268.302	2152
268.363	1170
268.424	891
268.485	2069
268.546	1068
268.607	1920
268.668	1094
268.729	1222
268.790	765
268.851	1500
268.912	1954
268.972	2094
269.033	1652
269.094	704
269.155	1430
269.216	1182
269.277	1471
269.338	1238
269.398	1709
269.459	1567
269.520	2067
269.581	2068
269.642	2677
269.702	1393
269.763	2513
269.824	1346
269.885	2168
269.945	2648
270.006	1749
270.067	649
270.128	2087
270.188	1017
270.249	2008
270.310	1116
270.370	2106
270.431	1455
270.492	1064
270.553	1111
270.613	1945
270.674	3421
270.734	1923
270.795	1687
270.856	2015
270.916	414
270.977	2396
271.038	1123
271.098	2365
271.159	2032
271.219	2493
271.280	1362
271.340	2021
271.401	1132
271.462	2969
271.522	2077
271.583	2329
271.643	1528
271.704	2169
271.764	1706
271.825	3718
271.885	19058
271.946	30918
272.006	7808
272.066	11994
272.127	23919
272.187	6582
272.248	3062
272.308	3763
272.369	11737
272.429	7065
272.489	2877
272.550	2138
272.610	3466
272.671	2175
272.731	3156
272.791	4007
272.852	2189
272.912	1777
272.972	864
273.033	1856
273.093	2190
273.153	2992
273.214	1270
273.274	2578
273.334	5389
273.394	11634
273.455	4074
273.515	4080
273.575	7363
273.635	3772
273.696	5174
273.756	14965
273.816	5177
273.876	3201
273.936	6232
273.997	11734
274.057	2647
274.117	2643
274.177	2725
274.237	14659
274.297	15250
274.358	8261
274.418	8872
274.478	5690
274.538	2983
274.598	2854
274.658	7474
274.718	10892
274.778	3529
274.838	2667
274.898	4588
274.958	16636
275.018	16451
275.078	11516
275.138	2478
275.198	2221
275.258	1602
275.318	2571
275.378	2161
275.438	1683
275.498	1850
275.558	8724
275.618	15580
275.678	7360
275.738	2850
275.798	1854
275.858	1803
275.918	526
275.978	1579
276.038	1675
276.098	1278
276.157	1615
276.217	5131
276.277	2583
276.337	945
276.397	1552
276.457	1093
276.517	1270
276.576	1375
276.636	1023
276.696	587
276.756	3447
276.815	3082
276.875	1419
276.935	1260
276.995	1734
277.055	155
277.114	1318
277.174	2118
277.234	3486
277.293	1588
277.353	512
277.413	1787
277.472	1276
277.532	689
277.592	1859
277.651	4207
277.711	7923
277.771	2203
277.830	7841
277.890	7384
277.950	7206
278.009	24208
278.069	8320
278.128	6224
278.188	7816
278.248	3150
278.307	8412
278.367	5417
278.426	2888
278.486	2217
278.545	2247
278.605	1907
278.664	1660
278.724	1366
278.783	5036
278.843	15768
278.902	4866
278.962	2700
279.021	3700
279.081	5061
279.140	5014
279.199	3546
279.259	5149
279.318	5002
279.378	6610
279.437	12311
279.496	42334
279.556	150451
279.615	121278
279.675	25718
279.734	14682
279.793	17538
279.853	29638
279.912	10926
279.971	5959
280.031	5002
280.090	9495
280.149	18089
280.208	16994
280.268	92423
280.327	103046
280.386	18432
280.445	9544
280.505	7563
280.564	5222
280.623	3939
280.682	4384
280.742	4005
280.801	3120
280.860	1924
280.919	1491
280.978	1441
281.037	1707
281.097	1691
281.156	2240
281.215	1077
281.274	2249
281.333	6603
281.392	5537
281.451	2275
281.510	1344
281.569	915
281.628	1803
281.688	1591
281.747	1343
281.806	1436
281.865	1552
281.924	1464
281.983	1019
282.042	676
282.101	397
282.160	959
282.219	526
282.278	582
282.337	2073
282.396	1365
282.454	881
282.513	213
282.572	3600
282.631	1878
282.690	834
282.749	267
282.808	935
282.867	841
282.926	1002
282.985	350
283.043	1402
283.102	306
283.161	1265
283.220	1938
283.279	4911
283.338	1069
283.396	947
283.455	1753
283.514	1446
283.573	2104
283.631	1344
283.690	696
283.749	781
283.808	2093
283.866	1807
283.925	174
283.984	1835
284.043	1454
284.101	1479
284.160	392
284.219	1529
284.277	1374
284.336	1659
284.395	5055
284.453	4691
284.512	2071
284.570	2223
284.629	1949
284.688	2309
284.746	1863
284.805	2677
284.863	3050
284.922	3255
284.981	4023
285.039	6921
285.098	14468
285.156	42267
285.215	184402
285.273	190364
285.332	69106
285.390	29605
285.449	17668
285.507	12363
285.566	8492
285.624	5929
285.683	5073
285.741	3607
285.799	2687
285.858	2568
285.916	2689
285.975	1938
286.033	1449
286.091	2662
286.150	670
286.208	2068
286.267	1527
286.325	2101
286.383	1684
286.442	2144
286.500	1648
286.558	2880
286.616	1598
286.675	2071
286.733	1039
286.791	1563
286.850	2114
286.908	1321
286.966	2699
287.024	1967
287.083	2085
287.141	2563
287.199	1707
287.257	2561
287.315	2622
287.374	3087
287.432	4263
287.490	5089
287.548	3280
287.606	3961
287.664	3769
287.723	4139
287.781	5152
287.839	6082
287.897	8455
287.955	14555
288.013	27488
288.071	67387
288.129	229180
288.187	564982
288.245	295089
288.303	99023
288.361	54065
288.419	37306
288.477	24915
288.535	18848
288.593	13470
288.651	8766
288.709	6907
288.767	5951
288.825	3870
288.883	2848
288.941	3309
288.999	3075
289.057	2350
289.115	1799
289.173	1569
289.231	3005
289.289	1081
289.346	1768
289.404	2132
289.462	2338
289.520	2241
289.578	1645
289.636	2352
289.694	1513
289.751	1155
289.809	1673
289.867	2341
289.925	2475
289.983	1572
290.040	2085
290.098	1543
290.156	1149
290.214	1755
290.271	739
290.329	2317
290.387	1114
290.444	837
290.502	1211
290.560	1755
290.617	365
290.675	614
290.733	565
290.790	186
290.848	1337
290.906	-329
290.963	682
291.021	483
291.078	591
291.136	473
291.194	1362
291.251	3014
291.309	726
291.366	309
291.424	359
291.481	593
291.539	-506
291.596	293
291.654	-133
291.711	-745
291.769	822
291.826	876
291.884	132
291.941	132
291.999	42
292.056	-222
292.114	471
292.171	35
292.228	376
292.286	383
292.343	1202
292.401	80
292.458	741
292.515	296
292.573	607
292.630	76
292.687	699
292.745	204
292.802	-263
292.859	1547
292.917	4402
292.974	2262
293.031	1245
293.089	104
293.146	685
293.203	63
293.260	594
293.318	37
293.375	947
293.432	-124
293.489	480
293.546	-325
293.604	1449
293.661	5735
293.718	15760
293.775	5559
293.832	1763
293.889	1052
293.947	1837
294.004	1014
294.061	731
294.118	749
294.175	2126
294.232	1582
294.289	1166
294.346	1171
294.403	2189
294.460	775
294.517	576
294.574	1115
294.631	634
294.688	421
294.745	2875
294.802	13579
294.859	8573
294.916	3286
294.973	1885
295.030	1003
295.087	1450
295.144	717
295.201	784
295.258	1028
295.315	967
295.372	4815
295.429	9900
295.486	2984
295.542	1383
295.599	860
295.656	1773
295.713	2868
295.770	6521
295.827	2431
295.883	1569
295.940	1030
295.997	1852
296.054	438
296.111	492
296.167	458
296.224	-324
296.281	173
296.338	1024
296.394	145
296.451	663
296.508	1705
296.564	5270
296.621	3742
296.678	16500
296.734	26070
296.791	7058
296.848	2641
296.904	2349
296.961	4064
297.018	9129
297.074	7867
297.131	2487
297.187	1532
297.244	4093
297.301	13168
297.357	27404
297.414	7945
297.470	2600
297.527	1570
297.583	1424
297.640	1006
297.696	360
297.753	378
297.809	1029
297.866	-254
297.922	-133
297.979	-855
298.035	410
298.092	1224
298.148	4689
298.204	3705
298.261	2388
298.317	6331
298.374	20671
298.430	11426
298.486	4146
298.543	2420
298.599	2136
298.656	4409
298.712	11098
298.768	47245
298.824	44621
298.881	11787
298.937	5380
298.993	2745
299.050	3321
299.106	2715
299.162	2201
299.218	2221
299.275	1626
299.331	2456
299.387	4084
299.443	17938
299.500	18560
299.556	6897
299.612	2768
299.668	2809
299.724	3813
299.780	4006
299.837	1338
299.893	2194
299.949	7892
300.005	10288
300.061	10178
300.117	23178
300.173	11069
300.229	2939
300.285	2630
300.341	2024
300.397	766
300.453	507
300.510	617
300.566	400
300.622	1897
300.678	8683
300.734	12164
300.790	10156
300.845	13020
300.901	7342
300.957	8280
301.013	5201
301.069	1569
301.125	670
301.181	1016
301.237	653
301.293	262
301.349	277
301.405	-13
301.461	-390
301.516	596
301.572	-690
301.628	65
301.684	264
301.740	1327
301.796	3017
301.851	2896
301.907	4585
301.963	7466
302.019	17222
302.074	60989
302.130	60633
302.186	23300
302.242	8506
302.297	5957
302.353	3967
302.409	5901
302.464	4219
302.520	4164
302.576	9522
302.631	11440
302.687	5143
302.743	2097
302.798	1656
302.854	1559
302.910	845
302.965	1901
303.021	1761
303.076	2802
303.132	1955
303.187	2183
303.243	1471
303.299	1118
303.354	844
303.410	1430
303.465	8
303.521	718
303.576	646
303.632	2541
303.687	4099
303.743	13425
303.798	11036
303.853	4285
303.909	1696
303.964	1801
304.020	1681
304.075	2494
304.130	2201
304.186	3087
304.241	3665
304.297	3221
304.352	1161
304.358	1109
304.407	682
304.449	734
304.463	754
304.518	1068
304.539	936
304.573	710
304.629	2177
304.630	2196
304.684	3269
304.720	8472
304.739	11044
304.794	18548
304.811	15500
304.850	8205
304.902	3510
304.905	3221
304.960	2895
304.992	3800
305.015	4387
305.071	4102
305.083	3528
305.126	1485
305.173	838
305.181	738
305.236	551
305.264	923
305.292	1301
305.347	1318
305.354	1383
305.402	1940
305.445	3111
305.457	3393
305.512	4529
305.535	3826
305.567	2910
305.622	3394
305.626	3505
305.678	6440
305.716	14020
305.733	16594
305.788	15047
305.807	12959
305.843	10050
305.897	15188
305.898	15240
305.953	15978
305.988	10520
306.008	7507
306.063	3454
306.078	3026
306.118	2323
306.168	1110
306.173	1004
306.228	1159
306.259	1213
306.283	1263
306.338	2124
306.349	2229
306.393	3033
306.440	4689
306.448	4851
306.503	4368
306.530	3645
306.558	3454
306.613	5865
306.620	6124
306.668	7314
306.711	8188
306.723	8154
306.778	5963
306.801	4579
306.833	3264
306.888	1964
306.892	1939
306.943	1819
306.982	1847
306.997	1848
307.052	1971
307.072	1885
307.107	1890
307.162	2226
307.163	2231
307.217	2686
307.253	2417
307.272	2305
307.327	2532
307.343	2625
307.381	2910
307.434	3019
307.436	3055
307.491	3935
307.524	5661
307.546	6505
307.600	7113
307.614	6690
307.655	5195
307.704	4430
307.710	4427
307.765	5233
307.795	5605
307.819	6100
307.874	8155
307.885	8525
307.929	11102
307.975	15248
307.984	16953
308.038	31199
308.065	42411
308.093	79491
308.148	172806
308.156	193563
308.202	291374
308.246	355157
308.257	346184
308.312	178510
308.336	113067
308.366	74784
308.421	38532
308.426	36157
308.475	25854
308.517	21171
308.530	20040
308.585	15717
308.607	14329
308.639	12901
308.694	11352
308.697	11335
308.748	11412
308.787	11759
308.803	11769
308.857	11584
308.877	11604
308.912	13066
308.967	16779
308.967	16848
309.021	25895
309.058	33942
309.076	45524
309.130	88802
309.148	106853
309.185	221404
309.238	420394
309.239	421403
309.293	447642
309.328	398249
309.348	341284
309.402	153347
309.418	108861
309.457	71787
309.508	40568
309.511	39447
309.566	29622
309.598	24658
309.620	22646
309.674	18674
309.688	17956
309.729	15537
309.778	12900
309.783	12634
309.837	10135
309.868	9140
309.892	9170
309.946	9769
309.959	10113
310.001	11268
310.049	12217
310.055	11887
310.109	8267
310.139	6130
310.163	5278
310.218	4299
310.229	4067
310.272	3691
310.319	3635
310.326	3535
310.381	2521
310.409	2264
310.435	2403
310.489	2420
310.499	2444
310.543	2410
310.589	2298
310.598	2278
310.652	2252
310.679	2200
310.706	2080
310.760	2014
310.769	1970
310.814	1586
310.859	1333
310.868	1364
310.923	1447
310.948	1562
310.977	1772
311.031	2088
311.038	2126
311.085	1832
311.128	1498
311.139	1591
311.193	2319
311.218	2485
311.247	2248
311.301	2041
311.308	1990
311.356	1721
311.398	1545
311.410	1599
311.464	1792
311.488	1919
311.518	1653
311.572	1100
311.578	1042
311.626	1702
311.668	2220
311.680	2214
311.734	2191
311.758	2174
311.788	2339
311.842	2652
311.847	2675
311.896	2369
311.937	2120
311.950	2054
312.004	1729
312.027	1591
312.058	1774
312.112	2101
312.117	2130
312.165	1835
312.207	1580
312.297	1795
312.386	1387
312.476	1846
312.566	2388
312.656	2304
312.745	2391
312.835	1318
312.925	2306
313.015	2282
313.104	2214
313.194	1861
313.284	2175
313.374	2087
313.463	2134
313.553	1478
313.643	1539
313.732	1821
313.822	1794
313.912	2085
314.001	1580
314.091	1432
314.180	1954
314.270	2483
314.360	2022
314.449	1125
314.539	1856
314.628	2278
314.718	1740
314.808	1801
314.897	1971
314.987	1246
315.076	2213
315.166	1946
315.255	2050
315.345	2782
315.434	2268
315.524	2512
315.613	2633
315.703	3716
315.792	10911
315.881	40597
315.971	13290
316.060	4139
316.150	3258
316.239	2038
316.328	1669
316.418	1280
316.507	1878
316.597	2123
316.686	1208
316.775	1850
316.865	2762
316.954	1073
317.043	2333
317.133	1320
317.222	1269
317.311	1798
317.400	965
317.490	2897
317.579	3478
317.668	3279
317.757	6248
317.847	20619
317.936	72025
318.025	20359
318.114	11644
318.203	4825
318.293	2945
318.382	1743
318.471	3511
318.560	2527
318.649	3229
318.738	1455
318.828	1600
318.917	922
319.006	922
319.095	3165
319.184	3945
319.273	2472
319.362	2702
319.451	1835
319.540	1991
319.629	2661
319.718	3414
319.807	2352
319.896	2391
319.985	4812
320.074	2770
320.163	1029
320.252	1879
320.341	892
320.430	945
320.519	1723
320.608	583
320.697	1749
320.786	1338
320.875	1554
320.964	2260
321.053	2488
321.142	3644
321.230	3925
321.319	2364
321.408	4945
321.497	2904
321.586	2776
321.675	2448
321.764	2740
321.852	1849
321.941	3355
322.030	2685
322.119	2755
322.207	6100
322.296	3931
322.385	2603
322.474	3379
322.562	7418
322.651	3645
322.740	2716
322.829	3676
322.917	2782
323.006	2333
323.095	2075
323.183	1550
323.272	1883
323.361	3598
323.449	6946
323.538	2495
323.626	4940
323.715	3165
323.804	1940
323.892	4116
323.981	2444
324.069	1469
324.158	3176
324.246	2595
324.335	1551
324.424	2282
324.512	1200
324.601	2607
324.689	8692
324.778	11137
324.866	3536
324.954	1110
325.043	1224
325.131	1449
325.220	2465
325.308	1724
325.397	2355
325.485	2071
325.574	1203
325.662	994
325.750	964
325.839	1599
325.927	1030
326.015	1288
326.104	463
326.192	1098
326.280	861
326.369	425
326.457	1924
326.545	2013
326.634	1279
326.722	482
326.810	630
326.898	1201
326.987	1066
327.075	904
327.163	2930
327.251	2267
327.340	5173
327.428	6513
327.516	1600
327.604	788
327.692	1234
327.781	1117
327.869	1337
327.957	929
328.045	1507
328.133	2147
328.221	1040
328.309	1587
328.397	2235
328.485	1297
328.574	2011
328.662	4485
328.750	2274
328.838	1261
328.926	855
329.014	1927
329.102	1024
329.190	1402
329.278	1788
329.366	1548
329.454	1484
329.542	1284
329.630	1942
329.718	2224
329.806	3430
329.893	4274
329.981	7623
330.069	22603
330.157	93900
330.245	236965
330.333	115169
330.421	17174
330.509	6403
330.597	6141
330.684	4072
330.772	2849
330.860	1623
330.948	1336
331.036	1274
331.123	472
331.211	704
331.299	1107
331.387	1771
331.475	1595
331.562	1027
331.650	485
331.738	1085
331.825	1393
331.913	726
332.001	886
332.089	1177
332.176	933
332.264	1377
332.352	1943
332.439	913
332.527	289
332.614	49
332.702	399
332.790	681
332.877	1915
332.965	2444
333.052	720
333.140	1047
333.228	2360
333.315	108
333.403	800
333.490	1129
333.578	1613
333.665	2815
333.753	1757
333.840	230
333.928	1202
334.015	1065
334.103	2256
334.190	4846
334.278	2255
334.365	2151
334.452	2301
334.540	1285
334.627	1423
334.715	2087
334.802	3187
334.889	9566
334.977	10248
335.064	3587
335.151	1649
335.239	1629
335.326	1382
335.413	2792
335.501	2234
335.588	1514
335.675	1105
335.762	996
335.850	1946
335.937	2915
336.024	6145
336.111	12093
336.199	6855
336.286	2360
336.373	1456
336.460	1415
336.547	1417
336.635	1373
336.722	1115
336.809	124
336.896	826
336.983	1975
337.070	4068
337.157	4360
337.245	4252
337.332	2888
337.419	638
337.506	797
337.593	572
337.680	857
337.767	2043
337.854	943
337.941	746
338.028	1628
338.115	5
338.202	1480
338.289	1164
338.376	4301
338.463	1516
338.550	888
338.637	1051
338.724	1204
338.811	2006
338.898	699
338.984	523
339.071	629
339.158	686
339.245	1209
339.332	1673
339.419	926
339.506	743
339.593	284
339.679	1031
339.766	834
339.853	594
339.940	2224
340.027	1233
340.113	1281
340.200	603
340.287	1037
340.374	643
340.460	1871
340.547	295
340.634	1347
340.720	4007
340.807	1943
340.894	612
340.980	672
341.067	522
341.154	1089
341.240	1171
341.327	1713
341.414	865
341.500	324
341.587	1186
341.674	1176
341.760	1813
341.847	1680
341.933	380
342.020	-238
342.106	602
342.193	725
342.279	1769
342.366	1221
342.452	1881
342.539	1341
342.625	1853
342.712	4485
342.798	1982
342.885	1210
342.971	-260
343.058	482
343.144	304
343.230	736
343.317	427
343.403	262
343.490	170
343.576	714
343.662	590
343.749	1577
343.835	1577
343.921	4830
344.008	30179
344.094	55854
344.180	9588
344.267	2708
344.353	8047
344.439	5929
344.525	1819
344.612	2261
344.698	1248
344.784	984
344.870	1198
344.957	1107
345.043	1663
345.129	569
345.215	1862
345.301	1137
345.387	883
345.474	486
345.560	187
345.646	328
345.732	646
345.818	905
345.904	371
345.990	776
346.076	1253
346.162	462
346.249	1512
346.335	456
346.421	1924
346.507	4613
346.593	12764
346.679	1862
346.765	890
346.851	1124
346.937	-186
347.023	1518
347.108	630
347.194	185
347.280	569
347.366	849
347.452	5699
347.538	18094
347.624	10315
347.710	5559
347.796	582
347.882	795
347.967	705
348.053	890
348.139	737
348.225	668
348.311	241
348.397	1226
348.482	1527
348.568	979
348.654	900
348.740	777
348.825	459
348.911	3327
348.997	9073
349.083	15864
349.168	2244
349.254	874
349.340	1085
349.425	1026
349.511	197
349.597	635
349.682	1995
349.768	6787
349.854	2893
349.939	1527
350.025	-241
350.110	600
350.196	526
350.282	112
350.367	1568
350.453	817
350.538	217
350.624	205
350.709	829
350.795	260
350.880	-231
350.966	946
351.051	520
351.137	444
351.222	742
351.308	1485
351.393	4054
351.479	703
351.564	34
351.649	953
351.735	675
351.820	265
351.906	361
351.991	806
352.076	3216
352.162	4396
352.247	1537
352.332	942
352.418	668
352.503	1456
352.588	6741
352.673	5210
352.759	1231
352.844	202
352.929	1359
353.014	802
353.100	635
353.185	1224
353.270	1015
353.355	1806
353.441	736
353.526	334
353.611	1377
353.696	1602
353.781	1777
353.866	660
353.952	1232
354.037	896
354.122	3632
354.207	2227
354.292	413
354.377	684
354.462	786
354.547	259
354.632	756
354.717	906
354.802	752
354.887	664
354.972	578
355.057	396
355.142	-32
355.227	510
355.312	1369
355.397	1914
355.482	4802
355.567	1815
355.652	2056
355.737	1960
355.822	7873
355.907	5748
355.991	1581
356.076	558
356.161	670
356.246	467
356.331	1542
356.416	2961
356.501	22519
356.585	18747
356.670	878
356.755	2513
356.840	3581
356.924	17879
357.009	61641
357.094	18861
357.179	1780
357.263	1255
357.348	1721
357.433	1757
357.517	1175
357.602	923
357.687	671
357.771	1925
357.856	3130
357.941	3620
358.025	21669
358.110	89905
358.195	32545
358.279	2742
358.364	2297
358.448	5604
358.533	12878
358.617	8627
358.702	8833
358.787	3408
358.871	1597
358.956	1225
359.040	970
359.125	387
359.209	193
359.294	1366
359.378	1351
359.462	1307
359.547	835
359.631	-61
359.716	-204
359.800	392
359.885	473
359.969	274
360.053	894
360.138	-42
360.222	617
360.306	1824
360.391	829
360.475	1011
360.559	3750
360.644	3827
360.728	2873
360.812	13535
360.896	32843
360.981	8489
361.065	2259
361.149	1125
361.233	1109
361.318	221
361.402	146
361.486	1205
361.570	496
361.654	1164
361.739	4047
361.823	22727
361.907	33319
361.991	4688
362.075	2344
362.159	2283
362.243	3886
362.327	4541
362.411	7299
362.495	2633
362.580	881
362.664	1050
362.748	1261
362.832	2419
362.916	2947
363.000	16083
363.084	36433
363.168	43195
363.252	7466
363.336	2171
363.420	2100
363.503	3269
363.587	2663
363.671	1826
363.755	-174
363.839	2632
363.923	640
364.007	2467
364.091	2319
364.175	2166
364.258	10329
364.342	14970
364.426	29915
364.510	12778
364.594	5605
364.677	7647
364.761	29030
364.845	18527
364.929	3633
365.013	2391
365.096	1732
365.180	1559
365.264	2056
365.347	4794
365.431	1861
365.515	-289
365.598	-284
365.682	1244
365.766	-693
365.849	424
365.933	342
366.017	1331
366.100	-479
366.184	-490
366.267	808
366.351	520
366.435	-152
366.518	-211
366.602	817
366.685	17
366.769	13
366.852	676
366.936	1140
367.019	1393
367.103	-58
367.186	1521
367.270	593
367.353	-264
367.436	1345
367.520	-346
367.603	437
367.687	141
367.770	1531
367.853	1497
367.937	5312
368.020	8213
368.104	678
368.187	1714
368.270	1739
368.353	1038
368.437	1172
368.520	2612
368.603	2215
368.687	5478
368.770	9078
368.853	1303
368.936	1807
369.020	1286
369.103	1133
369.186	-321
369.269	135
369.352	1188
369.436	1822
369.519	543
369.602	-1144
369.685	2219
369.768	232
369.851	603
369.934	-184
370.018	427
370.101	473
370.184	2049
370.267	1157
370.350	1826
370.433	3080
370.516	13757
370.599	22443
370.682	6161
370.765	4794
370.848	7951
370.931	12559
371.014	4543
371.097	-358
371.180	1698
371.263	452
371.346	-87
371.429	1073
371.511	64
371.594	896
371.677	1846
371.760	2214
371.843	3638
371.926	35901
372.009	75702
372.091	17135
372.174	6150
372.257	15848
372.340	4501
372.423	1098
372.505	2314
372.588	-38
372.671	4903
372.754	11733
372.836	5938
372.919	2092
373.002	2866
373.085	472
373.167	2206
373.250	5772
373.332	15735
373.415	42040
373.498	90018
373.580	29635
373.663	56387
373.746	66152
373.828	9849
373.911	3460
373.993	962
374.076	3229
374.159	1745
374.241	3719
374.324	9217
374.406	7434
374.489	21826
374.571	52466
374.654	16139
374.736	8928
374.819	30354
374.901	55119
374.983	54007
375.066	7415
375.148	1760
375.231	1897
375.313	3873
375.395	1093
375.478	472
375.560	1027
375.643	1429
375.725	8934
375.807	39819
375.890	24501
375.972	2876
376.054	2212
376.136	2799
376.219	1158
376.301	10422
376.383	26426
376.465	8454
376.548	2947
376.630	5693
376.712	20083
376.794	8004
376.877	1594
376.959	-114
377.041	683
377.123	57
377.205	-76
377.287	-876
377.369	435
377.452	-345
377.534	365
377.616	567
377.698	135
377.780	-1213
377.862	304
377.944	1193
378.026	-703
378.108	-261
378.190	462
378.272	1091
378.354	-504
378.436	-452
378.518	-264
378.600	656
378.682	1986
378.764	6408
378.846	4890
378.928	600
379.010	241
379.091	1234
379.173	279
379.255	-606
379.337	368
379.419	2641
379.501	10461
379.583	2819
379.664	522
379.746	1831
379.828	6127
379.910	7680
379.991	6598
380.073	1013
380.155	976
380.237	553
380.318	720
380.400	455
380.482	1607
380.564	2139
380.645	1099
380.727	1511
380.809	1346
380.890	-217
380.972	-406
381.053	268
381.135	541
381.217	1903
381.298	6826
381.380	2260
381.461	3702
381.543	21623
381.624	23137
381.706	3669
381.787	920
381.869	2447
381.951	17455
382.032	64264
382.113	33174
382.195	1726
382.276	2257
382.358	5686
382.439	18149
382.521	28489
382.602	47600
382.684	16033
382.765	21052
382.846	17573
382.928	19005
383.009	9502
383.090	8555
383.172	32240
383.253	45460
383.334	18220
383.416	28762
383.497	12312
383.578	4180
383.659	7387
383.741	32111
383.822	78739
383.903	33796
383.984	14434
384.066	28240
384.147	13611
384.228	2734
384.309	1621
384.390	1191
384.471	245
384.553	1254
384.634	1510
384.715	1439
384.796	187
384.877	605
384.958	5878
385.039	5795
385.120	1590
385.201	1671
385.282	645
385.363	943
385.444	652
385.525	4112
385.606	15990
385.687	11986
385.768	2462
385.849	3410
385.930	31408
386.011	51847
386.092	10196
386.173	2425
386.254	2094
386.335	1326
386.416	1600
386.496	3605
386.577	5600
386.658	1472
386.739	932
386.820	1821
386.901	-24
386.981	1744
387.062	1179
387.143	1556
387.224	6052
387.304	5830
387.385	2298
387.466	-143
387.547	837
387.627	255
387.708	3281
387.789	13678
387.869	16309
387.950	5492
388.031	734
388.111	-1159
388.192	2070
388.273	2578
388.353	909
388.434	1363
388.514	4616
388.595	22176
388.676	22099
388.756	6871
388.837	5991
388.917	3073
388.998	-199
389.078	1070
389.159	1193
389.239	-1166
389.320	2476
389.400	-240
389.480	2625
389.561	6142
389.641	2997
389.722	642
389.802	783
389.883	3741
389.963	11047
390.043	4987
390.124	521
390.204	2874
390.284	7805
390.365	7128
390.445	33887
390.525	164330
390.605	135966
390.686	17237
390.766	4699
390.846	3746
390.927	1809
391.007	570
391.087	2115
391.167	1352
391.247	758
391.328	1773
391.408	1264
391.488	1540
391.568	130
391.648	1571
391.728	2648
391.808	3149
391.888	1509
391.969	5202
392.049	6337
392.129	3560
392.209	5156
392.289	11278
392.369	5619
392.449	3841
392.529	3370
392.609	5791
392.689	7229
392.769	13788
392.849	11122
392.929	11324
393.009	20857
393.089	22661
393.169	41011
393.248	184153
393.328	727188
393.408	696392
393.488	142475
393.568	34486
393.648	17029
393.728	11003
393.807	9317
393.887	8958
393.967	8959
394.047	10552
394.127	14474
394.206	31700
394.286	146965
394.366	586015
394.446	559723
394.525	121003
394.605	29180
394.685	14344
394.764	11716
394.844	9580
394.924	7970
395.003	6909
395.083	6264
395.163	5690
395.242	6087
395.322	6573
395.402	4514
395.481	7593
395.561	8060
395.640	13404
395.720	16099
395.799	18844
395.879	22937
395.958	49376
396.038	217322
396.117	762464
396.197	742754
396.276	191607
396.356	51328
396.435	25456
396.515	20394
396.594	20711
396.673	42271
396.753	213494
396.832	646857
396.912	371543
396.991	58239
397.070	18422
397.150	8809
397.229	7385
397.308	9178
397.388	11779
397.467	7559
397.546	4435
397.625	1604
397.705	4284
397.784	2847
397.863	2378
397.942	2347
398.022	1290
398.101	1425
398.180	3069
398.259	1938
398.338	2654
398.417	972
398.497	789
398.576	1607
398.655	303
398.734	1440
398.813	1020
398.892	855
398.971	3017
399.050	379
399.129	-59
399.208	617
399.287	844
399.366	-106
399.445	748
399.524	235
399.603	-1267
399.682	886
399.761	1092
399.840	3816
399.919	2113
399.998	43
400.077	-74
400.156	-890
400.235	1780
400.313	-642
400.392	-596
400.471	3752
400.550	4734
400.629	25
400.708	398
400.786	-706
400.865	475
400.944	203
401.023	1334
401.102	130
401.180	12
401.259	360
401.338	-90
401.416	587
401.495	-96
401.574	918
401.652	-796
401.731	1224
401.810	-567
401.888	460
401.967	-636
402.046	419
402.124	615
402.203	-543
402.281	593
402.360	-66
402.438	1015
402.517	-921
402.596	283
402.674	28
402.753	-563
402.831	548
402.910	976
402.988	2319
403.066	9471
403.145	5532
403.223	3319
403.302	8383
403.380	5622
403.459	4783
403.537	1020
403.615	265
403.694	-589
403.772	601
403.850	782
403.929	34
404.007	-385
404.085	1930
404.164	491
404.242	665
404.320	4190
404.398	13194
404.477	14363
404.555	32104
404.633	24393
404.711	8817
404.789	4300
404.868	1135
404.946	-435
405.024	47
405.102	-299
405.180	-677
405.258	-1612
405.336	648
405.415	-5
405.493	-116
405.571	1016
405.649	-1096
405.727	-753
405.805	771
405.883	-54
405.961	-77
406.039	-941
406.117	-1756
406.195	1249
406.273	3969
406.351	18822
406.429	9587
406.507	389
406.585	-833
406.663	1295
406.740	810
406.818	-359
406.896	-397
406.974	1750
407.052	752
407.130	10231
407.208	13989
407.285	2229
407.363	-676
407.441	-206
407.519	310
407.596	2399
407.674	18797
407.752	70999
407.830	44139
407.907	5063
407.985	465
408.063	727
408.141	-145
408.218	711
408.296	-620
408.373	-365
408.451	430
408.529	615
408.606	-393
408.684	1
408.762	334
408.839	-51
408.917	-208
408.994	-470
409.072	-910
409.149	556
409.227	1134
409.304	954
409.382	1830
409.459	1362
409.537	2607
409.614	1899
409.692	1403
409.769	1015
409.846	1637
409.924	3321
410.001	-342
410.079	655
410.156	1824
410.233	1590
410.311	1897
410.388	936
410.465	-190
410.543	-455
410.620	692
410.697	561
410.775	318
410.852	-1373
410.929	651
411.006	661
411.083	-709
411.161	-43
411.238	22
411.315	-314
411.392	-2
411.469	431
411.547	545
411.624	-705
411.701	-132
411.778	387
411.855	620
411.932	-69
412.009	-447
412.086	27
412.163	-313
412.240	-821
412.317	-299
412.394	-860
412.471	442
412.548	-580
412.625	31
412.702	346
412.779	155
412.856	525
412.933	-1010
413.010	746
413.087	900
413.164	2566
413.241	3120
413.318	-548
413.395	1600
413.471	-71
413.548	-216
413.625	-172
413.702	-847
413.779	168
413.855	99
413.932	-745
414.009	-975
414.086	-408
414.162	202
414.239	114
414.316	2772
414.393	6127
414.469	742
414.546	-81
414.623	-959
414.699	-518
414.776	-214
414.853	-631
414.929	347
415.006	-769
415.082	-119
415.159	80
415.236	697
415.312	47
415.389	331
415.465	-103
415.542	-180
415.618	-621
415.695	938
415.771	-346
415.848	-32
415.924	-464
416.000	91
416.077	860
416.153	-1113
416.230	-1074
416.306	385
416.383	-457
416.459	-334
416.535	-885
416.612	-892
416.688	214
416.764	-425
416.841	-1182
416.917	-449
416.993	47
417.069	-150
417.146	821
417.222	1906
417.298	415
417.374	-262
417.451	-121
417.527	-510
417.603	-717
417.679	100
417.755	127
417.831	-460
417.908	-836
417.984	-780
418.060	-1323
418.136	563
418.212	-261
418.288	-36
418.364	267
418.440	-1531
418.516	229
418.592	22
418.668	767
418.744	1009
418.820	645
418.896	138
418.972	-1064
419.048	58
419.124	78
419.200	-1082
419.276	-1224
419.352	-570
419.428	218
419.504	-370
419.579	-131
419.655	-136
419.731	-244
419.807	692
419.883	678
419.959	526
420.034	327
420.110	557
420.186	2964
420.262	2330
420.337	173
420.413	-273
420.489	-362
420.565	738
420.640	-878
420.716	226
420.792	-609
420.867	565
420.943	-619
421.019	-479
421.094	-73
421.170	561
421.245	-1382
421.321	429
421.397	675
421.472	12448
421.548	37037
421.623	17893
421.699	1722
421.774	1350
421.850	255
421.925	1822
422.001	2081
422.076	1458
422.152	1437
422.227	3338
422.302	5534
422.378	8233
422.453	16548
422.529	55442
422.604	237542
422.679	443673
422.755	206097
422.830	46327
422.905	16332
422.981	7001
423.056	4791
423.131	4127
423.207	2785
423.282	1929
423.357	2683
423.432	1314
423.508	1589
423.583	1611
423.658	1280
423.733	198
423.808	-98
423.883	302
423.959	-239
424.034	75
424.109	1393
424.184	-139
424.259	-8
424.334	2
424.409	-980
424.484	-450
424.559	-384
424.634	107
424.709	151
424.784	414
424.859	-467
424.934	-449
425.009	1325
425.084	3574
425.159	-159
425.234	35
425.309	-887
425.384	-378
425.459	-1364
425.534	-591
425.609	-1554
425.683	-1116
425.758	-592
425.833	-105
425.908	-58
425.983	-70
426.058	3642
426.132	1203
426.207	-323
426.282	328
426.357	-638
426.431	-687
426.506	-385
426.581	-115
426.655	-538
426.730	-58
426.805	-1397
426.879	-331
426.954	-514
427.029	-84
427.103	5066
427.178	13259
427.253	4597
427.327	-219
427.402	-1020
427.476	-506
427.551	-1369
427.625	-215
427.700	-406
427.774	-1480
427.849	-574
427.923	-1141
427.998	-212
428.072	-337
428.147	1354
428.221	13800
428.296	46686
428.370	21252
428.444	679
428.519	-966
428.593	5
428.667	-516
428.742	-636
428.816	3258
428.890	23602
428.965	36430
429.039	7070
429.113	700
429.188	-737
429.262	-74
429.336	419
429.410	1712
429.485	302
429.559	-578
429.633	-261
429.707	204
429.781	2032
429.855	19389
429.930	28870
430.004	7087
430.078	3358
430.152	16787
430.226	86500
430.300	78000
430.374	9405
430.448	866
430.522	859
430.596	2455
430.670	6635
430.744	39121
430.818	43340
430.892	6441
430.966	28
431.040	114
431.114	-1351
431.188	-616
431.262	-356
431.336	-1113
431.410	221
431.484	-627
431.557	179
431.631	-744
431.705	-312
431.779	9642
431.853	44020
431.927	25669
432.000	2277
432.074	-285
432.148	-160
432.222	-287
432.295	-550
432.369	-1537
432.443	-440
432.516	4973
432.590	13936
432.664	3327
432.737	-565
432.811	-1385
432.885	-855
432.958	-689
433.032	-748
433.106	-1182
433.179	-1197
433.253	-1352
433.326	-1308
433.400	-872
433.473	-1253
433.547	-1198
433.620	-866
433.694	-988
433.767	-564
433.841	-147
433.914	-1100
433.988	-690
434.061	-1416
434.134	-1176
434.208	-1164
434.281	-1004
434.355	-1955
434.428	-644
434.501	-1131
434.575	-1515
434.648	-1764
434.721	-1634
434.795	-1415
434.868	-1025
434.941	-1141
435.014	-720
435.088	-590
435.161	-267
435.234	-711
435.307	-464
435.381	-335
435.454	-420
435.527	245
435.600	-135
435.673	14
435.746	-607
435.819	-785
435.892	-237
435.966	-584
436.039	-1389
436.112	-686
436.185	-369
436.258	-1037
436.331	-880
436.404	-919
436.477	-938
436.550	-656
436.623	-520
436.696	-1516
436.769	-1539
436.842	-412
436.915	-335
436.987	-989
437.060	-696
437.133	-1460
437.206	-1493
437.279	-389
437.352	-399
437.425	-879
437.498	-126
437.570	-290
437.643	-457
437.716	-600
437.789	-822
437.861	-815
437.934	-817
438.007	-383
438.080	-892
438.152	-899
438.225	954
438.298	10893
438.370	27746
438.443	8317
438.516	170
438.588	-525
438.661	-865
438.734	40
438.806	-1389
438.879	-38
438.951	-670
439.024	-513
439.096	-874
439.169	-402
439.241	-829
439.314	-565
439.386	-751
439.459	-371
439.531	-418
439.604	-640
439.676	-14
439.749	-931
439.821	-1052
439.893	-1306
439.966	-544
440.038	-172
440.110	-434
440.183	-558
440.255	-1691
440.327	-261
440.400	1929
440.472	11084
440.544	5637
440.617	375
440.689	-203
440.761	-593
440.833	-211
440.905	-624
440.978	-934
441.050	-491
441.122	-270
441.194	-972
441.266	-832
441.338	-934
441.411	-669
441.483	2365
441.555	2874
441.627	-305
441.699	-745
441.771	-897
441.843	-1270
441.915	-192
441.987	-776
442.059	-1492
442.131	-915
442.203	163
442.275	-242
442.347	853
442.419	2127
442.491	15778
442.563	36360
442.635	11933
442.706	1035
442.778	-23
442.850	-796
442.922	-1311
442.994	-676
443.066	-248
443.137	-223
443.209	-623
443.281	1771
443.353	3500
443.425	23314
443.496	80246
443.568	67200
443.640	19945
443.711	2368
443.783	322
443.855	-119
443.926	-985
443.998	-843
444.070	-559
444.141	36
444.213	-887
444.285	-1272
444.356	-774
444.428	-630
444.499	-1047
444.571	-364
444.642	-177
444.714	-831
444.785	-430
444.857	-380
444.928	-406
445.000	-124
445.071	78
445.143	941
445.214	1304
445.285	2315
445.357	10695
445.428	60705
445.500	131264
445.571	64292
445.642	27435
445.714	5770
445.785	1667
445.856	18
445.928	-89
445.999	-256
446.070	-1152
446.141	-39
446.213	-516
446.284	-693
446.355	-885
446.426	-1064
446.497	-212
446.569	-311
446.640	-891
446.711	-872
446.782	-1257
446.853	-714
446.924	-213
446.995	-912
447.066	-450
447.138	-294
447.209	-301
447.280	-847
447.351	-748
447.422	-1150
447.493	-1096
447.564	-1286
447.635	-713
447.706	179
447.777	-649
447.847	-418
447.918	-635
447.989	-43
448.060	-686
448.131	-819
448.202	-782
448.273	-467
448.344	-863
448.414	-708
448.485	-1004
448.556	-94
448.627	-1111
448.698	-74
448.768	-1394
448.839	-1162
448.910	-789
448.981	-402
449.051	-740
449.122	-87
449.193	-542
449.263	-876
449.334	-318
449.405	484
449.475	941
449.546	339
449.616	-909
449.687	1057
449.758	-80
449.828	408
449.899	629
449.969	31
450.040	-358
450.110	-124
450.181	544
450.251	-439
450.322	73
450.392	-410
450.463	-264
450.533	-187
450.604	-197
450.674	-99
450.744	-23
450.815	-555
450.885	-34
450.955	147
451.026	-664
451.096	-872
451.166	-946
451.237	-707
451.307	-1032
451.377	-972
451.447	-1263
451.518	-654
451.588	-957
451.658	-446
451.728	-224
451.799	-234
451.869	-686
451.939	-403
452.009	-504
452.079	-1057
452.149	-278
452.219	-420
452.289	-213
452.360	-855
452.430	-568
452.500	-783
452.570	-382
452.640	747
452.710	1340
452.780	1976
452.850	773
452.920	-235
452.990	-421
453.060	-441
453.129	-1012
453.199	-346
453.269	-329
453.339	83
453.409	491
453.479	1732
453.549	605
453.619	454
453.688	-766
453.758	-227
453.828	-1091
453.898	-1038
453.968	-951
454.037	-377
454.087	-284
454.107	-254
454.168	-559
454.177	-616
454.247	-951
454.249	-950
454.316	-1346
454.330	-1174
454.386	-526
454.411	-650
454.456	-918
454.492	-460
454.525	-79
454.574	-364
454.595	-488
454.655	-689
454.665	-739
454.734	-740
454.736	-723
454.804	-504
454.817	-526
454.873	-704
454.898	-468
454.943	-50
454.979	-280
455.013	-546
455.060	-800
455.082	-886
455.141	-180
455.152	-46
455.221	-17
455.222	11
455.291	1650
455.303	2617
455.360	6081
455.384	9450
455.430	14246
455.465	9069
455.499	4505
455.546	1535
455.569	338
455.627	157
455.638	95
455.707	32
455.708	39
455.777	-394
455.789	-433
455.846	-636
455.869	-682
455.916	-914
455.950	-824
455.985	-714
456.031	-576
456.054	-482
456.112	-135
456.124	-88
456.193	-402
456.193	-411
456.262	3
456.274	7
456.332	-235
456.355	-442
456.401	-656
456.436	-511
456.470	-442
456.516	-384
456.540	-397
456.597	-149
456.609	-106
456.678	-478
456.678	-488
456.747	-99
456.759	-270
456.817	-1201
456.840	-1153
456.886	-1085
456.920	-593
456.955	-84
457.001	-252
457.024	-379
457.082	-615
457.093	-625
457.162	-102
457.163	-95
457.232	-795
457.243	-691
457.301	-242
457.324	-349
457.370	-503
457.405	-347
457.439	-236
457.485	-190
457.508	-71
457.566	126
457.577	119
457.646	169
457.647	182
457.715	1278
457.727	1345
457.784	2202
457.808	3442
457.853	5148
457.889	5905
457.922	5562
457.969	3500
457.991	3439
458.050	4169
458.060	4337
458.129	7963
458.130	8072
458.198	8371
458.211	7559
458.267	3626
458.292	2312
458.336	1532
458.372	1422
458.405	2130
458.453	3435
458.474	4398
458.533	8695
458.543	9164
458.611	15544
458.614	15610
458.680	8687
458.694	6863
458.749	3319
458.775	2125
458.818	863
458.855	1016
458.887	1080
458.936	581
458.955	407
459.016	-290
459.024	-330
459.093	227
459.097	249
459.162	287
459.177	208
459.230	-286
459.257	-266
459.299	252
459.338	674
459.368	866
459.418	819
459.437	533
459.499	-18
459.505	5
459.574	407
459.579	422
459.643	402
459.659	500
459.711	824
459.740	631
459.780	81
459.820	-211
459.849	21
459.900	341
459.917	221
459.981	299
459.986	318
460.054	437
460.061	424
460.123	397
460.141	488
460.191	905
460.222	942
460.260	800
460.302	1063
460.328	1327
460.382	1392
460.397	1373
460.462	1401
460.465	1544
460.534	5701
460.543	6209
460.602	24899
460.623	32189
460.671	50346
460.703	68768
460.739	66518
460.783	53609
460.808	43409
460.864	7839
460.876	4962
460.944	1054
460.945	1022
461.013	1031
461.024	1131
461.081	975
461.104	891
461.150	892
461.184	761
461.218	891
461.264	1025
461.286	839
461.345	607
461.355	666
461.423	829
461.425	849
461.491	800
461.505	659
461.559	353
461.585	197
461.628	324
461.665	687
461.696	700
461.745	575
461.764	638
461.825	854
461.832	901
461.901	1247
461.905	1294
461.969	765
461.985	489
462.037	864
462.065	1286
462.105	989
462.145	509
462.173	534
462.225	793
462.241	900
462.305	1173
462.310	1209
462.378	1334
462.385	1431
462.446	1536
462.465	1416
462.514	903
462.545	744
462.582	1017
462.625	1182
462.650	1140
462.705	1113
462.718	1194
462.785	1360
462.786	1346
462.854	609
462.865	510
462.922	940
462.945	1054
462.990	1028
463.025	1062
463.058	1198
463.104	1423
463.126	1303
463.184	919
463.194	987
463.262	1084
463.264	1096
463.330	896
463.344	891
463.398	1442
463.424	1529
463.466	821
463.504	515
463.533	1010
463.583	1446
463.601	1230
463.663	755
463.669	780
463.737	632
463.743	651
463.805	915
463.823	986
463.873	1399
463.903	1712
463.940	1857
463.982	1696
464.008	1478
464.062	1169
464.076	1227
464.142	1589
464.144	1589
464.211	1503
464.221	1474
464.279	1783
464.301	1871
464.347	1721
464.381	1707
464.414	1649
464.461	1483
464.482	1541
464.540	1637
464.550	1613
464.617	1444
464.620	1436
464.685	2763
464.699	3068
464.753	4748
464.779	5511
464.820	6341
464.859	7259
464.888	6480
464.938	4836
464.956	4887
465.018	5183
465.023	5190
465.091	5071
465.098	5058
465.158	4895
465.177	4825
465.226	4827
465.257	4867
465.293	4982
465.336	4984
465.361	5032
465.416	5136
465.428	5324
465.495	6455
465.496	6463
465.563	5727
465.575	5625
465.631	6318
465.654	6662
465.698	6912
465.734	6927
465.765	6645
465.813	6256
465.833	6577
465.893	7564
465.900	7553
465.968	7300
465.972	7265
466.035	7821
466.052	7982
466.102	8588
466.131	8864
466.170	9022
466.210	9180
466.237	9548
466.290	10286
466.304	10451
466.369	10961
466.372	11013
466.439	12059
466.449	12180
466.506	12633
466.528	12814
466.573	13378
466.607	13703
466.641	13956
466.687	14239
466.708	14605
466.766	15607
466.775	15698
466.842	16083
466.845	16074
466.909	15462
466.925	15273
466.977	15440
467.004	15485
467.044	15582
467.083	15638
467.111	16282
467.163	17413
467.178	17634
467.242	18388
467.245	18302
467.312	15852
467.321	15499
467.379	13935
467.400	13329
467.446	13136
467.480	12953
467.559	12247
467.638	11578
467.717	9427
467.796	10547
467.875	9756
467.955	8695
468.034	8870
468.113	9033
468.192	9389
468.271	8912
468.350	8724
468.429	8421
468.508	9274
468.588	8318
468.667	6858
468.746	6289
468.825	6009
468.904	5364
468.983	5466
469.062	5370
469.141	6574
469.220	5460
469.299	5725
469.378	5895
469.456	9908
469.535	8544
469.614	6554
469.693	5844
469.772	7713
469.851	7705
469.930	5372
470.009	6936
470.088	5681
470.166	6304
470.245	5886
470.324	6468
470.403	6635
470.482	6175
470.560	5197
470.639	5890
470.718	4743
470.797	4913
470.875	5774
470.954	3932
471.033	5569
471.111	4799
471.190	4902
471.269	4101
471.347	4423
471.426	5442
471.505	5899
471.583	7211
471.662	7026
471.740	5357
471.819	5228
471.898	5034
471.976	5312
472.055	5319
472.133	5311
472.212	7243
472.290	4807
472.369	5465
472.447	4420
472.526	4646
472.604	5874
472.683	4367
472.761	5342
472.839	3589
472.918	4046
472.996	3862
473.075	4318
473.153	4638
473.231	3072
473.310	4514
473.388	4170
473.466	4032
473.545	5669
473.623	7048
473.701	4485
473.780	4579
473.858	3733
473.936	6017
474.014	4252
474.093	4952
474.171	5245
474.249	5501
474.327	4331
474.405	4227
474.484	4798
474.562	4991
474.640	4705
474.718	5692
474.796	7441
474.874	7212
474.952	7160
475.030	6850
475.108	7478
475.187	11198
475.265	9631
475.343	9270
475.421	9557
475.499	6138
475.577	5119
475.655	4684
475.733	4839
475.811	4771
475.889	3844
475.966	4613
476.044	3779
476.122	3326
476.200	4261
476.278	3314
476.356	3150
476.434	2964
476.512	3676
476.590	3999
476.667	3956
476.745	1741
476.823	3082
476.901	2676
476.979	2671
477.056	2402
477.134	2957
477.212	3359
477.290	2941
477.367	2745
477.445	3129
477.523	2638
477.601	2542
477.678	2254
477.756	3122
477.834	2558
477.911	1954
477.989	2663
478.066	2526
478.144	2295
478.222	2894
478.299	3665
478.377	4676
478.454	3747
478.532	2023
478.609	2354
478.687	2826
478.764	1552
478.842	2829
478.919	2462
478.997	2119
479.074	2048
479.152	1730
479.229	3095
479.307	885
479.384	1817
479.461	2358
479.539	1940
479.616	2218
479.694	1403
479.771	2200
479.848	1945
479.926	1035
480.003	3209
480.080	2549
480.157	2261
480.235	1262
480.312	1810
480.389	1345
480.467	1245
480.544	1141
480.621	1650
480.698	2151
480.775	1943
480.853	2194
480.930	1406
481.007	1977
481.084	3505
481.161	6029
481.238	3515
481.315	1195
481.392	1291
481.470	1348
481.547	619
481.624	542
481.701	897
481.778	1758
481.855	1536
481.932	2053
482.009	2539
482.086	1666
482.163	1889
482.240	2853
482.317	3669
482.393	3756
482.470	1710
482.547	762
482.624	1117
482.701	1828
482.778	823
482.855	713
482.932	1284
483.009	1602
483.085	1488
483.162	3723
483.239	3270
483.316	1109
483.393	2131
483.469	577
483.546	1172
483.623	1782
483.699	1023
483.776	954
483.853	940
483.930	1912
484.006	2703
484.083	5799
484.160	16647
484.236	33541
484.313	25955
484.389	17138
484.466	15081
484.543	14288
484.619	14238
484.696	15239
484.772	14075
484.849	13579
484.925	13528
485.002	12715
485.078	13262
485.155	11835
485.231	12271
485.308	10981
485.384	12112
485.461	11756
485.537	12560
485.614	12387
485.690	11725
485.766	10913
485.843	10351
485.919	11244
485.995	12140
486.072	10481
486.148	10266
486.224	9921
486.301	10230
486.377	10304
486.453	9893
486.530	11535
486.606	18495
486.682	20648
486.758	15771
486.835	14911
486.911	13198
486.987	14769
487.063	15513
487.139	19029
487.215	16801
487.292	14729
487.368	12599
487.444	12857
487.520	14144
487.596	15813
487.672	21405
487.748	40672
487.824	59360
487.900	26635
487.976	13833
488.052	11138
488.128	11698
488.204	9603
488.280	10243
488.356	10781
488.432	10576
488.508	11618
488.584	9818
488.660	8798
488.736	9118
488.812	9961
488.888	12282
488.964	12554
489.039	14372
489.115	18432
489.191	15209
489.267	10290
489.343	9096
489.418	7992
489.494	9099
489.570	7104
489.646	8843
489.722	7722
489.797	7559
489.873	8626
489.949	8917
490.024	8625
490.100	6481
490.176	7705
490.251	7543
490.327	8644
490.403	6752
490.478	7285
490.554	6312
490.629	7774
490.705	6439
490.781	7152
490.856	6017
490.932	8250
491.007	6682
491.083	6821
491.158	5953
491.234	6638
491.309	6457
491.385	7107
491.460	6369
491.536	7121
491.611	6441
491.686	5840
491.762	7609
491.837	8144
491.913	12110
491.988	13083
492.063	16945
492.139	6786
492.214	4816
492.289	5084
492.365	4456
492.440	5498
492.515	3383
492.590	4999
492.666	4092
492.741	5054
492.816	4593
492.891	4622
492.967	5598
493.042	4484
493.117	4453
493.192	5186
493.267	9160
493.342	28645
493.418	42050
493.493	8387
493.568	3362
493.643	3554
493.718	5307
493.793	4444
493.868	5999
493.943	3809
494.018	4292
494.093	3628
494.168	3629
494.243	3623
494.318	4102
494.393	2845
494.468	2974
494.543	4226
494.618	3966
494.693	3095
494.768	2373
494.842	3868
494.917	3358
494.992	3880
495.067	3030
495.142	2839
495.217	4079
495.292	3006
495.366	4042
495.441	3472
495.516	4309
495.591	5286
495.665	11706
495.740	25497
495.815	12592
495.890	4875
495.964	3094
496.039	7024
496.114	5989
496.188	8426
496.263	8735
496.338	5039
496.412	5695
496.487	7460
496.561	6651
496.636	7621
496.710	8452
496.785	7937
496.860	9099
496.934	8802
497.009	9717
497.083	11817
497.158	12265
497.232	12180
497.307	14294
497.381	17384
497.455	20204
497.530	21707
497.604	22957
497.679	26020
497.753	33498
497.827	42790
497.902	50635
497.976	50446
498.050	48479
498.125	54937
498.199	62968
498.273	66850
498.348	68240
498.422	58894
498.496	50052
498.570	43282
498.645	35128
498.719	29690
498.793	26453
498.867	22687
498.941	19945
499.016	20471
499.090	23718
499.164	17053
499.238	12861
499.312	10726
499.386	10635
499.460	9645
499.534	8021
499.609	8010
499.683	6193
499.757	5788
499.831	6900
499.905	11759
499.979	11427
500.053	4452
500.127	5938
500.201	5246
500.275	4952
500.349	4090
500.422	4089
500.496	4495
500.570	5945
500.644	9034
500.718	8955
500.792	4344
500.866	3396
500.940	3410
501.013	3000
501.087	2340
501.161	3259
501.235	3239
501.309	4850
501.382	6321
501.456	7936
501.530	2302
501.603	1929
501.677	2034
501.751	351
501.825	2647
501.898	1922
501.972	2222
502.046	2657
502.119	871
502.193	2075
502.266	2053
502.340	2472
502.413	1885
502.487	2366
502.561	743
502.634	1518
502.708	2458
502.781	1375
502.855	1917
502.928	774
503.002	1068
503.075	529
503.149	574
503.222	102
503.295	524
503.369	1491
503.442	904
503.516	2592
503.589	4287
503.662	2790
503.736	1229
503.809	3783
503.882	2644
503.956	4609
504.029	7236
504.102	16643
504.175	26357
504.249	10431
504.322	3856
504.395	1902
504.468	1423
504.542	546
504.615	143
504.688	1302
504.761	-778
504.834	1196
504.907	1533
504.980	1815
505.053	-640
505.127	-992
505.200	2700
505.273	-82
505.346	79
505.419	434
505.492	1270
505.565	478
505.638	1749
505.711	1
505.784	-1038
505.857	-1021
505.930	2007
506.003	-1255
506.076	2214
506.149	-520
506.221	-977
506.294	835
506.367	44
506.440	2253
506.513	1837
506.586	51
506.659	-856
506.731	327
506.804	-799
506.877	564
506.950	909
507.022	560
507.095	-906
507.168	195
507.241	525
507.313	143
507.386	-1814
507.459	1952
507.531	-168
507.604	-893
507.677	1371
507.749	-893
507.822	2090
507.894	5353
507.967	10588
508.040	5952
508.112	6210
508.185	3599
508.257	1867
508.330	4346
508.402	3082
508.475	2962
508.547	2490
508.620	2103
508.692	2210
508.765	3472
508.837	2151
508.909	3079
508.982	2339
509.054	2293
509.127	2061
509.199	1811
509.271	1747
509.344	1673
509.416	1791
509.488	1138
509.560	2587
509.633	2264
509.705	2509
509.777	1609
509.849	2991
509.922	800
509.994	2211
510.066	3409
510.138	2052
510.210	12673
510.283	10464
510.355	7898
510.427	6514
510.499	5135
510.571	5399
510.643	4236
510.715	6022
510.787	3930
510.859	5436
510.931	3714
511.003	4866
511.076	5085
511.148	3318
511.219	3637
511.291	3841
511.363	4914
511.435	3215
511.507	2629
511.579	3724
511.651	4474
511.723	3134
511.795	2552
511.867	2665
511.939	3260
512.010	3057
512.082	3701
512.154	3189
512.226	3238
512.298	7969
512.369	11439
512.441	8948
512.513	7268
512.585	5186
512.656	6623
512.728	4692
512.800	4489
512.871	5158
512.943	5838
513.015	3356
513.086	5114
513.158	4968
513.230	3539
513.301	3703
513.373	5524
513.444	4451
513.516	4380
513.588	3703
513.659	4372
513.731	4503
513.802	2585
513.874	7010
513.945	7318
514.016	3806
514.088	4021
514.159	3265
514.231	6213
514.302	9196
514.374	8421
514.445	5751
514.516	8042
514.588	5805
514.659	6120
514.730	6706
514.802	10409
514.873	15219
514.944	21056
515.016	13242
515.087	9253
515.158	9551
515.229	13189
515.301	20057
515.372	38204
515.443	22598
515.514	13057
515.585	7571
515.656	8407
515.728	5807
515.799	4553
515.870	5089
515.941	4758
516.012	3626
516.083	7822
516.154	6768
516.225	6599
516.296	6920
516.367	5376
516.438	3769
516.509	5466
516.580	6203
516.651	14460
516.722	40641
516.793	23293
516.864	6402
516.935	6151
517.006	7057
517.077	7386
517.148	14091
517.219	48907
517.289	83474
517.360	14818
517.431	7654
517.502	4137
517.573	4575
517.643	3873
517.714	5236
517.785	5363
517.856	4116
517.926	6174
517.997	6798
518.068	6872
518.138	10119
518.209	10203
518.280	35307
518.350	139576
518.421	62640
518.492	8466
518.562	6192
518.633	5986
518.703	5046
518.774	14094
518.845	32834
518.915	33645
518.986	10391
519.056	6253
519.127	7011
519.197	8539
519.268	7747
519.338	5074
519.408	3535
519.479	3318
519.549	2613
519.620	3926
519.690	2477
519.760	2865
519.831	2143
519.901	1849
519.971	1779
520.042	1463
520.112	1298
520.182	3084
520.253	2532
520.323	1356
520.393	1454
520.463	4045
520.534	-461
520.604	4219
520.674	3242
520.744	494
520.814	1556
520.885	3589
520.955	1402
521.025	3467
521.095	2957
521.165	2167
521.235	1061
521.305	248
521.375	2173
521.445	2812
521.515	1740
521.585	2946
521.655	945
521.725	2519
521.795	3121
521.865	130
521.935	4158
522.005	1389
522.075	1173
522.145	2607
522.215	315
522.285	2325
522.355	1543
522.424	2197
522.494	1168
522.564	2743
522.634	4322
522.704	10557
522.774	4306
522.843	1457
522.913	1316
522.983	2319
523.053	960
523.122	1995
523.192	801
523.262	4393
523.331	5395
523.401	1611
523.471	703
523.540	1142
523.610	791
523.680	1073
523.749	766
523.819	2344
523.888	772
523.958	948
524.027	2011
524.097	452
524.166	225
524.236	-99
524.305	1571
524.375	443
524.444	-115
524.514	2039
524.583	-669
524.653	543
524.722	1658
524.791	-195
524.861	1964
524.930	-560
524.999	-1098
525.069	1595
525.138	450
525.207	332
525.277	590
525.346	-97
525.415	943
525.484	1046
525.554	311
525.623	1518
525.692	2369
525.761	1988
525.830	2639
525.900	3260
525.969	5982
526.038	10716
526.107	20102
526.176	72232
526.245	64445
526.314	19244
526.383	34651
526.452	51172
526.522	85809
526.591	95385
526.660	16788
526.729	10140
526.797	11637
526.867	15045
526.935	57213
527.004	186720
527.073	130318
527.142	10597
527.211	4549
527.280	2747
527.349	1305
527.418	-653
527.487	1672
527.555	-147
527.624	284
527.693	-1274
527.762	993
527.831	-1064
527.899	1353
527.968	325
528.037	-1433
528.106	742
528.174	1214
528.243	1333
528.312	954
528.380	-157
528.449	-871
528.518	1309
528.586	-1777
528.655	846
528.723	7
528.792	-1167
528.861	-1098
528.929	-1554
528.998	961
529.066	-746
529.135	-171
529.203	-548
529.272	-1096
529.340	-306
529.409	1313
529.477	-1148
529.545	-1457
529.614	1369
529.682	-2287
529.751	-1014
529.819	1798
529.887	-227
529.956	-764
530.024	-793
530.092	-2348
530.161	707
530.229	-96
530.297	-1242
530.365	1014
530.434	99
530.502	-1246
530.570	348
530.638	-1973
530.707	203
530.775	562
530.843	-363
530.911	-779
530.979	-1342
531.047	-427
531.115	18
531.183	-509
531.252	413
531.320	-253
531.388	-1344
531.456	118
531.524	-2605
531.592	255
531.660	1353
531.728	-2045
531.796	-1414
531.864	-551
531.932	-887
532.000	-1144
532.067	-530
532.135	-308
532.203	39
532.271	-1440
532.339	1078
532.407	3260
532.475	1946
532.542	1790
532.610	399
532.678	-1119
532.746	6134
532.814	18189
532.881	3551
532.949	185
533.017	-150
533.084	-627
533.152	-129
533.220	-1048
533.287	-1463
533.355	-324
533.423	404
533.490	-1342
533.558	-575
533.625	85
533.693	-201
533.761	974
533.828	986
533.896	-691
533.963	2078
534.031	1408
534.098	2955
534.166	1237
534.233	978
534.300	1756
534.368	478
534.435	-1021
534.503	785
534.570	190
534.637	466
534.705	1512
534.772	1740
534.840	3819
534.907	30144
534.974	45589
535.041	5131
535.109	1247
535.176	-187
535.243	321
535.310	105
535.378	-332
535.445	214
535.512	442
535.579	1032
535.646	-349
535.714	342
535.781	2759
535.848	1561
535.915	1493
535.982	775
536.049	446
536.116	1605
536.183	531
536.250	-262
536.317	103
536.384	838
536.451	1125
536.518	1748
536.585	-1795
536.652	1318
536.719	1936
536.786	-628
536.853	435
536.920	1837
536.987	1979
537.053	256
537.120	9519
537.187	8698
537.254	731
537.321	-256
537.388	1145
537.454	52
537.521	-759
537.588	626
537.654	1672
537.721	1624
537.788	3096
537.855	1755
537.921	607
537.988	1033
538.055	1259
538.121	55
538.188	1626
538.254	1293
538.321	2809
538.388	2353
538.454	727
538.521	191
538.587	536
538.654	629
538.720	-171
538.787	505
538.853	331
538.920	525
538.986	1105
539.053	105
539.119	586
539.185	-129
539.252	1604
539.318	1527
539.385	2657
539.451	1449
539.517	2288
539.583	2406
539.650	2557
539.716	6196
539.782	2030
539.849	469
539.915	1552
539.981	486
540.047	1423
540.114	722
540.180	2150
540.246	23
540.312	1270
540.378	2140
540.444	3456
540.510	2450
540.576	7403
540.643	1806
540.709	111
540.775	1253
540.841	434
540.907	1317
540.973	3105
541.039	2397
541.105	3442
541.171	1900
541.237	84
541.303	1442
541.369	3060
541.435	1658
541.500	2400
541.566	246
541.632	1094
541.698	236
541.764	1196
541.830	702
541.896	425
541.961	1178
542.027	265
542.093	1718
542.159	1885
542.224	166
542.290	3564
542.356	2534
542.421	3712
542.487	2161
542.553	715
542.618	1337
542.684	711
542.750	196
542.815	1778
542.881	1274
542.947	5048
543.012	5862
543.078	1242
543.143	630
543.209	1686
543.274	704
543.340	1493
543.405	1752
543.471	3113
543.536	1449
543.602	2081
543.667	-123
543.732	1718
543.798	-169
543.863	1968
543.928	-185
543.994	181
544.059	1213
544.124	682
544.190	937
544.255	1875
544.320	777
544.386	646
544.451	3074
544.516	1672
544.581	1078
544.646	4258
544.712	8020
544.777	2785
544.842	1726
544.907	463
544.972	570
545.037	1625
545.102	1748
545.168	921
545.233	1748
545.298	2065
545.363	2005
545.428	2848
545.493	4665
545.558	4347
545.623	2740
545.688	756
545.753	2759
545.818	101
545.883	2459
545.947	1473
546.012	2018
546.077	1072
546.142	3056
546.207	1771
546.272	1892
546.337	2087
546.401	2213
546.466	2553
546.531	1495
546.596	2189
546.661	2021
546.725	2371
546.790	2078
546.855	3452
546.919	1590
546.984	2922
547.049	2272
547.113	3447
547.178	2812
547.243	4413
547.307	5459
547.372	6568
547.436	4815
547.501	5379
547.565	6895
547.630	7261
547.695	6722
547.759	4607
547.823	5324
547.888	6119
547.952	6724
548.017	7084
548.081	8580
548.146	7388
548.210	8405
548.274	6569
548.339	7815
548.403	7930
548.468	5432
548.532	5541
548.596	7040
548.660	5651
548.725	7312
548.789	6426
548.853	7430
548.917	6910
548.982	6185
549.046	6592
549.110	4985
549.174	5802
549.238	5737
549.303	6969
549.367	8305
549.431	6780
549.495	6621
549.559	5598
549.623	7331
549.687	8353
549.751	8575
549.815	8685
549.879	10275
549.943	8710
550.007	9228
550.071	10035
550.135	8947
550.199	7808
550.263	8269
550.327	9078
550.391	9013
550.455	9018
550.519	9129
550.582	9791
550.646	11313
550.710	12454
550.774	11371
550.838	11233
550.901	11390
550.965	13327
551.029	12545
551.093	14980
551.156	15797
551.220	20488
551.284	24386
551.347	18037
551.411	12907
551.475	12652
551.538	12789
551.602	12304
551.666	9698
551.729	8795
551.793	10633
551.856	8783
551.920	8487
551.983	9124
552.047	8709
552.110	8681
552.174	9152
552.237	9938
552.301	9286
552.364	8882
552.428	7596
552.491	7030
552.554	8168
552.618	8403
552.681	9306
552.745	7952
552.808	9659
552.871	11356
552.934	9548
552.998	7481
553.061	7964
553.124	8370
553.187	8261
553.251	9035
553.314	9432
553.377	8989
553.440	10764
553.503	20476
553.567	33016
553.630	12155
553.693	8869
553.756	8444
553.819	8584
553.882	7982
553.945	7664
554.008	8245
554.071	6878
554.134	8020
554.197	7008
554.260	6172
554.323	7114
554.386	6834
554.449	7254
554.512	7574
554.575	6886
554.638	6333
554.701	6386
554.764	7362
554.827	6263
554.889	5926
554.952	5369
555.015	5565
555.078	5695
555.141	6714
555.203	5709
555.266	5861
555.329	5858
555.391	4869
555.454	5620
555.517	5392
555.580	4769
555.642	4476
555.705	4752
555.768	4746
555.830	5104
555.893	4832
555.955	3984
556.018	4477
556.080	3838
556.143	4082
556.206	3920
556.268	4588
556.330	4177
556.393	4628
556.455	4111
556.518	4019
556.580	3782
556.643	3184
556.705	3844
556.767	1802
556.830	3371
556.892	3006
556.955	3744
557.017	3372
557.079	2594
557.142	2903
557.204	2880
557.266	3954
557.328	4862
557.391	2621
557.453	2212
557.515	2692
557.577	3073
557.639	3144
557.701	3219
557.764	2508
557.826	3289
557.888	4170
557.950	3836
558.012	4647
558.074	6577
558.136	16846
558.198	53619
558.260	20526
558.322	5734
558.384	6647
558.446	8442
558.508	10257
558.570	13532
558.632	16564
558.694	22389
558.756	34289
558.818	118144
558.880	344106
558.942	111722
559.003	60542
559.065	32307
559.127	11981
559.189	10853
559.251	11687
559.312	17398
559.374	47156
559.436	188437
559.498	104024
559.559	13294
559.621	11179
559.683	11574
559.744	18712
559.806	70600
559.868	129503
559.929	23225
559.991	10564
560.052	14852
560.114	49123
560.176	35120
560.237	26269
560.299	48207
560.360	10030
560.422	2131
560.483	1969
560.545	935
560.606	388
560.667	637
560.729	871
560.790	1134
560.852	1014
560.913	178
560.974	790
561.036	158
561.097	1178
561.158	421
561.220	397
561.281	395
561.342	812
561.403	1547
561.465	378
561.526	3922
561.587	4853
561.648	976
561.709	414
561.771	1172
561.832	602
561.893	481
561.954	123
562.015	402
562.076	728
562.137	308
562.198	569
562.259	1185
562.320	318
562.381	428
562.442	870
562.503	731
562.564	1425
562.625	1147
562.686	1025
562.747	548
562.808	9
562.869	600
562.930	288
562.991	854
563.051	274
563.112	1389
563.173	652
563.234	123
563.294	715
563.355	-302
563.416	731
563.477	1035
563.537	-43
563.598	1285
563.659	1602
563.720	39
563.780	951
563.841	963
563.901	1155
563.962	723
564.023	610
564.083	407
564.144	888
564.204	235
564.265	394
564.325	881
564.386	930
564.446	941
564.507	1284
564.567	1665
564.628	1468
564.688	802
564.749	1806
564.809	1536
564.869	1623
564.930	1578
564.990	1771
565.050	1020
565.111	3184
565.171	1605
565.231	1618
565.292	3320
565.352	2021
565.412	2088
565.472	1993
565.532	1999
565.593	2951
565.653	2419
565.713	2623
565.773	3845
565.833	3563
565.893	4197
565.953	3715
566.013	4570
566.074	4885
566.134	4776
566.194	5043
566.254	6028
566.314	6819
566.374	6519
566.434	8224
566.494	7852
566.554	8702
566.614	10680
566.673	10736
566.733	11396
566.793	12801
566.853	13884
566.913	14847
566.973	15618
567.033	15244
567.092	13302
567.152	13068
567.212	15560
567.272	15368
567.331	17581
567.391	19922
567.451	21139
567.511	22397
567.570	21447
567.630	19217
567.690	17890
567.749	20422
567.809	22075
567.868	26431
567.928	30932
567.988	38918
568.047	48050
568.107	63367
568.166	91534
568.226	148979
568.285	221591
568.345	200746
568.404	158513
568.464	131450
568.523	119126
568.582	115506
568.642	127935
568.701	158146
568.761	234541
568.820	375394
568.879	390599
568.939	293622
568.998	213055
569.057	158915
569.116	119826
569.176	95525
569.235	74836
569.294	60619
569.353	51449
569.413	43169
569.472	37730
569.531	32031
569.590	27602
569.649	24324
569.708	21810
569.767	19993
569.827	18240
569.886	15655
569.945	14157
570.004	12602
570.063	11583
570.122	11039
570.181	10589
570.240	9333
570.299	8083
570.358	8636
570.417	7034
570.475	6168
570.534	6715
570.593	6365
570.652	6456
570.711	5789
570.770	5433
570.829	6184
570.887	5357
570.946	4850
571.005	4163
571.064	4011
571.122	3546
571.181	3415
571.240	3406
571.299	2638
571.357	3028
571.416	3220
571.475	2673
571.533	2562
571.592	2730
571.650	2495
571.709	2377
571.768	2063
571.826	2101
571.885	2199
571.943	2158
572.002	1082
572.060	2846
572.119	2550
572.177	2182
572.236	2033
572.294	1621
572.352	2970
572.411	1618
572.469	2162
572.528	1587
572.586	1230
572.644	1653
572.703	1154
572.761	1257
572.819	1916
572.877	550
572.936	1728
572.994	1697
573.052	1315
573.110	1402
573.169	1734
573.227	1667
573.285	1113
573.343	927
573.401	924
573.459	2036
573.517	1645
573.576	751
573.634	2072
573.692	1193
573.750	1205
573.808	535
573.866	1578
573.924	133
573.982	1469
574.040	1801
574.098	729
574.155	1594
574.213	1459
574.271	1727
574.329	1301
574.387	286
574.445	857
574.503	1378
574.560	-47
574.618	687
574.676	81
574.734	735
574.792	2132
574.849	1193
574.907	268
574.965	1156
575.022	816
575.080	521
575.138	989
575.195	786
575.253	770
575.311	401
575.368	1114
575.426	557
575.483	1226
575.541	1394
575.598	751
575.656	1031
575.713	766
575.771	1389
575.828	397
575.886	1656
575.943	2107
576.001	506
576.058	9
576.115	1040
576.173	1047
576.230	798
576.287	1283
576.345	1077
576.402	359
576.459	290
576.517	1009
576.574	1140
576.631	552
576.688	595
576.746	317
576.803	478
576.860	-6
576.917	1641
576.974	762
577.031	1508
577.089	936
577.146	1574
577.203	612
577.260	1707
577.317	1863
577.374	1467
577.431	535
577.488	1041
577.545	871
577.602	1556
577.659	1003
577.716	2079
577.773	1924
577.830	1011
577.886	1680
577.943	1388
578.000	1035
578.057	1782
578.114	2345
578.171	2492
578.227	2336
578.284	1452
578.341	2847
578.398	2398
578.454	2006
578.511	1627
578.568	1037
578.625	915
578.681	1982
578.738	966
578.794	1792
578.851	2255
578.908	1026
578.964	732
579.021	1424
579.077	1572
579.134	1449
579.190	1870
579.247	1512
579.303	1298
579.360	1749
579.416	261
579.473	2024
579.529	1533
579.586	1747
579.642	2778
579.698	2476
579.755	2242
579.811	2577
579.867	3009
579.924	1831
579.980	411
580.036	2695
580.093	2543
580.149	4072
580.205	4216
580.261	4041
580.317	2578
580.374	3091
580.430	2828
580.486	2528
580.542	1281
580.598	3041
580.619	2640
580.654	1945
580.692	1834
580.710	1779
580.765	2515
580.767	2538
580.823	2621
580.838	2537
580.879	2316
580.911	1819
580.935	1449
580.984	2557
580.991	2712
581.047	2731
581.057	2723
581.103	2677
581.130	2518
581.159	2360
581.203	2743
581.215	2827
581.270	2384
581.276	2390
581.326	2580
581.349	2688
581.382	2771
581.422	2497
581.438	2400
581.494	1927
581.494	1937
581.550	2812
581.567	2814
581.606	2870
581.640	3414
581.661	3737
581.713	4570
581.717	4639
581.773	2260
581.786	2552
581.829	3475
581.859	3121
581.885	2859
581.932	3187
581.940	3232
581.996	3205
582.004	3224
582.052	3346
582.077	3470
582.107	3539
582.150	2842
582.163	2678
582.219	3457
582.223	3457
582.274	3334
582.296	3411
582.330	3591
582.368	3308
582.386	3198
582.441	3584
582.441	3583
582.497	3725
582.514	3738
582.552	3962
582.587	4222
582.608	4293
582.659	3893
582.663	3859
582.719	4146
582.732	4167
582.774	4353
582.805	4573
582.830	4685
582.877	4306
582.885	4279
582.941	4379
582.950	4482
582.996	4756
583.023	4995
583.052	5446
583.095	5339
583.107	5241
583.162	5321
583.168	5392
583.218	6094
583.240	5951
583.273	5722
583.313	5534
583.328	5513
583.384	5728
583.385	5742
583.439	5844
583.458	5671
583.494	5502
583.531	5396
583.549	5366
583.603	5275
583.605	5265
583.660	5686
583.676	5777
583.715	6072
583.748	5982
583.770	6053
583.820	6699
583.825	6712
583.881	6700
583.893	6436
583.936	5935
583.965	6658
583.991	7145
584.038	6617
584.046	6535
584.101	6782
584.110	6804
584.156	6936
584.183	7158
584.211	7347
584.255	7083
584.266	7074
584.321	8148
584.328	8172
584.376	8160
584.400	8345
584.431	8737
584.472	8105
584.486	7835
584.541	9018
584.545	9043
584.596	9218
584.617	8819
584.651	8747
584.689	9776
584.706	9986
584.761	10506
584.762	10495
584.816	9864
584.834	10106
584.871	10482
584.906	10472
584.926	10426
584.978	11417
584.980	11468
585.035	11226
585.051	11486
585.090	12400
585.123	12721
585.145	12703
585.195	13108
585.200	13219
585.254	14688
585.267	14967
585.309	15351
585.340	16161
585.364	17137
585.412	18019
585.419	18069
585.473	18824
585.484	18938
585.528	20248
585.556	22196
585.583	25944
585.628	34899
585.637	38413
585.692	67995
585.700	73943
585.747	97371
585.772	87102
585.801	61473
585.845	31329
585.856	27393
585.910	21613
585.917	20928
585.965	19631
585.989	19722
586.019	20157
586.061	20500
586.074	20624
586.128	20784
586.133	20848
586.183	21456
586.205	21556
586.237	21887
586.277	22165
586.292	22428
586.346	23600
586.349	23644
586.401	24201
586.421	24430
586.455	24931
586.493	25779
586.509	26485
586.564	27607
586.565	27631
586.618	28698
586.637	28973
586.672	29868
586.709	30557
586.727	30905
586.781	33165
586.781	33197
586.835	33521
586.853	33917
586.889	34993
586.925	35798
586.944	36338
586.996	38282
586.998	38370
587.052	39893
587.068	40491
587.106	42532
587.140	43924
587.161	44543
587.212	46602
587.215	46800
587.269	49836
587.284	50579
587.323	52181
587.356	54038
587.377	55844
587.427	59420
587.431	59747
587.485	63911
587.499	64985
587.539	68153
587.571	70632
587.593	72901
587.643	79039
587.648	79738
587.702	85260
587.715	86820
587.755	92518
587.786	96712
587.810	100559
587.858	108942
587.864	110241
587.917	123220
587.930	126188
587.971	136437
588.001	143465
588.025	150758
588.073	166690
588.079	169261
588.133	192214
588.145	197517
588.187	218805
588.217	234107
588.241	249636
588.288	281100
588.295	286144
588.348	329146
588.360	338942
588.402	385072
588.431	418425
588.456	453271
588.503	523958
588.510	536907
588.564	643382
588.575	667396
588.617	789834
588.646	879493
588.671	989358
588.718	1212762
588.725	1258025
588.778	1624746
588.789	1699864
588.832	1945493
588.861	2084053
588.886	2046451
588.932	1861116
588.939	1833958
588.993	1601637
589.004	1593664
589.047	1934284
589.075	2114200
589.100	2058778
589.147	1843814
589.154	1798661
589.207	1438773
589.218	1371015
589.261	1258885
589.290	1197085
589.314	1219329
589.361	1286600
589.368	1319269
589.421	1611193
589.433	1675991
589.475	1877310
589.504	1984327
589.528	1923672
589.576	1710884
589.582	1718515
589.635	1890361
589.647	1909196
589.689	1700289
589.718	1503562
589.742	1294113
589.790	901596
589.795	876717
589.849	659128
589.861	610993
589.902	513342
589.932	444475
589.955	411651
590.004	346004
590.009	341569
590.062	291936
590.075	279812
590.115	252875
590.146	232083
590.168	221045
590.218	196764
590.222	195519
590.275	176908
590.289	171800
590.328	160244
590.360	150683
590.381	145417
590.431	133018
590.435	132598
590.488	122047
590.503	118967
590.541	113351
590.574	108248
590.594	105265
590.645	97535
590.647	97467
590.700	91347
590.716	89335
590.753	85332
590.787	81659
590.806	80612
590.859	77245
590.859	77302
590.912	72237
590.930	70658
590.965	69057
591.001	67052
591.018	66175
591.071	63239
591.072	63086
591.124	60813
591.143	59819
591.177	57724
591.214	55235
591.230	54717
591.283	52826
591.285	52637
591.336	51143
591.356	50439
591.389	49418
591.427	48016
591.442	47548
591.495	45294
591.498	45041
591.547	44632
591.569	44300
591.600	43184
591.640	41398
591.653	41227
591.706	40344
591.711	40142
591.759	39087
591.782	38429
591.811	38218
591.853	37768
591.864	37492
591.917	35624
591.924	35272
591.969	35516
591.995	35513
592.022	34953
592.066	33881
592.075	33892
592.127	33418
592.137	33250
592.180	32225
592.208	31416
592.233	31156
592.279	30506
592.285	30447
592.338	29331
592.350	29005
592.390	29036
592.421	28966
592.443	28838
592.491	28320
592.495	28384
592.548	28346
592.562	28266
592.600	28035
592.633	27712
592.653	27418
592.704	26335
592.705	26475
592.775	25912
592.846	25652
592.916	24695
592.987	24273
593.058	23567
593.128	23288
593.199	23135
593.270	22331
593.341	20276
593.411	21952
593.482	21501
593.553	21780
593.623	20165
593.694	20073
593.764	20021
593.835	20344
593.906	18623
593.976	19179
594.047	17459
594.117	19640
594.188	18752
594.258	18018
594.329	18197
594.399	18314
594.470	17301
594.540	18555
594.611	17373
594.681	17121
594.751	16690
594.822	19416
594.892	18634
594.963	17593
595.033	17060
595.103	16874
595.174	16095
595.244	17386
595.314	16271
595.384	16783
595.455	15390
595.525	16514
595.595	16433
595.665	15793
595.736	15181
595.806	16091
595.876	15111
595.946	15594
596.016	15751
596.087	16124
596.157	15379
596.227	15284
596.297	16101
596.367	16125
596.437	16641
596.507	17577
596.577	16766
596.647	17494
596.717	16270
596.787	16748
596.857	16871
596.927	16904
596.997	16742
597.067	17377
597.137	17876
597.207	17127
597.277	16195
597.347	15920
597.417	16160
597.487	16431
597.557	16084
597.626	16351
597.696	16051
597.766	16395
597.836	16089
597.906	14570
597.975	14487
598.045	15194
598.115	14901
598.185	14737
598.254	16213
598.324	17674
598.394	18397
598.464	17874
598.533	16070
598.603	16458
598.672	15346
598.742	16509
598.812	16004
598.881	16092
598.951	15841
599.020	16606
599.090	17214
599.159	17949
599.229	15642
599.299	15985
599.368	15708
599.437	15719
599.507	14682
599.576	15087
599.646	14867
599.715	15614
599.785	13813
599.854	13923
599.924	13588
599.993	13963
600.062	14104
600.132	14209
600.201	15058
600.270	16537
600.340	16180
600.409	15518
600.478	15684
600.547	16082
600.617	14778
600.686	13418
600.755	11970
600.824	12015
600.894	10461
600.963	11687
601.032	11347
601.101	11477
601.170	10366
601.239	10208
601.308	11262
601.378	11550
601.447	10354
601.516	10430
601.585	10579
601.654	10519
601.723	10393
601.792	10839
601.861	10727
601.930	12122
601.999	11823
602.068	11194
602.137	11822
602.206	11952
602.275	11710
602.343	11365
602.412	12093
602.481	11383
602.550	10920
602.619	12410
602.688	11029
602.756	11801
602.825	12455
602.894	12638
602.963	11940
603.032	12182
603.100	11827
603.169	13553
603.238	12165
603.307	13050
603.375	12474
603.444	13453
603.513	11712
603.581	12433
603.650	13232
603.719	13673
603.787	13050
603.856	14241
603.924	13081
603.993	14553
604.061	14665
604.130	15303
604.198	15518
604.267	16057
604.335	14551
604.404	15225
604.472	14735
604.541	16083
604.609	16025
604.678	16095
604.746	15939
604.815	16731
604.883	16443
604.951	18222
605.020	17128
605.088	17587
605.156	17247
605.225	17157
605.293	17583
605.361	17669
605.429	18306
605.498	18433
605.566	18228
605.634	19978
605.702	19895
605.771	20576
605.839	20092
605.907	19993
605.975	19424
606.043	19170
606.111	18840
606.180	19436
606.248	18130
606.316	19462
606.384	16486
606.452	19497
606.520	19043
606.588	18796
606.656	19661
606.724	19189
606.792	17102
606.860	17078
606.928	14801
606.996	15252
607.064	14023
607.132	15056
607.200	14548
607.267	15802
607.335	15850
607.403	17152
607.471	15164
607.539	16220
607.607	15915
607.674	14806
607.742	14504
607.810	13950
607.878	13328
607.946	14035
608.013	14249
608.081	14966
608.149	14376
608.216	15336
608.284	16194
608.352	15459
608.419	14318
608.487	16430
608.555	14551
608.622	16061
608.690	16652
608.757	18009
608.825	18994
608.893	17962
608.960	16312
609.028	16490
609.095	16377
609.163	15338
609.230	14442
609.298	14101
609.365	13896
609.432	15731
609.500	16611
609.567	18608
609.635	21323
609.702	22171
609.769	21210
609.837	17961
609.904	15170
609.971	15672
610.039	20306
610.106	27595
610.173	54218
610.241	136620
610.308	80455
610.375	26226
610.442	16915
610.509	15686
610.577	16419
610.644	16022
610.711	16524
610.778	17204
610.845	16552
610.912	17691
610.980	18940
611.047	19090
611.114	17972
611.181	17942
611.248	17094
611.315	19120
611.382	18191
611.449	18732
611.516	20535
611.583	20229
611.650	19636
611.717	20404
611.784	21062
611.851	23704
611.918	27079
611.984	34331
612.051	54469
612.118	125703
612.185	331666
612.252	208159
612.319	41302
612.386	29639
612.452	25168
612.519	24000
612.586	22205
612.653	22384
612.719	22824
612.786	23170
612.853	20021
612.919	19924
612.986	20331
613.053	19450
613.120	17190
613.186	17261
613.253	18607
613.319	17436
613.386	17387
613.453	18005
613.519	18091
613.586	17946
613.652	19187
613.719	18896
613.785	19129
613.852	19027
613.918	17049
613.985	20282
614.051	22580
614.118	30658
614.184	29048
614.250	19491
614.317	18581
614.383	17136
614.449	17049
614.516	17989
614.582	19048
614.648	18670
614.715	17783
614.781	18128
614.847	18646
614.914	17332
614.980	17769
615.046	18955
615.112	20266
615.179	22067
615.245	26985
615.311	38918
615.377	72951
615.443	85735
615.509	44783
615.575	31175
615.642	26520
615.708	28091
615.774	29365
615.840	35538
615.906	51044
615.972	89170
616.038	189328
616.104	286075
616.170	477654
616.236	397868
616.302	77988
616.368	46135
616.434	30837
616.500	28115
616.565	29592
616.631	36240
616.697	28810
616.763	30052
616.829	46046
616.895	82222
616.961	80155
617.026	33262
617.092	20769
617.158	19882
617.224	17252
617.289	17426
617.355	14381
617.421	14417
617.487	15446
617.552	15075
617.618	13702
617.684	13418
617.749	15765
617.815	13787
617.880	12791
617.946	13279
618.012	13493
618.077	13101
618.143	13221
618.208	14316
618.274	13910
618.339	14250
618.405	10351
618.470	13186
618.536	10709
618.601	11565
618.667	10168
618.732	9997
618.798	10009
618.863	9951
618.928	9442
618.994	9938
619.059	10013
619.124	10692
619.190	9794
619.255	9999
619.320	10063
619.386	9250
619.451	9376
619.516	9134
619.581	9140
619.647	9501
619.712	10319
619.777	10357
619.842	9081
619.907	9088
619.972	8435
620.038	8958
620.103	9402
620.168	9060
620.233	9776
620.298	8999
620.363	9627
620.428	9563
620.493	9904
620.558	10088
620.623	9694
620.688	9976
620.753	10271
620.818	10532
620.883	9949
620.948	10567
621.013	9570
621.078	9441
621.143	8169
621.207	12177
621.272	9582
621.337	9631
621.402	10186
621.467	10139
621.532	9180
621.596	10009
621.661	9126
621.726	9229
621.791	8239
621.855	9707
621.920	9387
621.985	8625
622.049	9795
622.114	9658
622.179	9641
622.243	10188
622.308	9493
622.373	11142
622.437	10388
622.502	10518
622.566	8944
622.631	7917
622.695	10907
622.760	10440
622.824	9229
622.889	9569
622.953	9135
623.018	11657
623.082	10743
623.147	10997
623.211	9450
623.276	9795
623.340	8830
623.404	9186
623.469	8616
623.533	9743
623.597	8218
623.662	9195
623.726	8593
623.790	7127
623.854	7266
623.919	7607
623.983	7688
624.047	7777
624.111	7873
624.176	8848
624.240	8212
624.304	9812
624.368	7695
624.432	9008
624.496	8082
624.560	10266
624.625	7561
624.689	10136
624.753	9613
624.817	8946
624.881	7977
624.945	8519
625.009	7734
625.073	8733
625.137	6736
625.201	9077
625.265	8723
625.329	8688
625.393	8547
625.456	9079
625.520	7882
625.584	9532
625.648	9585
625.712	9115
625.776	9393
625.839	8922
625.903	6780
625.967	5605
626.031	8581
626.095	8666
626.158	7929
626.222	5785
626.286	6331
626.349	5720
626.413	3900
626.477	6896
626.540	4547
626.604	4831
626.668	6722
626.731	5702
626.795	4992
626.858	5238
626.922	4776
626.986	5753
627.049	4288
627.113	5475
627.176	5385
627.240	5423
627.303	4901
627.366	5214
627.430	5049
627.493	5810
627.557	3924
627.620	5716
627.684	4555
627.747	5445
627.810	3513
627.874	5013
627.937	3227
628.000	5643
628.064	5116
628.127	2501
628.190	4299
628.253	3940
628.317	3180
628.380	3599
628.443	2360
628.506	3599
628.569	3458
628.632	3231
628.696	3794
628.759	2057
628.822	2670
628.885	3293
628.948	2868
629.011	2937
629.074	2561
629.137	2415
629.200	1419
629.263	3512
629.326	1668
629.389	3160
629.452	2913
629.515	2566
629.578	1784
629.641	3204
629.704	2455
629.767	2636
629.830	3206
629.892	2801
629.955	2623
630.018	3891
630.081	1953
630.144	3883
630.207	871
630.269	3633
630.332	1453
630.395	2779
630.458	2660
630.520	1189
630.583	3248
630.646	3217
630.708	1485
630.771	1385
630.834	3531
630.896	2186
630.959	2124
631.021	2013
631.084	2375
631.146	3004
631.209	3476
631.272	2318
631.334	2755
631.397	2669
631.459	2672
631.522	3374
631.584	2358
631.646	3646
631.709	3482
631.771	3242
631.834	3715
631.896	3370
631.958	1849
632.021	3535
632.083	1448
632.145	3239
632.208	1830
632.270	3441
632.332	1313
632.395	2168
632.457	2827
632.519	2336
632.581	2619
632.643	2153
632.706	2463
632.768	779
632.830	2826
632.892	2121
632.954	1279
633.016	3172
633.078	1620
633.141	2614
633.203	2509
633.265	3120
633.327	2529
633.389	2158
633.451	2334
633.513	2246
633.575	2869
633.637	2065
633.698	1224
633.760	3140
633.822	2786
633.884	2923
633.946	3213
634.008	2232
634.070	3063
634.132	4068
634.193	3783
634.255	4786
634.317	4018
634.379	4494
634.441	4047
634.502	4263
634.564	6217
634.626	7044
634.687	8953
634.749	5769
634.811	3516
634.873	1171
634.934	1967
634.996	3881
635.057	1438
635.119	2105
635.181	2231
635.242	3463
635.304	971
635.365	4278
635.427	1560
635.488	1659
635.550	731
635.611	2785
635.673	-16
635.734	3385
635.796	2297
635.857	3303
635.918	2529
635.980	4539
636.041	3738
636.102	5050
636.164	4862
636.225	5868
636.286	1914
636.348	3961
636.409	2485
636.470	2466
636.531	1976
636.593	1737
636.654	1734
636.715	2483
636.776	1881
636.838	2118
636.899	2569
636.960	2575
637.021	2933
637.082	4958
637.143	3792
637.204	2051
637.265	546
637.326	2240
637.387	1703
637.448	787
637.509	2303
637.570	2422
637.631	2546
637.692	777
637.753	323
637.814	978
637.875	1569
637.936	2540
637.997	946
638.058	929
638.119	1734
638.179	1488
638.240	502
638.301	2002
638.362	441
638.423	785
638.483	1971
638.544	332
638.605	1764
638.666	1064
638.726	1336
638.787	2067
638.848	693
638.908	1389
638.969	819
639.030	968
639.090	359
639.151	756
639.211	1578
639.272	2091
639.332	1234
639.393	2452
639.453	572
639.514	1916
639.574	963
639.635	1320
639.695	1203
639.756	233
639.816	1811
639.877	1133
639.937	1889
639.997	2553
640.058	328
640.118	1007
640.178	1673
640.239	1027
640.299	986
640.359	1049
640.420	1614
640.480	2297
640.540	708
640.600	2186
640.661	2582
640.721	2220
640.781	4501
640.841	2998
640.901	2131
640.961	2066
641.021	2107
641.082	1298
641.142	737
641.202	1646
641.262	-172
641.322	2166
641.382	51
641.442	2268
641.502	-70
641.562	1909
641.622	839
641.682	1186
641.742	2031
641.802	1393
641.861	869
641.921	1280
641.981	1351
642.041	1262
642.101	1165
642.161	-198
642.221	65
642.280	643
642.340	-87
642.400	547
642.460	1479
642.519	903
642.579	268
642.639	1345
642.698	-1589
642.758	3196
642.818	1684
642.877	-100
642.937	1155
642.997	1400
643.056	1652
643.116	146
643.175	2433
643.235	1123
643.294	976
643.354	3017
643.414	2573
643.473	3631
643.532	4209
643.592	7876
643.651	14605
643.711	27866
643.770	56716
643.830	137438
643.889	310405
643.948	73966
644.008	8738
644.067	5376
644.126	2501
644.186	2637
644.245	2287
644.304	952
644.363	2930
644.423	579
644.482	2287
644.541	2441
644.600	-126
644.659	3354
644.719	3102
644.778	5105
644.837	9526
644.896	22595
644.955	53044
645.014	18375
645.073	3056
645.132	1905
645.191	1471
645.250	1484
645.309	2358
645.368	2163
645.427	2889
645.486	4189
645.545	9041
645.604	3265
645.663	1881
645.722	988
645.781	2703
645.840	3435
645.898	4015
645.957	8239
646.016	11499
646.075	24249
646.134	46954
646.192	130399
646.251	205141
646.310	27789
646.369	5029
646.427	4125
646.486	1318
646.545	2500
646.603	1545
646.662	1656
646.721	1515
646.779	1137
646.838	140
646.896	2874
646.955	2420
647.014	5883
647.072	10452
647.131	32626
647.189	15527
647.248	1234
647.306	1170
647.365	1726
647.423	-1195
647.481	2618
647.540	-272
647.598	1589
647.657	254
647.715	834
647.773	-1013
647.832	1477
647.890	-654
647.948	674
648.007	1129
648.065	-368
648.123	-226
648.181	2163
648.240	1301
648.298	157
648.356	-118
648.414	1214
648.472	1036
648.531	-26
648.589	700
648.647	749
648.705	569
648.763	518
648.821	172
648.879	860
648.937	654
648.995	2100
649.053	1812
649.111	4705
649.169	8066
649.227	16331
649.285	33768
649.343	103770
649.401	52774
649.459	7120
649.516	3561
649.574	1935
649.632	6263
649.690	8515
649.748	4625
649.806	4120
649.863	8322
649.921	22131
649.979	14571
650.037	2288
650.094	-113
650.152	565
650.210	-686
650.268	1152
650.325	808
650.383	2431
650.440	-392
650.498	979
650.556	-559
650.613	-494
650.671	249
650.728	30
650.786	-847
650.843	763
650.901	-601
650.958	382
651.016	228
651.073	-221
651.131	-661
651.188	-800
651.246	-179
651.303	-694
651.360	612
651.418	-42
651.475	604
651.532	-195
651.590	-167
651.647	-231
651.704	-382
651.762	-13
651.819	-548
651.876	160
651.933	170
651.990	141
652.048	-1313
652.105	-328
652.162	475
652.219	-253
652.276	-835
652.333	570
652.390	-775
652.448	910
652.505	-118
652.562	-41
652.619	-1004
652.676	139
652.733	960
652.790	117
652.847	-1181
652.904	341
652.961	-1703
653.017	-736
653.074	99
653.131	-114
653.188	-1461
653.245	159
653.302	-1
653.359	42
653.415	86
653.472	-1034
653.529	327
653.586	-779
653.642	-418
653.699	669
653.756	-256
653.813	-306
653.869	-46
653.926	-661
653.983	-1085
654.039	407
654.096	-484
654.152	561
654.209	-1442
654.266	-13
654.322	-920
654.379	345
654.435	-207
654.492	-86
654.548	79
654.605	-423
654.661	255
654.717	81
654.774	223
654.830	235
654.887	246
654.943	52
655.000	745
655.056	1506
655.112	73
655.168	-939
655.225	-1011
655.281	-445
655.337	-1051
655.394	-772
655.450	79
655.506	259
655.562	-1143
655.618	1113
655.675	-684
655.731	370
655.787	-8
655.843	1132
655.899	333
655.955	1922
656.011	586
656.067	392
656.123	2017
656.179	1687
656.235	2332
656.291	1486
656.347	2101
656.403	1504
656.459	173
656.515	806
656.571	-144
656.627	651
656.683	424
656.739	698
656.795	-359
656.850	-492
656.906	-295
656.962	1085
657.018	-1209
657.074	402
657.129	245
657.185	742
657.241	1478
657.297	1041
657.352	-141
657.408	-289
657.464	522
657.519	101
657.575	-876
657.630	-116
657.686	-1049
657.742	-791
657.797	-622
657.853	-846
657.908	418
657.964	-1320
658.019	-220
658.075	324
658.130	-859
658.186	-556
658.241	261
658.297	-1829
658.352	-1854
658.407	-61
658.463	-950
658.518	234
658.573	-547
658.629	-807
658.684	-1293
658.739	26
658.795	-949
658.850	-360
658.905	-1468
658.960	65
659.016	-1222
659.071	-249
659.126	-147
659.181	-708
659.236	-296
659.291	1088
659.346	-927
659.401	114
659.457	513
659.512	-832
659.567	836
659.622	-806
659.677	-789
659.732	-820
659.787	-604
659.842	-173
659.897	-1597
659.952	463
660.007	-1070
660.061	-225
660.116	-810
660.171	-1224
660.226	-740
660.281	265
660.336	-1286
660.391	-290
660.445	-1209
660.500	-701
660.555	-1071
660.610	-1056
660.664	-539
660.719	-871
660.774	536
660.828	121
660.883	-1143
660.938	214
660.992	-1728
661.047	214
661.101	-1167
661.156	-655
661.211	-1917
661.265	-112
661.320	125
661.374	-462
661.429	-1391
661.483	-291
661.538	-2290
661.592	-856
661.647	40
661.701	317
661.755	233
661.810	-251
661.864	-1106
661.919	-1018
661.973	-890
662.027	-6
662.081	-1690
662.136	-784
662.190	-129
662.244	-771
662.299	-147
662.353	-85
662.407	-1007
662.461	-85
662.515	-788
662.569	-691
662.624	-753
662.678	-74
662.732	-752
662.786	-851
662.840	-1311
662.894	-491
662.948	-835
663.002	-643
663.056	-1467
663.110	-499
663.164	-881
663.218	138
663.272	-656
663.326	-102
663.380	-817
663.434	-423
663.488	-1597
663.542	-468
663.595	-812
663.649	-496
663.703	-879
663.757	-546
663.811	-1276
663.864	-656
663.918	-1025
663.972	-696
664.026	-869
664.079	-1045
664.133	-1008
664.187	-1008
664.240	-1422
664.294	-1152
664.348	-1176
664.401	-147
664.455	-785
664.508	-763
664.562	-1371
664.615	-1155
664.669	-1819
664.722	-649
664.776	-959
664.829	-661
664.883	-1173
664.936	-1150
664.990	-1002
665.043	-601
665.097	-1329
665.150	-196
665.203	-1215
665.257	-404
665.310	-1442
665.363	-1179
665.417	-2091
665.470	-454
665.523	-676
665.576	-1085
665.630	-827
665.683	-837
665.736	-902
665.789	-812
665.842	-448
665.895	-882
665.949	-1118
666.002	-44
666.055	-636
666.108	127
666.161	-1253
666.214	-232
666.267	-325
666.320	-592
666.373	-692
666.426	-623
666.479	-1738
666.532	-1272
666.585	-1461
666.638	-484
666.691	-1757
666.744	-330
666.796	-2023
666.849	-1589
666.902	-651
666.955	-813
667.008	-555
667.060	-760
667.113	-1816
667.166	-490
667.219	-850
667.271	-285
667.324	-1225
667.377	-1368
667.430	-1334
667.482	-475
667.535	-1970
667.587	-644
667.640	-1564
667.693	-852
667.745	-1336
667.798	52
667.850	-1351
667.903	-947
667.955	-1625
668.008	-1306
668.060	-829
668.113	-818
668.165	-1524
668.218	-285
668.270	-607
668.322	-1139
668.375	-1956
668.427	-347
668.479	-987
668.532	-1374
668.584	-851
668.636	-592
668.689	-896
668.741	-1344
668.793	-763
668.845	-1322
668.898	-1112
668.950	-882
669.002	-1435
669.054	-1383
669.106	-1455
669.158	-1203
669.211	-1094
669.263	-1253
669.315	-804
669.367	942
669.419	-839
669.471	881
669.523	-249
669.575	2942
669.627	662
669.679	-324
669.731	-742
669.783	315
669.835	522
669.886	129
669.938	-197
669.990	-384
670.042	-1536
670.094	-581
670.146	-305
670.197	-329
670.249	-559
670.301	-582
670.353	269
670.404	1718
670.456	2765
670.508	5376
670.560	9976
670.611	16689
670.663	29837
670.715	73839
670.766	128525
670.818	40457
670.869	4298
670.921	1729
670.972	1190
671.024	45
671.075	-178
671.127	252
671.178	-489
671.230	-290
671.281	-969
671.333	-319
671.384	-552
671.436	-709
671.487	-676
671.538	665
671.590	1355
671.641	2357
671.692	4624
671.744	12314
671.795	8699
671.846	2581
671.897	-244
671.949	-302
672.000	-767
672.051	-1346
672.102	-911
672.153	-615
672.204	-1059
672.256	-486
672.307	-490
672.358	-226
672.409	-909
672.460	-700
672.511	-1094
672.562	-1466
672.613	-1053
672.664	-799
672.715	-1778
672.766	-1661
672.817	-2219
672.868	-921
672.919	-922
672.970	-1167
673.021	-1260
673.071	-1121
673.122	-960
673.173	-616
673.224	-1231
673.275	-1136
673.326	-1595
673.376	-1021
673.427	-2361
673.478	-1555
673.528	-1203
673.579	-1344
673.630	-1234
673.680	-759
673.731	-1949
673.782	-1295
673.832	-838
673.883	-1010
673.934	-1782
673.984	-917
674.035	-1343
674.085	-780
674.136	-1349
674.186	-785
674.237	-1987
674.287	-1550
674.338	-1122
674.388	-1164
674.438	-1433
674.489	-2114
674.539	-1329
674.589	-858
674.640	-1546
674.690	-1229
674.740	-1467
674.791	-1826
674.841	-985
674.891	-679
674.942	-1619
674.992	-939
675.042	-1939
675.092	-1741
675.142	-1783
675.193	-1400
675.243	-1764
675.293	-1760
675.343	-1467
675.393	-1423
675.443	-1409
675.493	-1145
675.543	-1499
675.593	-1318
675.643	-1133
675.693	-1613
675.743	-1092
675.793	-1464
675.843	-2241
675.893	-2006
675.943	-1318
675.993	-1230
676.043	-1131
676.093	-1184
676.142	-1824
676.192	-1234
676.242	-1538
676.292	-1373
676.341	-1769
676.391	-1019
676.441	-1037
676.491	-715
676.540	-1691
676.590	-728
676.640	-1924
676.689	-1311
676.739	-1852
676.789	-1504
676.838	-1704
676.888	-1299
676.937	-1736
676.987	-1468
677.037	-1326
677.086	-1667
677.136	-1509
677.185	-1520
677.235	-1392
677.284	-1285
677.333	-2570
677.383	-1417
677.432	-3323
677.482	-1291
677.531	-1538
677.580	-2346
677.630	-1082
677.679	-1023
677.728	-1519
677.778	-1004
677.827	-1876
677.876	-1792
677.925	-1925
677.975	-1025
678.024	-2288
678.073	-806
678.122	-1981
678.171	-1247
678.220	-1905
678.269	-530
678.319	-991
678.368	-1440
678.417	-1764
678.466	-1031
678.515	-1342
678.564	-885
678.613	-1943
678.662	-1907
678.711	-1735
678.760	-1025
678.809	-2073
678.857	-1716
678.906	-1697
678.955	-1795
679.004	-1981
679.053	-1267
679.102	-1966
679.151	-1091
679.199	-2054
679.248	-1205
679.297	-2157
679.346	-1587
679.394	-1710
679.443	-1773
679.492	-1338
679.540	-670
679.589	-1654
679.638	-1853
679.686	-1646
679.735	-1725
679.784	-2396
679.832	-1510
679.881	-1866
679.929	-1421
679.978	-2330
680.026	-860
680.075	-1239
680.123	-1326
680.172	-1821
680.220	-1100
680.268	-1427
680.317	-965
680.365	-2000
680.414	-1453
680.462	-1773
680.510	-1364
680.559	-2613
680.607	-1316
680.655	-1625
680.703	-1539
680.752	-1724
680.800	-1483
680.848	-1687
680.896	-1616
680.945	-1161
680.993	-1807
681.041	-1526
681.089	-1258
681.137	-1240
681.185	-2230
681.233	-2145
681.258	-1349
681.281	-602
681.329	-1959
681.377	-1575
681.380	-1573
681.425	-1645
681.473	-1372
681.502	-1384
681.521	-1412
681.569	-1068
681.617	-2512
681.624	-2400
681.665	-1696
681.713	-2202
681.745	-1777
681.761	-1594
681.809	-1402
681.857	-1504
681.867	-1487
681.904	-1436
681.952	-1230
681.989	-1736
682.000	-1897
682.048	-1020
682.096	-1321
682.111	-1271
682.143	-1197
682.191	-1811
682.233	-562
682.239	-379
682.286	-2063
682.334	-1548
682.354	-1818
682.382	-2187
682.430	-1369
682.476	-1529
682.477	-1539
682.525	-1152
682.572	-1892
682.598	-1687
682.620	-1511
682.667	-1883
682.715	-998
682.720	-1045
682.763	-1574
682.810	-886
682.841	-1153
682.857	-1300
682.905	-1267
682.952	-870
682.963	-983
683.000	-1362
683.047	-1579
683.085	-519
683.095	-256
683.142	-1719
683.190	-1298
683.206	-1248
683.237	-1165
683.284	-617
683.328	-1510
683.332	-1587
683.379	-1799
683.426	-1534
683.449	-1384
683.473	-1211
683.521	-881
683.568	-237
683.571	-245
683.615	-465
683.662	-1017
683.693	-1198
683.709	-1317
683.757	-1504
683.804	-1536
683.814	-1329
683.851	-653
683.898	-1522
683.936	-856
683.945	-678
683.992	-886
684.039	-927
684.057	-1011
684.086	-1171
684.133	-1141
684.179	-1568
684.180	-1588
684.227	-1069
684.274	-919
684.300	-726
684.321	-562
684.368	-1160
684.415	-1054
684.422	-1161
684.462	-1690
684.509	-837
684.543	-882
684.556	-947
684.603	-234
684.649	-1500
684.665	-1157
684.696	-398
684.743	-720
684.786	-30
684.790	22
684.837	-1328
684.883	-481
684.908	-643
684.930	-797
684.977	-600
685.023	-1015
685.029	-956
685.070	-565
685.117	-1159
685.150	-735
685.164	-561
685.210	-521
685.257	-65
685.272	-70
685.303	-152
685.350	-245
685.393	-786
685.396	-817
685.443	-497
685.490	-871
685.514	-405
685.536	-48
685.583	-369
685.629	-178
685.636	-272
685.675	-889
685.722	-698
685.757	-801
685.768	-852
685.815	-751
685.861	-834
685.878	-654
685.908	-291
685.954	-681
686.000	-504
686.000	-502
686.047	-315
686.093	-154
686.121	-546
686.139	-822
686.185	18
686.232	-260
686.242	-175
686.278	113
686.324	-419
686.363	-281
686.370	-258
686.416	-815
686.463	-262
686.484	-678
686.509	-1070
686.555	146
686.601	-438
686.606	-304
686.647	763
686.693	108
686.727	-11
686.739	-58
686.785	0
686.831	375
686.848	279
686.877	80
686.923	-267
686.969	26
686.969	27
687.015	-349
687.061	-82
687.090	-171
687.107	-241
687.153	-149
687.199	-684
687.211	-583
687.245	-109
687.291	573
687.332	248
687.336	198
687.382	578
687.428	275
687.453	374
687.474	402
687.520	116
687.565	617
687.574	386
687.611	-358
687.657	-249
687.695	205
687.702	312
687.748	1295
687.794	1567
687.816	1515
687.839	1206
687.885	376
687.931	234
687.937	147
687.976	-220
688.022	294
688.058	58
688.067	8
688.113	152
688.158	-282
688.179	-269
688.204	-102
688.249	112
688.295	180
688.300	196
688.340	40
688.386	537
688.421	278
688.431	258
688.477	113
688.522	306
688.542	530
688.567	778
688.613	639
688.658	437
688.663	423
688.703	195
688.749	316
688.784	216
688.794	233
688.839	248
688.884	397
688.905	556
688.930	653
688.975	194
689.020	8
689.026	24
689.065	323
689.110	758
689.146	410
689.155	342
689.201	933
689.246	995
689.267	1069
689.291	962
689.336	645
689.381	613
689.388	545
689.426	435
689.471	448
689.509	428
689.516	437
689.561	700
689.606	586
689.630	927
689.651	1068
689.696	89
689.741	258
689.750	240
689.785	411
689.830	260
689.871	28
689.875	14
689.920	445
689.965	570
689.992	535
690.010	472
690.054	447
690.099	608
690.112	605
690.144	600
690.189	810
690.233	405
690.233	407
690.278	373
690.323	655
690.354	833
690.367	927
690.412	804
690.457	1068
690.474	1013
690.501	884
690.546	1070
690.590	1007
690.595	1006
690.635	1144
690.680	1203
690.716	1219
690.724	1230
690.769	1759
690.813	1856
690.836	1862
690.857	2007
690.902	2416
690.946	2646
690.957	2824
690.991	3974
691.035	5110
691.077	6500
691.080	6517
691.124	5917
691.168	5503
691.198	5170
691.213	4774
691.257	3905
691.301	2505
691.318	2256
691.346	2304
691.390	1372
691.434	1612
691.439	1572
691.478	1512
691.522	1389
691.559	1213
691.567	1204
691.611	1831
691.655	1394
691.680	1274
691.699	1180
691.743	1226
691.787	1713
691.800	1560
691.831	1245
691.875	1515
691.919	1167
691.921	1167
691.964	1409
692.008	1368
692.041	1641
692.052	1747
692.096	1505
692.139	1828
692.162	1822
692.183	1668
692.227	1613
692.271	1222
692.282	1164
692.315	1181
692.359	1415
692.402	1368
692.403	1375
692.447	1512
692.490	1793
692.523	1992
692.534	1968
692.578	1491
692.622	1349
692.643	1396
692.666	1583
692.709	1378
692.753	1506
692.763	1447
692.797	1217
692.840	1833
692.884	1595
692.884	1601
692.928	1836
692.971	1205
693.004	1435
693.015	1523
693.059	1494
693.102	1876
693.124	1635
693.146	1426
693.189	1785
693.233	1792
693.245	1838
693.276	2007
693.320	1715
693.363	1776
693.365	1752
693.407	1563
693.450	2543
693.485	2522
693.493	2524
693.537	3145
693.580	3237
693.605	3332
693.624	3728
693.667	4502
693.710	5979
693.725	6303
693.753	8021
693.797	10818
693.840	13914
693.845	14225
693.883	13549
693.926	12042
693.966	11217
693.970	11033
694.013	8569
694.056	6625
694.086	5017
694.099	4794
694.142	4075
694.185	3312
694.206	3145
694.229	3135
694.272	2804
694.315	2282
694.326	2161
694.358	2249
694.401	2519
694.444	2631
694.446	2635
694.487	2754
694.530	2928
694.566	2936
694.573	2932
694.616	2534
694.659	2662
694.686	2430
694.702	2366
694.745	2672
694.787	2599
694.806	2600
694.830	2492
694.873	2244
694.916	2100
694.926	2024
694.959	2068
695.002	2137
695.044	2256
695.046	2252
695.087	2196
695.130	2005
695.166	1957
695.172	2014
695.215	2284
695.258	2625
695.286	2640
695.301	2524
695.343	2500
695.386	2347
695.406	2295
695.428	2317
695.471	2091
695.514	2220
695.526	2121
695.556	2007
695.599	2267
695.641	2226
695.646	2243
695.684	2463
695.726	2290
695.766	2476
695.769	2486
695.811	2203
695.854	2138
695.886	2026
695.896	2084
695.938	2314
695.981	2380
696.005	2510
696.023	2535
696.065	2435
696.108	2564
696.125	2463
696.150	2321
696.192	2318
696.235	2101
696.245	2118
696.277	2505
696.319	2584
696.361	3078
696.365	3091
696.404	3128
696.446	3116
696.485	3080
696.488	3076
696.530	2911
696.572	2726
696.604	2564
696.614	2579
696.656	2613
696.698	2612
696.724	2583
696.740	2672
696.783	2982
696.825	3195
696.844	3358
696.867	3382
696.909	3176
696.951	2964
696.964	2952
696.992	3090
697.034	3220
697.076	3150
697.083	3148
697.118	3203
697.160	3179
697.202	3303
697.203	3291
697.244	3202
697.286	3075
697.323	2860
697.327	2914
697.369	3481
697.411	3885
697.442	4260
697.453	4199
697.494	3833
697.536	3403
697.562	3186
697.578	3261
697.620	3383
697.661	3445
697.682	3507
697.703	3520
697.744	3411
697.786	3491
697.801	3434
697.828	3357
697.869	3409
697.911	3224
697.921	3205
697.952	3324
697.994	3364
698.035	3531
698.040	3523
698.077	3636
698.118	3831
698.160	3989
698.160	3974
698.201	3848
698.243	3693
698.279	3503
698.284	3510
698.325	3482
698.367	3453
698.399	3432
698.408	3416
698.449	3225
698.491	3086
698.518	2957
698.532	3113
698.573	3555
698.614	4041
698.638	4286
698.656	4243
698.697	4105
698.738	3955
698.757	3889
698.779	3925
698.820	3942
698.862	3972
698.877	3965
698.903	4137
698.944	4399
698.985	4656
698.996	4714
699.026	4300
699.067	3701
699.116	2977
699.235	3976
699.354	4337
699.474	3396
699.593	4210
699.713	3947
699.832	3918
699.951	3379
700.070	4649
700.190	3549
700.309	3740
700.428	4645
700.547	4388
700.667	4104
700.786	3553
700.905	3765
701.024	3739
701.143	3899
701.262	3826
701.381	3402
701.500	3683
701.619	3925
701.738	3707
701.857	4593
701.976	3304
702.095	3914
702.214	3996
702.333	3567
702.452	3612
702.571	3752
702.690	3816
702.809	3070
702.928	3669
703.047	3441
703.165	4793
703.284	4041
703.403	3684
703.522	3486
703.640	3771
703.759	4327
703.878	4335
703.997	3282
704.115	3822
704.234	3710
704.353	4521
704.471	3009
704.590	2915
704.708	3158
704.827	3035
704.946	2842
705.064	3330
705.183	3109
705.301	2853
705.420	3085
705.538	3499
705.656	3596
705.775	3639
705.893	4819
706.012	5081
706.130	2804
706.249	3486
706.367	3186
706.485	3265
706.604	2148
706.722	2973
706.840	4162
706.958	6347
707.077	4050
707.195	2877
707.313	2718
707.431	2814
707.549	2912
707.668	3274
707.786	3213
707.904	2433
708.022	2396
708.140	2742
708.258	2914
708.376	3174
708.494	2595
708.612	3015
708.730	3286
708.848	2875
708.966	2564
709.084	3273
709.202	2981
709.320	2921
709.438	2640
709.556	2857
709.674	2428
709.791	2999
709.909	1796
710.027	3428
710.145	2366
710.263	2990
710.380	1924
710.498	3895
710.616	2463
710.733	2573
710.851	2710
710.969	2696
711.086	2818
711.204	2509
711.322	3119
711.439	1944
711.557	2350
711.674	2973
711.792	2191
711.909	2615
712.027	2098
712.144	1578
712.262	2566
712.379	1865
712.497	2446
712.614	1946
712.732	2156
712.849	2508
712.966	3189
713.084	2411
713.201	3040
713.318	2469
713.436	3594
713.553	1697
713.670	2996
713.787	2989
713.905	2680
714.022	2932
714.139	3000
714.256	3320
714.373	4194
714.490	7619
714.608	23382
714.725	101969
714.842	91870
714.959	5947
715.076	3437
715.193	3502
715.310	2378
715.427	2180
715.544	3208
715.661	3717
715.778	2473
715.895	2342
716.011	2396
716.128	2749
716.245	3084
716.362	3353
716.479	2594
716.596	2266
716.713	2998
716.829	2314
716.946	3433
717.063	2543
717.180	2365
717.296	2021
717.413	2458
717.530	2211
717.646	2381
717.763	1492
717.880	2372
717.996	1729
718.113	2331
718.229	1287
718.346	2554
718.462	2446
718.579	2622
718.695	2646
718.812	2981
718.928	2049
719.045	1818
719.161	2126
719.277	2406
719.394	2878
719.510	3142
719.626	2215
719.743	2140
719.859	3216
719.975	5836
720.092	25832
720.208	51887
720.324	6570
720.440	2384
720.557	2470
720.673	2124
720.789	2693
720.905	1914
721.021	1957
721.137	2198
721.253	2068
721.369	1942
721.486	2517
721.602	1415
721.718	2007
721.834	2240
721.950	2434
722.066	1615
722.181	1825
722.297	2389
722.413	2122
722.529	1830
722.645	2096
722.761	2236
722.877	2110
722.993	2077
723.108	2649
723.224	1727
723.340	2241
723.456	2483
723.571	2467
723.687	1706
723.803	2820
723.918	1582
724.034	1525
724.150	2290
724.265	1435
724.381	1520
724.497	2315
724.612	2081
724.728	2513
724.843	2462
724.959	1983
725.074	2190
725.190	2045
725.305	2763
725.421	1512
725.536	1814
725.651	2247
725.767	2134
725.882	2388
725.997	1957
726.113	1334
726.228	1550
726.343	1793
726.459	1384
726.574	1863
726.689	1207
726.804	1615
726.920	1804
727.035	1281
727.150	1527
727.265	2089
727.380	2732
727.495	2556
727.610	2344
727.725	2807
727.841	2927
727.956	3602
728.071	2820
728.186	1984
728.301	1175
728.416	1852
728.531	2323
728.645	2644
728.760	3119
728.875	3972
728.990	3635
729.105	2681
729.220	2175
729.335	2569
729.449	1526
729.564	1302
729.679	635
729.794	859
729.908	2132
730.023	1987
730.138	2086
730.253	1695
730.367	1676
730.482	1790
730.596	1744
730.711	2377
730.826	2592
730.940	2358
731.055	1116
731.169	1465
731.284	1378
731.398	1859
731.513	1680
731.627	818
731.742	2862
731.856	2044
731.970	1932
732.085	2201
732.199	1797
732.313	3251
732.428	8797
732.542	26744
732.656	13696
732.771	3287
732.885	2154
732.999	2604
733.113	2668
733.227	1595
733.342	1683
733.456	1246
733.570	2284
733.684	1119
733.798	1699
733.912	1817
734.026	1470
734.140	644
734.254	2096
734.368	1864
734.482	1799
734.596	1643
734.710	1848
734.824	1411
734.938	1671
735.052	1539
735.166	1982
735.280	1920
735.393	2169
735.507	2692
735.621	1598
735.735	1477
735.849	1758
735.962	2328
736.076	2384
736.190	1544
736.303	1546
736.417	2419
736.531	1280
736.644	1787
736.758	1306
736.872	1228
736.985	1038
737.099	1331
737.212	1545
737.326	1954
737.439	1203
737.553	1533
737.666	1638
737.780	1571
737.893	549
738.007	1890
738.120	1983
738.233	1942
738.347	1897
738.460	1906
738.573	1892
738.687	1438
738.800	2383
738.913	1157
739.026	1557
739.140	829
739.253	1524
739.366	1356
739.479	1220
739.592	1065
739.705	1514
739.818	478
739.932	1383
740.045	1762
740.158	2627
740.271	2236
740.384	2201
740.497	2842
740.610	3591
740.723	2617
740.836	2248
740.949	2803
741.062	2333
741.174	2913
741.287	916
741.400	2485
741.513	2714
741.626	3046
741.739	2582
741.851	2233
741.964	2116
742.077	2187
742.189	2691
742.302	4972
742.415	5013
742.527	2538
742.640	2396
742.753	1963
742.865	2510
742.978	913
743.090	2158
743.203	1484
743.316	1605
743.428	1340
743.541	1381
743.653	1641
743.766	1616
743.878	1380
743.990	1486
744.103	4054
744.215	6030
744.327	2343
744.440	1919
744.552	1905
744.664	1323
744.777	1332
744.889	361
745.001	2167
745.113	1175
745.226	478
745.338	1279
745.450	1349
745.562	1440
745.674	788
745.786	1977
745.898	808
746.010	2044
746.122	646
746.234	1373
746.347	1529
746.459	1324
746.570	1702
746.682	3383
746.794	9225
746.906	5266
747.018	1277
747.130	929
747.242	1169
747.354	1859
747.466	1024
747.577	776
747.689	1597
747.801	1113
747.913	1130
748.024	273
748.136	733
748.248	765
748.359	1534
748.471	1277
748.583	649
748.694	310
748.806	1017
748.918	521
749.029	1057
749.141	987
749.252	1387
749.364	559
749.475	1382
749.587	703
749.698	69
749.809	791
749.921	967
750.032	708
750.144	1628
750.255	1370
750.366	592
750.478	627
750.589	998
750.700	1232
750.811	913
750.923	1017
751.034	916
751.145	1963
751.256	734
751.367	919
751.479	705
751.590	1321
751.701	968
751.812	1039
751.923	1489
752.034	709
752.145	1596
752.256	1260
752.367	1482
752.478	1328
752.589	937
752.700	652
752.811	208
752.922	252
753.032	714
753.143	1487
753.254	180
753.365	1424
753.476	758
753.586	895
753.697	1071
753.808	468
753.919	660
754.029	652
754.140	1223
754.251	629
754.361	314
754.472	706
754.582	275
754.693	990
754.804	1375
754.914	573
755.025	303
755.135	879
755.246	572
755.356	-162
755.466	142
755.577	1292
755.687	896
755.798	575
755.908	1449
756.018	760
756.129	1331
756.239	711
756.349	765
756.460	862
756.570	1675
756.680	410
756.790	210
756.900	1650
757.011	624
757.121	671
757.231	303
757.341	1471
757.451	779
757.561	141
757.671	609
757.781	70
757.891	1063
758.001	-249
758.111	1108
758.221	672
758.331	393
758.441	585
758.551	754
758.661	1139
758.771	833
758.880	1464
758.990	724
759.100	886
759.210	424
759.320	1120
759.429	1108
759.539	518
759.649	967
759.758	942
759.868	1076
759.978	979
760.087	990
760.197	1370
760.307	1162
760.416	1383
760.526	360
760.635	1580
760.745	890
760.854	1288
760.964	1176
761.073	1091
761.182	1108
761.292	1483
761.401	1113
761.511	824
761.620	886
761.729	783
761.839	380
761.948	1345
762.057	1343
762.166	1227
762.276	-262
762.385	1989
762.494	336
762.603	703
762.712	959
762.822	604
762.931	1742
763.040	987
763.149	785
763.258	1277
763.367	1064
763.476	2118
763.585	988
763.694	1438
763.803	2262
763.912	1567
764.021	2177
764.130	2117
764.238	2306
764.347	1960
764.456	2098
764.565	2560
764.674	2169
764.783	3011
764.891	2689
765.000	3982
765.109	3974
765.217	3845
765.326	4835
765.435	6835
765.543	8229
765.652	8884
765.761	12797
765.869	20008
765.978	31569
766.086	57625
766.195	120958
766.303	305402
766.412	652733
766.520	511582
766.629	169999
766.737	66772
766.846	36861
766.954	24301
767.062	18503
767.171	13614
767.279	10299
767.387	7526
767.496	7103
767.604	5689
767.712	5949
767.820	5172
767.928	4522
768.037	4048
768.145	5086
768.253	3892
768.361	3811
768.469	3749
768.577	2844
768.685	4712
768.793	3740
768.901	3453
769.009	5095
769.117	6360
769.225	7583
769.333	13303
769.441	22939
769.549	44854
769.657	108892
769.765	329592
769.873	522183
769.981	196065
770.088	50197
770.196	24078
770.304	15311
770.412	10994
770.519	8504
770.627	6331
770.735	5467
770.842	4040
770.950	3910
771.058	3150
771.165	3567
771.273	2710
771.380	2267
771.488	2855
771.595	2278
771.703	2027
771.810	1811
771.918	1560
772.025	1629
772.133	1356
772.240	1647
772.348	1508
772.455	2253
772.562	504
772.670	1266
772.777	1864
772.884	1348
772.991	1225
773.099	835
773.206	609
773.313	1149
773.420	1318
773.528	1277
773.635	525
773.742	1095
773.849	1085
773.956	1078
774.063	811
774.170	-68
774.277	969
774.384	1100
774.491	684
774.598	1307
774.705	1208
774.812	-67
774.919	1680
775.026	20
775.133	562
775.239	1554
775.346	896
775.453	71
775.560	-4
775.667	426
775.773	822
775.880	1078
775.987	1339
776.093	1281
776.200	615
776.307	259
776.413	1219
776.520	211
776.627	1278
776.733	665
776.840	299
776.946	3876
777.053	6631
777.159	19297
777.266	10702
777.372	15918
777.478	13984
777.585	6528
777.691	1393
777.798	665
777.904	1369
778.010	1294
778.117	1594
778.223	404
778.329	722
778.435	467
778.542	326
778.648	576
778.754	257
778.860	388
778.966	772
779.072	480
779.178	111
779.284	-176
779.391	905
779.497	-534
779.603	1689
779.708	899
779.815	5120
779.920	19214
780.026	26964
780.132	3873
780.238	118
780.344	1313
780.450	824
780.556	747
780.661	133
780.767	591
780.873	407
780.979	222
781.085	209
781.190	-84
781.296	129
781.402	-165
781.507	472
781.613	1026
781.719	-836
781.824	307
781.930	508
782.035	628
782.141	185
782.246	-47
782.352	-62
782.457	57
782.563	-407
782.668	103
782.773	-192
782.879	-939
782.984	593
783.090	1071
783.195	797
783.300	-71
783.405	801
783.511	-317
783.616	1106
783.721	856
783.826	157
783.932	775
784.037	1250
784.142	-219
784.247	279
784.352	488
784.457	81
784.562	563
784.667	5
784.772	106
784.877	233
784.982	861
785.087	-80
785.192	-100
785.297	-51
785.402	391
785.507	145
785.611	1146
785.716	27
785.821	520
785.926	-982
786.031	275
786.135	-519
786.240	19
786.345	-823
786.450	472
786.554	41
786.659	-174
786.763	-611
786.868	424
786.973	1400
787.077	-621
787.182	31
787.286	-208
787.391	319
787.495	-271
787.600	-175
787.704	-1105
787.809	296
787.913	-229
788.017	27
788.122	-57
788.226	907
788.330	-688
788.435	-250
788.539	-213
788.643	389
788.747	-515
788.852	287
788.956	-539
789.060	1124
789.164	133
789.268	-673
789.372	104
789.476	-796
789.580	-8
789.684	-999
789.788	86
789.892	-222
789.996	-38
790.100	346
790.204	-94
790.308	-359
790.412	-691
790.516	645
790.620	-159
790.724	46
790.828	-332
790.931	-650
791.035	707
791.139	-323
791.242	-500
791.346	758
791.450	-112
791.554	-75
791.657	-902
791.761	104
791.864	39
791.968	218
792.072	526
792.175	167
792.279	-393
792.382	-345
792.486	224
792.589	-42
792.693	187
792.796	-290
792.899	892
793.003	952
793.106	-1021
793.209	-518
793.313	491
793.416	-808
793.519	744
793.623	-80
793.726	149
793.829	326
793.932	408
794.035	-1377
794.138	1022
794.242	1049
794.345	182
794.448	1461
794.551	883
794.654	9136
794.757	13581
794.860	848
794.963	616
795.066	57
795.169	988
795.272	-1650
795.375	-359
795.477	45
795.580	569
795.683	-1624
795.786	-414
795.889	-1608
795.991	815
796.094	585
796.197	-1816
796.300	783
796.402	-260
796.505	120
796.608	-189
796.710	-54
796.813	-390
796.915	-199
797.018	206
797.120	754
797.223	-1046
797.326	65
797.428	-638
797.530	-675
797.633	-198
797.735	478
797.838	-1131
797.940	450
798.042	-561
798.145	-436
798.247	-147
798.349	-1608
798.452	260
798.554	-727
798.656	-1529
798.758	487
798.860	312
798.962	-445
799.065	-282
799.167	-915
799.269	712
799.371	-501
799.473	-533
799.575	-1382
799.677	-538
799.779	684
799.881	-1397
799.983	313
800.085	2
800.187	-555
800.289	-1561
800.390	-50
800.492	-659
800.594	900
800.696	-468
800.798	161
800.899	-1211
801.001	-262
801.103	137
801.205	-357
801.306	-643
801.408	-798
801.509	-1181
801.611	560
801.713	-548
801.814	-139
801.916	-365
802.017	-508
802.119	-325
802.220	-308
802.322	-2136
802.423	615
802.525	-1366
802.626	-175
802.727	-904
802.829	14
802.930	-2300
803.031	1045
803.133	-1303
803.234	-1101
803.335	-968
803.436	-1529
803.538	551
803.639	-948
803.740	-322
803.841	-958
803.942	-644
804.043	167
804.144	-1161
804.245	-481
804.346	-976
804.447	-126
804.548	-262
804.649	729
804.750	-670
804.851	-470
804.952	-795
805.053	-327
805.154	-1807
805.255	990
805.355	-417
805.456	-914
805.557	-685
805.658	-863
805.758	230
805.859	-459
805.960	-297
806.061	-150
806.161	-1142
806.262	-182
806.362	-695
806.463	-894
806.564	-347
806.664	-228
806.765	-657
806.865	-544
806.966	34
807.066	-131
807.166	742
807.267	422
807.367	-851
807.468	-20
807.568	-1194
807.668	-536
807.769	181
807.869	-1135
807.969	-712
808.069	229
808.170	156
808.270	-481
808.370	17
808.470	-46
808.570	-1513
808.670	-209
808.770	525
808.870	102
808.970	83
809.070	2
809.170	-704
809.271	957
809.370	146
809.470	-479
809.570	-1232
809.670	-327
809.770	582
809.870	784
809.970	83
810.070	-144
810.169	-172
810.269	-1559
810.369	849
810.469	-830
810.568	-186
810.668	-803
810.768	-230
810.867	-35
810.967	-799
811.066	-562
811.166	146
811.265	336
811.365	-318
811.464	-139
811.564	-2
811.663	82
811.763	-1393
811.862	144
811.962	1373
812.061	-317
812.160	-766
812.260	-217
812.359	440
812.458	-579
812.557	405
812.657	-563
812.756	421
812.855	89
812.954	618
813.053	-144
813.153	-150
813.252	-819
813.351	39
813.450	-244
813.549	-254
813.648	338
813.747	-180
813.846	1479
813.945	-950
814.044	-487
814.143	455
814.242	99
814.341	82
814.439	607
814.538	477
814.637	650
814.736	150
814.835	1240
814.933	276
815.032	995
815.131	663
815.229	166
815.328	1255
815.427	826
815.525	525
815.624	815
815.722	633
815.821	1730
815.919	846
816.018	458
816.116	1616
816.215	1920
816.313	1784
816.412	2082
816.510	2041
816.609	3123
816.707	2396
816.805	2669
816.904	3043
817.002	3442
817.100	4946
817.198	4822
817.296	4917
817.395	6875
817.493	9154
817.591	9504
817.689	14071
817.787	19149
817.885	32811
817.983	59738
818.081	123107
818.179	271822
818.277	564130
818.375	446669
818.473	168180
818.571	78091
818.669	50925
818.767	43338
818.865	42762
818.963	49673
819.061	69624
819.158	113883
819.256	221853
819.354	464550
819.452	764603
819.549	509910
819.647	217186
819.745	106624
819.842	65266
819.940	42472
820.038	31275
820.135	23136
820.233	19134
820.330	14086
820.428	11166
820.525	10913
820.623	9406
820.720	7608
820.818	7064
820.915	6521
821.012	5911
821.110	3813
821.207	4858
821.304	2956
821.402	3742
821.499	5489
821.596	8766
821.693	5626
821.791	3024
821.888	2166
821.985	2722
822.082	1849
822.179	3119
822.276	3609
822.373	2618
822.470	1638
822.567	706
822.664	-146
822.761	2698
822.858	-165
822.955	1857
823.052	684
823.149	553
823.246	498
823.343	743
823.440	846
823.536	881
823.633	526
823.730	506
823.827	297
823.923	13
824.020	2165
824.117	924
824.213	1502
824.310	1871
824.407	856
824.503	411
824.600	458
824.696	-141
824.793	161
824.889	-114
824.986	334
825.082	163
825.179	829
825.275	256
825.371	-1558
825.468	-173
825.564	-1392
825.660	243
825.757	320
825.853	586
825.949	-1
826.045	-743
826.142	-1104
826.238	-221
826.334	-466
826.430	-1204
826.526	459
826.622	-687
826.718	-290
826.814	-217
826.910	473
827.006	-578
827.102	-416
827.198	-658
827.294	-506
827.390	-44
827.486	150
827.582	-1112
827.678	-1177
827.774	-15
827.869	-1872
827.965	314
828.061	-1929
828.157	-613
828.252	-713
828.348	-406
828.444	80
828.539	-1156
828.635	-1229
828.731	-85
828.826	-1347
828.922	-372
829.017	-1227
829.113	-436
829.208	-282
829.304	-1373
829.399	403
829.495	-412
829.590	-31
829.685	-582
829.781	-246
829.876	-999
829.971	-803
830.066	-623
830.162	-737
830.257	-1711
830.352	-716
830.447	-95
830.543	-852
830.638	-1115
830.733	314
830.828	-647
830.923	-740
831.018	-703
831.113	-785
831.208	-1189
831.303	-501
831.398	-802
831.493	-582
831.588	-1146
831.683	-1007
831.778	-917
831.873	-591
831.967	-412
832.062	-1334
832.157	-2125
832.252	171
832.346	-614
832.441	-324
832.536	-306
832.631	90
832.725	-593
832.820	-1338
832.914	-837
833.009	-1158
833.104	-895
833.198	117
833.293	-641
833.387	-213
833.482	-1153
833.576	-1738
833.670	-349
833.765	-746
833.859	-1485
833.954	-430
834.048	-1149
834.142	-10
834.237	-734
834.331	-1020
834.425	-1058
834.519	-1220
834.613	-713
834.708	-827
834.802	-715
834.896	-929
834.990	-97
835.084	-864
835.178	-939
835.272	-689
835.366	-1387
835.460	-219
835.554	-158
835.648	-1090
835.742	-574
835.836	-392
835.930	-2187
836.024	-504
836.117	-51
836.211	-1216
836.305	-1036
836.399	-924
836.493	-1880
836.586	-387
836.680	-1131
836.774	-848
836.867	-147
836.961	-1173
837.055	-1164
837.148	-422
837.242	-724
837.335	-829
837.429	-453
837.522	-1223
837.616	-321
837.709	-628
837.803	-1355
837.896	-483
837.989	-1027
838.083	445
838.176	-1051
838.269	-1874
838.363	-96
838.456	-934
838.549	-114
838.642	-1172
838.735	-891
838.829	-881
838.922	-1456
839.015	-1431
839.108	-1942
839.201	-1544
839.294	-543
839.387	-964
839.480	-1035
839.573	-966
839.666	-934
839.759	-1196
839.852	-1182
839.945	-1053
840.038	-825
840.131	-1969
840.223	-878
840.316	-328
840.409	-777
840.502	-1276
840.594	122
840.687	-2093
840.780	-663
840.873	-2052
840.965	-1306
841.058	-807
841.150	-1325
841.243	-1727
841.336	-382
841.428	-735
841.521	-1033
841.613	-1772
841.706	-316
841.798	-866
841.890	-1106
841.983	-1632
842.075	-43
842.167	-920
842.260	-1263
842.352	-756
842.444	-1530
842.537	-1245
842.629	-616
842.721	-1113
842.813	-1471
842.905	-2151
842.997	-375
843.090	-943
843.182	-753
843.274	-2136
843.366	-219
843.458	-227
843.550	-660
843.642	-807
843.734	-251
843.826	-878
843.918	-736
844.009	-365
844.101	-289
844.193	-1327
844.285	-969
844.377	460
844.469	1878
844.560	3463
844.652	4364
844.744	1218
844.835	-890
844.927	-1574
845.019	-1650
845.110	-1109
845.202	-1134
845.293	-908
845.385	-1392
845.476	-775
845.568	-204
845.659	-611
845.751	-1340
845.842	-1099
845.934	-1353
846.025	-1097
846.116	-577
846.208	-1028
846.299	-818
846.390	178
846.482	-981
846.573	169
846.664	-462
846.755	-1573
846.846	-13
846.937	-2417
847.029	-814
847.120	-1116
847.211	-430
847.302	-835
847.393	-1301
847.484	-1056
847.575	-436
847.666	-1276
847.757	-691
847.847	-1772
847.938	-46
848.029	-608
848.120	-828
848.211	-664
848.302	-881
848.392	-1416
848.483	-583
848.574	-1318
848.664	-1430
848.755	-1267
848.846	-356
848.936	-1508
849.027	-1043
849.118	-856
849.208	-1701
849.299	-474
849.389	-887
849.480	49
849.570	1635
849.661	4384
849.751	7317
849.841	2389
849.932	-596
850.022	-1090
850.112	46
850.203	-509
850.293	-1181
850.383	-619
850.474	-1101
850.564	-1974
850.654	-568
850.744	-1857
850.834	-434
850.924	-1403
851.014	-802
851.104	-2019
851.194	-1371
851.284	-840
851.374	-1077
851.464	-1381
851.554	-1165
851.644	-1118
851.734	-1312
851.824	-1271
851.914	-1800
852.004	-656
852.094	-1389
852.183	-524
852.273	-1191
852.363	-1580
852.452	-1336
852.542	-1222
852.632	-1717
852.721	-1569
852.811	-1198
852.901	-1096
852.990	-997
853.080	-984
853.169	-814
853.259	-1349
853.348	-1298
853.438	-851
853.527	-387
853.617	-1316
853.706	2133
853.795	3641
853.885	11834
853.974	22507
854.063	42328
854.152	64179
854.242	20995
854.331	2476
854.420	-508
854.509	-546
854.598	135
854.687	-1476
854.777	-274
854.866	-1340
854.955	-1158
855.044	-705
855.133	-894
855.222	-1401
855.311	-1458
855.400	-622
855.488	-1108
855.577	-1539
855.666	-662
855.755	-587
855.844	-1110
855.933	-1151
856.021	-779
856.110	-1388
856.199	-1634
856.288	-1139
856.376	-991
856.465	-1372
856.554	-581
856.642	-779
856.731	-930
856.819	-1180
856.908	-2120
856.996	-1990
857.085	-1218
857.173	-1170
857.262	-715
857.350	-1737
857.438	-1663
857.527	-1026
857.615	-1488
857.703	-1248
857.792	-1485
857.880	-610
857.968	-1482
858.056	-1645
858.145	-1095
858.233	-815
858.321	-1299
858.409	-277
858.497	-1394
858.585	-1261
858.673	-54
858.761	-2118
858.849	-1121
858.937	-1411
859.025	-1306
859.113	-785
859.201	-827
859.289	-330
859.377	-535
859.465	-414
859.552	-1123
859.640	-1452
859.728	-239
859.816	-1335
859.903	-1006
859.991	-1683
860.079	-1073
860.166	-1260
860.254	-1514
860.342	-893
860.429	-1831
860.517	-485
860.604	-1309
860.692	-1401
860.779	-1462
860.867	-1746
860.954	-2052
861.042	-1475
861.129	-1518
861.216	-973
861.304	-1522
861.391	-1488
861.478	-1083
861.565	-508
861.653	-149
861.740	-1933
861.827	-1466
861.914	-1639
862.001	-2116
862.089	-1469
862.176	-1255
862.263	-665
862.350	-1185
862.437	-1316
862.524	-1610
862.611	-1071
862.698	-635
862.785	524
862.871	905
862.958	-276
863.045	-1132
863.132	-1226
863.219	-1007
863.306	-1499
863.392	106
863.479	-1271
863.566	-1507
863.652	-865
863.739	-1264
863.826	-1365
863.912	-1897
863.999	-1760
864.086	-1386
864.172	-2012
864.259	-1578
864.345	-1384
864.432	-1897
864.518	-875
864.604	-795
864.691	-1783
864.777	-1162
864.863	-884
864.950	-568
865.036	-806
865.122	-89
865.209	-1030
865.295	-836
865.381	-667
865.467	-82
865.553	-4
865.639	-405
865.726	387
865.812	4072
865.898	9037
865.984	13875
866.070	28744
866.156	28586
866.242	6277
866.328	-113
866.414	-696
866.499	219
866.585	-493
866.671	-143
866.757	-920
866.843	-259
866.928	-1219
867.014	-1125
867.100	-559
867.186	-1632
867.271	-1187
867.357	-634
867.442	-1311
867.528	266
867.614	-848
867.699	180
867.785	1859
867.870	2570
867.956	5093
868.041	2387
868.127	315
868.212	1783
868.297	2349
868.383	564
868.468	923
868.553	477
868.639	-708
868.724	-638
868.809	-343
868.894	-867
868.979	-883
869.065	-1243
869.150	-787
869.235	-683
869.320	-1018
869.405	-1001
869.490	-1245
869.575	-779
869.660	-1210
869.745	-1060
869.830	-1402
869.915	-984
870.000	-1124
870.085	-1594
870.169	23
870.254	311
870.339	-1441
870.424	-1244
870.509	-1613
870.593	-865
870.678	-1281
870.763	-1389
870.847	-868
870.932	-1704
871.016	-705
871.101	-148
871.186	-808
871.270	-1066
871.355	-1971
871.439	-1351
871.523	-934
871.608	-651
871.692	-1326
871.777	-176
871.861	-681
871.945	-1388
872.030	-1362
872.114	-1915
872.198	-1882
872.282	-2011
872.367	-625
872.451	-1138
872.535	-906
872.619	-1352
872.703	-1994
872.787	-1567
872.871	-1077
872.955	-2086
873.039	-1129
873.123	-869
873.207	-902
873.291	-1559
873.375	-1717
873.459	-960
873.543	-1832
873.627	-1744
873.711	-671
873.794	-1164
873.878	-1637
873.962	-1684
874.045	-843
874.129	-1683
874.137	-1597
874.213	-738
874.245	-691
874.296	-616
874.352	-1512
874.380	-1951
874.460	-1415
874.464	-1394
874.547	-1343
874.568	-1260
874.631	-1018
874.676	-1468
874.714	-1844
874.784	-1158
874.798	-1022
874.881	-663
874.892	-694
874.965	-944
874.999	-956
875.048	-927
875.107	-738
875.131	-684
875.215	-1151
875.215	-1150
875.298	-928
875.323	-952
875.381	-1039
875.430	-869
875.465	-751
875.538	-1026
875.548	-1063
875.631	-1043
875.646	-1026
875.714	-928
875.753	-829
875.798	-709
875.861	-634
875.881	-627
875.964	-1339
875.968	-1374
876.047	-1876
876.076	-1416
876.130	-606
876.183	-907
876.213	-1068
876.291	-1209
876.296	-1221
876.379	-760
876.398	-812
876.462	-958
876.506	-1085
876.545	-1265
876.613	-1095
876.628	-1007
876.711	-777
876.721	-785
876.794	-1002
876.828	-909
876.877	-785
876.935	-729
876.960	-648
877.043	-120
877.043	-121
877.125	-409
877.150	-192
877.208	341
877.258	-23
877.291	-226
877.365	-433
877.374	-454
877.456	265
877.472	235
877.539	3
877.579	69
877.622	150
877.687	290
877.704	314
877.787	-203
877.794	-253
877.869	-746
877.901	-698
877.952	-528
878.008	-690
878.034	-819
878.115	-539
878.117	-528
878.199	-126
878.222	-201
878.282	-540
878.329	-481
878.364	-355
878.437	-510
878.447	-539
878.529	-1123
878.544	-961
878.611	-367
878.651	-443
878.694	-324
878.758	-351
878.776	-384
878.858	-274
878.865	-287
878.941	-669
878.972	-676
879.023	-648
879.078	-635
879.105	-559
879.185	-493
879.187	-490
879.269	-687
879.292	-692
879.351	-682
879.399	-682
879.433	-750
879.506	-459
879.516	-429
879.598	-1273
879.613	-1211
879.680	-691
879.720	-448
879.762	-250
879.827	-659
879.844	-818
879.926	-773
879.933	-789
880.007	-579
880.040	-487
880.089	-390
880.147	-405
880.171	-427
880.253	-597
880.254	-599
880.335	-326
880.360	-105
880.417	325
880.467	-51
880.499	-212
880.574	263
880.580	289
880.662	-182
880.680	-319
880.744	-836
880.787	-679
880.825	-307
880.893	-82
880.907	-123
880.989	-484
881.000	-495
881.070	-386
881.106	-226
881.152	-39
881.213	-578
881.233	-698
881.315	-138
881.319	-152
881.396	-507
881.426	-594
881.478	-638
881.532	-346
881.559	-156
881.639	-303
881.641	-315
881.722	-655
881.745	-724
881.803	-329
881.852	-178
881.885	-367
881.958	-537
881.966	-527
882.047	-440
882.064	-492
882.129	-450
882.171	-456
882.210	-605
882.277	-531
882.291	-451
882.372	38
882.383	33
882.454	-76
882.489	-78
882.535	-353
882.596	-703
882.616	-618
882.697	84
882.702	103
882.778	233
882.808	294
882.859	152
882.914	-94
882.940	-192
883.020	-383
883.021	-376
883.102	-135
883.127	-29
883.183	-307
883.233	-499
883.264	-318
883.339	-126
883.345	-121
883.426	-239
883.445	-111
883.507	-45
883.551	-314
883.587	-170
883.657	193
883.668	143
883.749	-251
883.763	-333
883.830	-259
883.869	-35
883.910	98
883.975	-147
883.991	-153
884.072	-37
884.081	-25
884.152	-118
884.187	-182
884.233	-232
884.292	52
884.314	203
884.394	6
884.398	5
884.475	-191
884.504	-177
884.555	-189
884.610	-410
884.636	-266
884.716	295
884.716	300
884.797	71
884.821	141
884.877	420
884.927	144
884.958	-124
885.033	-292
885.038	-291
885.118	-518
885.139	-476
885.199	-71
885.244	39
885.279	-35
885.350	-199
885.359	-116
885.439	526
885.456	676
885.520	420
885.561	259
885.600	351
885.667	375
885.680	318
885.760	-22
885.773	-81
885.840	36
885.878	162
885.920	255
885.984	209
886.000	171
886.080	-80
886.089	-95
886.160	-84
886.195	-77
886.240	-53
886.300	-89
886.320	6
886.400	378
886.406	400
886.480	186
886.511	61
886.560	68
886.616	10
886.640	141
886.720	762
886.722	764
886.800	-96
886.827	-335
886.879	-38
886.932	178
886.959	496
887.038	1542
887.039	1540
887.119	429
887.143	155
887.198	224
887.248	324
887.278	368
887.354	191
887.358	186
887.437	185
887.459	134
887.517	269
887.564	437
887.596	542
887.669	752
887.676	730
887.755	384
887.774	292
887.835	250
887.880	273
887.914	494
887.985	660
887.994	612
888.073	269
888.090	188
888.153	390
888.195	551
888.232	566
888.300	630
888.311	625
888.391	347
888.405	312
888.470	121
888.510	3
888.549	132
888.615	356
888.628	423
888.708	739
888.720	784
888.787	207
888.825	-128
888.866	21
888.930	228
888.945	156
889.024	-205
889.035	-262
889.103	170
889.140	410
889.182	603
889.245	896
889.261	807
889.340	316
889.349	260
889.419	666
889.454	856
889.498	729
889.559	549
889.577	440
889.656	-49
889.664	-97
889.735	659
889.768	1015
889.814	1145
889.873	1311
889.978	489
890.083	717
890.187	519
890.292	519
890.397	665
890.501	1351
890.606	1360
890.710	1162
890.815	911
890.919	1196
891.024	-277
891.128	602
891.233	1088
891.337	575
891.442	745
891.546	1056
891.650	832
891.755	759
891.859	1463
891.963	1109
892.068	637
892.172	196
892.276	727
892.380	1449
892.484	726
892.589	921
892.693	582
892.797	447
892.901	23
893.005	876
893.109	604
893.213	1035
893.317	1351
893.421	742
893.525	150
893.629	409
893.733	719
893.837	529
893.941	-365
894.045	1001
894.148	459
894.252	300
894.356	752
894.460	574
894.564	832
894.667	475
894.771	438
894.875	649
894.978	705
895.082	-436
895.186	748
895.289	1297
895.393	805
895.496	1039
895.600	-127
895.703	583
895.807	243
895.910	391
896.014	335
896.117	154
896.221	926
896.324	783
896.427	886
896.531	324
896.634	467
896.737	470
896.840	110
896.944	404
897.047	490
897.150	1012
897.253	836
897.356	557
897.460	1119
897.563	963
897.666	337
897.769	614
897.872	558
897.975	-555
898.078	528
898.181	427
898.284	688
898.387	232
898.490	453
898.593	255
898.695	786
898.798	551
898.901	418
899.004	953
899.107	86
899.209	580
899.312	396
899.415	735
899.518	238
899.620	102
899.723	965
899.826	-252
899.928	338
900.031	2
900.133	-133
900.236	345
900.338	118
900.441	-156
900.543	219
900.646	791
900.748	412
900.851	-80
900.953	264
901.055	325
901.158	169
901.260	-120
901.362	471
901.465	-59
901.567	411
901.669	156
901.771	194
901.873	773
901.976	900
902.078	21
902.180	-128
902.282	252
902.384	-53
902.486	640
902.588	924
902.690	-324
902.792	118
902.894	672
902.996	-380
903.098	230
903.200	-323
903.302	-70
903.404	-135
903.505	495
903.607	568
903.709	537
903.811	5
903.913	562
904.014	47
904.116	-197
904.218	-82
904.319	1008
904.421	1297
904.523	689
904.624	446
904.726	399
904.827	272
904.929	334
905.030	680
905.132	589
905.233	366
905.335	357
905.436	387
905.537	303
905.639	613
905.740	65
905.841	36
905.943	1057
906.044	488
906.145	381
906.247	360
906.348	159
906.449	608
906.550	20
906.651	784
906.752	-78
906.854	-28
906.955	219
907.056	351
907.157	-317
907.258	-93
907.359	-736
907.460	-192
907.561	312
907.662	-70
907.762	-62
907.863	314
907.964	-127
908.065	125
908.166	109
908.267	543
908.367	84
908.468	-209
908.569	-176
908.670	-809
908.770	-371
908.871	435
908.971	-73
909.072	106
909.173	-58
909.273	-205
909.374	-18
909.474	454
909.575	434
909.675	-495
909.776	-150
909.876	-152
909.977	-9
910.077	378
910.177	652
910.278	-107
910.378	-272
910.478	418
910.579	60
910.679	-380
910.779	616
910.879	279
910.980	333
911.080	457
911.180	-201
911.280	341
911.380	214
911.480	316
911.580	-51
911.680	-376
911.780	72
911.880	-53
911.980	-947
912.080	22
912.180	93
912.280	458
912.380	-445
912.480	130
912.580	-213
912.679	280
912.779	34
912.879	-92
912.979	33
913.078	-341
913.178	116
913.278	-173
913.377	51
913.477	-258
913.577	-168
913.676	377
913.776	-199
913.875	552
913.975	721
914.074	-476
914.174	-232
914.273	-282
914.373	1203
914.472	147
914.572	238
914.671	-489
914.770	-570
914.870	-153
914.969	-435
915.068	195
915.167	-114
915.267	-635
915.366	-153
915.465	158
915.564	133
915.663	-86
915.763	218
915.862	-532
915.961	308
916.060	-102
916.159	233
916.258	95
916.357	-713
916.456	-563
916.555	-702
916.654	-715
916.752	315
916.851	882
916.950	104
917.049	-79
917.148	13
917.247	131
917.345	-78
917.444	-366
917.543	-377
917.642	-166
917.740	-161
917.839	249
917.937	631
918.036	121
918.135	-191
918.233	-446
918.332	-114
918.430	133
918.529	70
918.627	-10
918.726	-20
918.824	808
918.923	939
919.021	714
919.119	516
919.218	-432
919.316	-410
919.414	157
919.512	-448
919.611	-377
919.709	57
919.807	250
919.905	-150
920.003	-56
920.102	132
920.200	-512
920.298	43
920.396	-255
920.494	128
920.592	-690
920.690	449
920.788	-128
920.886	-192
920.984	254
921.082	-684
921.180	198
921.277	39
921.375	469
921.473	59
921.571	49
921.669	-619
921.766	-475
921.864	77
921.962	-260
922.060	-104
922.157	1293
922.255	397
922.352	-200
922.450	228
922.548	103
922.645	-149
922.743	1001
922.840	287
922.938	452
923.035	-821
923.133	921
923.230	1139
923.327	1210
923.425	478
923.522	877
923.619	978
923.717	-590
923.814	377
923.911	940
924.008	411
924.106	985
924.203	186
924.300	180
924.397	850
924.494	1122
924.591	144
924.688	222
924.786	800
924.883	73
924.979	519
925.077	589
925.173	465
925.270	198
925.367	384
925.464	495
925.561	430
925.658	432
925.755	231
925.852	206
925.948	1251
926.045	684
926.142	1918
926.239	1114
926.335	1209
926.432	1753
926.529	900
926.625	1148
926.722	57
926.818	766
926.915	1045
927.011	427
927.108	168
927.204	-551
927.301	31
927.397	1065
927.494	4
927.590	52
927.687	543
927.783	454
927.879	571
927.976	-612
928.072	-36
928.168	75
928.264	845
928.361	-281
928.457	-692
928.553	447
928.649	155
928.745	-379
928.841	143
928.937	254
929.033	-314
929.129	-212
929.225	-297
929.321	524
929.417	-167
929.513	165
929.609	-174
929.705	-357
929.801	-125
929.897	120
929.993	-234
930.089	-227
930.184	561
930.280	-502
930.376	-18
930.471	-231
930.567	-168
930.663	-310
930.758	-505
930.854	143
930.950	-369
931.045	-385
931.141	-326
931.236	283
931.332	304
931.427	610
931.523	-210
931.618	708
931.714	-81
931.809	378
931.905	389
932.000	-194
932.095	232
932.191	470
932.286	-414
932.381	978
932.476	-472
932.572	-1008
932.667	27
932.762	-364
932.857	293
932.952	-325
933.047	-106
933.142	-536
933.237	-464
933.332	20
933.427	462
933.522	568
933.617	-136
933.712	-62
933.807	-80
933.902	478
933.997	-646
934.092	-55
934.187	-1091
934.282	63
934.376	3
934.471	320
934.566	83
934.661	-254
934.755	156
934.850	484
934.945	-248
935.039	-1174
935.134	85
935.228	-457
935.323	396
935.417	-200
935.512	-639
935.606	-542
935.701	-933
935.795	-332
935.890	-509
935.984	128
936.079	-445
936.173	207
936.267	34
936.362	-255
936.456	437
936.550	-171
936.644	-675
936.738	-107
936.833	291
936.927	-183
937.021	-221
937.115	-116
937.209	-174
937.303	259
937.397	-337
937.491	-603
937.585	-111
937.679	-552
937.773	-426
937.867	-207
937.961	-870
938.055	317
938.149	790
938.243	-898
938.337	-201
938.430	-328
938.524	-249
938.618	1249
938.712	1513
938.805	146
938.899	339
938.993	-318
939.086	-171
939.180	479
939.274	1894
939.367	676
939.461	12
939.554	-33
939.648	-407
939.741	-465
939.835	250
939.928	-856
940.022	627
940.115	-575
940.208	-102
940.302	-118
940.395	-175
940.488	-266
940.582	896
940.675	-1442
940.768	-490
940.861	-449
940.954	357
941.048	669
941.141	-158
941.234	544
941.327	1253
941.420	2053
941.513	734
941.606	-771
941.699	-214
941.792	-617
941.885	-610
941.978	-599
942.071	-351
942.164	-345
942.257	-569
942.349	-765
942.442	-421
942.535	-632
942.628	585
942.721	-893
942.813	-925
942.906	853
942.999	-88
943.091	-1063
943.184	-806
943.277	-477
943.369	-265
943.462	-739
943.554	-747
943.647	-766
943.739	-94
943.832	-477
943.924	-788
944.017	301
944.109	-1525
944.201	-139
944.294	-181
944.386	-268
944.478	-1759
944.571	-1177
944.663	-113
944.755	-610
944.847	-648
944.940	226
945.032	-1424
945.124	-632
945.216	168
945.308	-787
945.400	-343
945.492	-359
945.584	-1045
945.676	-149
945.768	230
945.860	-794
945.952	-559
946.044	-195
946.136	-553
946.228	-439
946.320	-779
946.412	-677
946.503	-503
946.595	-236
946.687	-916
946.779	-1205
946.870	-348
946.962	-63
947.054	-217
947.145	94
947.237	-1365
947.329	-261
947.420	-482
947.512	-805
947.603	-951
947.695	-238
947.786	-714
947.878	-765
947.969	45
948.061	-475
948.152	-228
948.243	-206
948.335	-429
948.426	-602
948.517	-617
948.609	-209
948.700	-1234
948.791	94
948.882	-719
948.973	-575
949.065	-1247
949.156	-94
949.247	-1283
949.338	220
949.429	73
949.520	-360
949.611	-547
949.702	242
949.793	-486
949.884	-134
949.975	-546
950.066	-1139
950.157	-702
950.247	-819
950.338	-755
950.429	-608
950.520	-552
950.611	-514
950.701	-205
950.792	-537
950.883	-609
950.973	-463
951.064	-1368
951.155	-767
951.245	-1071
951.336	-245
951.427	-1012
951.517	453
951.608	-224
951.698	-751
951.788	-1203
951.879	-521
951.969	-1217
952.060	-909
952.150	-583
952.240	-211
952.331	-1707
952.421	-66
952.511	-718
952.602	253
952.692	-244
952.782	-1457
952.872	-544
952.962	-988
953.052	-1044
953.143	-1160
953.233	-451
953.323	-945
953.413	-1630
953.503	-1452
953.593	20
953.683	-1221
953.773	-1349
953.863	-19
953.953	-627
954.042	-340
954.132	-415
954.222	-856
954.312	-595
954.402	-669
954.492	-1416
954.581	-228
954.671	-201
954.761	-327
954.850	194
954.940	-158
955.030	250
955.119	-1064
955.209	-486
955.298	-1657
955.388	-441
955.477	-637
955.567	-1434
955.656	-337
955.746	136
955.835	-739
955.925	-1213
956.014	29
956.103	-323
956.193	-899
956.282	-676
956.371	-44
956.461	-1045
956.550	-1475
956.639	-833
956.728	-923
956.817	-791
956.906	-733
956.995	-796
957.085	-986
957.174	-529
957.263	-605
957.352	-986
957.441	-1325
957.530	-456
957.619	-424
957.708	-1506
957.796	-835
957.885	-1265
957.974	-1083
958.063	-165
958.152	-1112
958.241	208
958.329	-755
958.418	-831
958.507	-931
958.596	-122
958.684	-890
958.773	817
958.861	-566
958.950	-410
959.039	-653
959.127	-245
959.216	-223
959.304	-487
959.393	-534
959.481	-480
959.570	162
959.658	-1118
959.746	-897
959.835	-1288
959.923	-1071
960.011	-971
960.100	85
960.188	-1234
960.276	-1144
960.365	-982
960.453	-697
960.541	-1236
960.629	-667
960.717	-747
960.805	-440
960.893	-511
960.981	-728
961.069	-250
961.158	-521
961.245	-357
961.333	-391
961.421	-660
961.509	-781
961.597	-291
961.685	-487
961.773	-849
961.861	-207
961.949	-389
962.036	-765
962.124	-748
962.212	-827
962.299	-1464
962.387	-685
962.475	-223
962.562	-613
962.650	-409
962.738	-410
962.825	-1123
962.913	-849
963.000	-1067
963.088	-954
963.175	-376
963.263	-503
963.350	-1008
963.438	-1602
963.525	-1063
963.612	-169
963.700	-1495
963.787	308
963.874	-555
963.962	52
964.049	-576
964.136	-1074
964.223	-662
964.310	-555
964.398	-303
964.485	-1901
964.572	-923
964.659	-595
964.746	-1627
964.833	-1230
964.920	-938
965.007	-681
965.094	-318
965.181	-912
965.268	-743
965.355	-976
965.441	-33
965.528	-1317
965.615	-178
965.702	-1073
965.789	-1169
965.875	-605
965.962	-717
966.049	-809
966.136	-799
966.222	-1423
966.309	-582
966.395	-1087
966.482	149
966.569	-754
966.655	-609
966.742	-1019
966.828	-1112
966.915	-246
967.001	-925
967.087	-1644
967.174	-35
967.260	-536
967.347	-922
967.433	-1912
967.519	-707
967.605	-1046
967.692	-19
967.778	-1235
967.864	-1031
967.950	-1060
968.036	-1277
968.123	-732
968.209	-564
968.295	-1728
968.381	209
968.467	26
968.553	-1123
968.639	-370
968.725	-2349
968.811	-227
968.897	-575
968.983	-568
969.069	-892
969.154	483
969.240	361
969.326	-1637
969.412	-1712
969.497	-1552
969.583	-420
969.669	-132
969.755	-162
969.840	-305
969.926	-93
970.012	-1507
970.097	493
970.183	-989
970.268	-870
970.354	-968
970.439	-2314
970.525	-89
970.610	-1316
970.696	110
970.781	-476
970.866	-1067
970.952	-384
971.037	-1052
971.122	-1196
971.208	-777
971.293	-972
971.378	-961
971.463	-832
971.549	-196
971.634	-465
971.719	-1247
971.804	-596
971.889	-327
971.974	-999
972.059	-632
972.144	-738
972.229	-185
972.314	-1262
972.399	-921
972.484	-951
972.569	-774
972.654	-838
972.739	-393
972.824	-1147
972.908	-1150
972.993	-730
973.078	-677
973.163	-825
973.247	-125
973.332	-2496
973.417	218
973.501	-1603
973.586	-697
973.671	-587
973.755	-1316
973.840	-321
973.924	-1392
974.009	-1058
974.093	-1124
974.178	211
974.262	-1003
974.346	-941
974.431	-358
974.515	-448
974.600	-1258
974.684	-484
974.768	-404
974.852	416
974.937	-1564
975.021	-340
975.105	-1197
975.189	-658
975.273	-79
975.358	-1667
975.442	-1653
975.526	18
975.610	-1061
975.694	-1503
975.778	-399
975.862	-1033
975.946	-2009
976.030	798
976.114	-1083
976.198	-178
976.281	-1521
976.365	-756
976.449	-939
976.533	-1149
976.617	-852
976.700	-839
976.784	-610
976.868	-1495
976.951	-641
977.035	-1377
977.119	-1299
977.202	-893
977.286	-717
977.369	-1088
977.453	-338
977.536	-1515
977.620	-1115
977.703	205
977.787	-1482
977.870	-650
977.953	-424
978.037	-1668
978.120	-703
978.203	-1304
978.287	-1965
978.370	-1219
978.453	-756
978.536	-1041
978.620	-267
978.703	-820
978.786	-964
978.869	-1112
978.952	-2372
979.035	491
979.118	-610
979.201	-1380
979.284	-319
979.367	-1037
979.450	-645
979.533	-1972
979.616	-1187
979.699	-618
979.782	-1105
979.865	-181
979.948	-1617
980.030	-1605
980.113	-671
980.196	-1291
980.279	-388
980.361	-1059
980.444	-534
980.526	-1337
980.609	-605
980.692	-938
980.774	98
980.857	-2472
980.939	-150
981.022	-1283
981.104	-792
981.187	-1300
981.269	49
981.352	-746
981.434	-1698
981.516	-1706
981.599	-205
981.681	-755
981.763	-491
981.846	-1551
981.928	-1750
982.010	-913
982.092	-447
982.174	-289
982.256	-1059
982.339	-980
982.421	-1384
982.503	-1017
982.585	-1495
982.667	-1224
982.749	-926
982.831	-1168
982.913	-1546
982.995	-453
983.077	-1896
983.158	291
983.240	-1706
983.322	-984
983.404	-633
983.486	-1550
983.568	-1415
983.649	-1151
983.731	-505
983.813	-1519
983.894	-604
983.976	-854
984.058	-800
984.139	-470
984.221	-1947
984.302	-797
984.384	-1475
984.465	-2821
984.547	-1013
984.628	-1806
984.710	-356
984.791	-1082
984.872	-1536
984.954	-1582
985.035	-1115
985.116	-1665
985.198	-1626
985.279	15
985.360	-1695
985.441	-1655
985.522	-1045
985.604	-1379
985.685	-2655
985.766	-368
985.847	149
985.928	-2197
986.009	-295
986.090	-1512
986.171	-75
986.252	-1345
986.333	-378
986.414	-964
986.495	-1309
986.576	-1158
986.656	-1222
986.737	-1249
986.818	-1401
986.899	-1732
986.980	-720
987.060	193
987.141	-1690
987.222	-1120
987.302	-616
987.383	-829
987.464	-902
987.544	-1000
987.625	-1788
987.705	-631
987.786	-801
987.866	-1298
987.947	-1256
988.027	-1341
988.108	-1244
988.188	-292
988.268	-1244
988.349	-901
988.429	-1424
988.509	-725
988.589	-1609
988.670	-2481
988.750	549
988.830	-1109
988.910	-1194
988.990	-1471
989.070	-1401
989.151	-1032
989.231	-940
989.311	-127
989.391	-1129
989.471	-1330
989.551	-1615
989.631	-1331
989.711	-1185
989.791	-527
989.870	-1510
989.950	-193
990.030	-1595
990.110	-444
990.190	-1302
990.269	-1142
990.349	-1774
990.429	-1040
990.509	-1558
990.588	-1591
990.668	-485
990.747	-841
990.827	-1024
990.907	-733
990.986	-1413
991.066	-1153
991.145	-1079
991.225	-303
991.304	-964
991.383	-991
991.463	-1379
991.542	-611
991.622	-1039
991.701	-1329
991.780	-1212
991.859	-1129
991.939	-1087
992.018	-246
992.097	-910
992.176	-691
992.256	-1238
992.335	-1944
992.414	-897
992.493	-1718
992.572	-1667
992.651	-663
992.730	-1440
992.809	-630
992.888	-1386
992.967	-1671
993.046	-891
993.125	-1455
993.203	-1312
993.282	-716
993.361	-244
993.440	-1205
993.519	-1715
993.597	-537
993.676	-1540
993.755	-1289
993.834	-1681
993.912	-1497
993.991	-80
994.069	-1465
994.148	-1630
994.226	-1171
994.305	-1507
994.384	-2065
994.462	-1066
994.540	-2058
994.619	-1087
994.697	-954
994.776	-1855
994.854	-822
994.932	-2175
995.011	-1290
995.089	-1751
995.167	-1546
995.245	-1341
995.324	-1226
995.402	-559
995.480	-1189
995.558	-1248
995.636	-2214
995.714	-1591
995.792	-417
995.870	-1355
995.948	-1250
996.026	-882
996.104	-1444
996.182	-1221
996.260	-764
996.338	-1208
996.416	-2143
996.494	-1493
996.572	-132
996.649	-1207
996.727	-1474
996.805	-1161
996.883	-1532
996.960	-1429
997.038	-834
997.116	-719
997.193	-1269
997.271	142
997.348	-2288
997.426	-84
997.504	-1194
997.581	-375
997.658	-478
997.736	-2167
997.813	-1802
997.891	-845
997.968	-1313
998.046	-832
998.123	-1211
998.200	-1355
998.277	-2459
998.355	-568
998.432	-1586
998.509	-587
998.586	-1184
998.663	-911
998.741	-1632
998.818	-2421
998.895	-1577
998.972	-1290
999.049	-1492
999.126	-747
999.203	-885
999.280	-1773
999.357	-1889
999.434	-875
999.511	-1954
999.587	-807
999.664	-1859
999.741	30
999.818	-1611
999.895	-1460
999.971	-1462
1000.048	-561
1000.125	-850
1000.202	-1496
1000.278	-859
1000.355	-1105
1000.431	-2002
1000.508	-1741
1000.584	-1271
1000.661	-1072
1000.738	-1382
1000.814	-2020
1000.890	-1304
1000.967	-1051
1001.043	-485
1001.120	-1640
1001.196	-1656
1001.272	-1672
1001.349	-1417
1001.425	-1148
1001.501	-1791
1001.577	-2287
1001.654	-853
1001.730	-1616
1001.806	-1243
1001.882	-1930
1001.958	-777
1002.034	-1421
1002.110	-2065
1002.186	-1716
1002.262	-691
1002.338	-1958
1002.414	-1008
1002.490	-643
1002.566	-1683
1002.642	-1599
1002.718	-552
1002.794	-1326
1002.870	-1562
1002.945	-2035
1003.021	-1280
1003.097	-1450
1003.173	-1538
1003.248	-1354
1003.324	-1290
1003.400	-907
1003.475	-2367
1003.551	-1315
1003.626	-1470
1003.702	-1926
1003.777	-1306
1003.853	-2099
1003.928	-2145
1004.004	-763
1004.079	-1037
1004.155	-1770
1004.230	-1932
1004.305	-1145
1004.381	-2120
1004.456	-1131
1004.531	-1510
1004.607	-1481
1004.682	-1719
1004.757	-2130
1004.832	-1780
1004.907	-1734
1004.982	-1145
1005.057	-1935
1005.133	-1732
1005.208	-1771
1005.283	-1800
1005.358	-941
1005.433	-2536
1005.508	-1081
1005.583	-2292
1005.657	-2055
1005.732	-1155
1005.807	-1211
1005.882	-1422
1005.957	-1732
1006.032	-791
1006.106	-2007
1006.181	-1504
1006.256	-1195
1006.331	-1219
1006.405	-1638
1006.480	-1432
1006.554	-741
1006.629	-676
1006.704	-1161
1006.778	-1967
1006.853	-1072
1006.927	-1096
1007.002	-1853
1007.076	-1290
1007.150	-1917
1007.225	-1352
1007.299	-1219
1007.373	-1819
1007.448	-1551
1007.522	-1418
1007.596	-1751
1007.671	-985
1007.745	-857
1007.819	-2063
1007.893	-1656
1007.967	-1379
1008.041	-1750
1008.115	-1026
1008.190	-1868
1008.264	-1491
1008.338	-2167
1008.412	-2313
1008.486	-1256
1008.560	-1730
1008.633	-1992
1008.707	-1253
1008.781	-1317
1008.855	-2132
1008.929	-1937
1009.003	-1585
1009.076	-1349
1009.150	-1742
1009.224	-860
1009.298	-765
1009.371	-1171
1009.445	-1193
1009.519	-1997
1009.592	-2345
1009.666	-1587
1009.739	-1365
1009.813	-1491
1009.886	-472
1009.960	-2459
1010.033	-1414
1010.107	-1277
1010.180	-1662
1010.253	-1743
1010.327	-2146
1010.400	-2049
1010.473	-969
1010.547	-658
1010.620	-2195
1010.693	-1493
1010.766	-2002
1010.840	-433
1010.913	-1363
1010.986	-1967
1011.059	-1650
1011.132	-1246
1011.205	447
1011.278	-990
1011.351	-969
1011.424	-1108
1011.497	-1778
1011.570	-1054
1011.643	-1752
1011.716	-1805
1011.789	-770
1011.862	-1483
1011.934	-1092
1012.007	-2497
1012.080	-1717
1012.153	-1870
1012.225	-1363
1012.298	-1730
1012.371	-1111
1012.443	-1432
1012.516	-1397
1012.588	-1211
1012.661	-1142
1012.733	-1829
1012.806	-907
1012.879	-1998
1012.951	-1104
1013.023	-1661
1013.096	-1189
1013.168	-1467
1013.241	-1509
1013.313	-1555
1013.385	-2155
1013.458	-755
1013.530	-1110
1013.602	-2309
1013.674	-1395
1013.746	-2102
1013.819	-991
1013.891	-755
1013.963	-1370
1014.035	-1337
1014.107	-2234
1014.179	-2328
1014.251	-1697
1014.323	-1350
1014.395	-1685
1014.467	-1514
1014.539	-702
1014.611	-1712
1014.683	-2092
1014.754	-1843
1014.826	-1975
1014.898	-1354
1014.970	-2189
1015.042	-820
1015.113	-1202
1015.185	-1542
1015.257	-1831
1015.328	-700
1015.400	-2171
1015.471	-1294
1015.543	-1477
1015.615	-882
1015.686	-1334
1015.757	-1918
1015.829	-1221
1015.901	-1604
1015.972	-1410
1016.043	-2065
1016.115	-1511
1016.186	-1617
1016.257	-1575
1016.328	-913
1016.400	-1666
1016.471	-2052
1016.542	-1203
1016.613	-1969
1016.685	-1703
1016.756	-1269
1016.827	-1842
1016.898	-2736
1016.969	-990
1017.040	-1851
1017.111	-2118
1017.182	-1785
1017.253	-901
1017.324	-755
1017.395	-1858
1017.466	-962
1017.537	-1095
1017.608	-1498
1017.678	-1848
1017.749	-2051
1017.820	-1381
1017.891	-1350
1017.961	-2408
1018.032	-1227
1018.103	-1079
1018.173	-1377
1018.244	-1344
1018.315	-1018
1018.385	-916
1018.456	-1383
1018.526	-2294
1018.597	-1155
1018.667	-1481
1018.738	-2027
1018.808	-1857
1018.878	-1869
1018.949	-1690
1019.019	-1905
1019.089	-1647
1019.160	-958
1019.230	-2243
1019.300	-1472
1019.371	-1862
1019.441	-936
1019.511	-1470
1019.581	-548
1019.651	-1590
1019.721	-1351
1019.791	-722
1019.861	-1305
1019.931	-1502
1020.001	-1387
1020.071	-1805
1020.141	-1377
1020.211	-1287
1020.281	-1523
1020.351	-1821
1020.421	-1140
1020.491	-1322
1020.560	-1536
1020.630	-1901
1020.700	-1220
1020.770	-1845
1020.839	-1077
1020.909	-1471
1020.979	-1451
1021.048	-1389
1021.118	-978
1021.187	-2203
1021.257	-1933
1021.326	-1547
1021.396	-1193
1021.465	-570
1021.535	-1445
1021.604	-2289
1021.674	-1395
1021.743	-1119
1021.812	-1798
1021.882	-1365
1021.951	-2279
1022.020	-1440
1022.089	-1001
1022.159	-1764
1022.228	-1476
1022.297	-1334
1022.366	-1036
1022.435	-1370
1022.504	-1376
1022.573	-1965
1022.642	-1471
1022.711	-1513
1022.781	-682
1022.849	-1536
1022.918	-1712
1022.987	-658
1023.056	-1658
1023.125	-2153
1023.194	-1483
1023.263	-1867
1023.331	-1473
1023.400	-1819
1023.469	-1614
1023.538	-1791
1023.606	-1482
1023.675	-1680
1023.744	-2016
1023.812	-1756
1023.881	-1610
1023.949	-1365
1024.018	-1410
1024.086	-1938
1024.155	-1303
1024.223	-1288
1024.292	-1765
1024.360	-624
1024.429	-945
1024.497	-1789
1024.565	-1074
1024.634	-2326
1024.702	-1267
1024.770	-1814
1024.838	-1900
1024.907	-1733
1024.975	-1655
1025.043	-269
1025.111	-1535
1025.179	-1411
1025.247	-1137
1025.315	-1469
1025.383	-1606
1025.451	-2146
1025.519	-1490
1025.587	-1023
1025.655	-1692
1025.723	-2041
1025.791	-613
1025.859	-1954
1025.927	-955
1025.995	-1185
1026.062	-1338
1026.130	-2166
1026.198	-1398
1026.266	-1795
1026.333	-1702
1026.401	-1081
1026.469	-1177
1026.536	-1572
1026.604	-1274
1026.671	-1387
1026.739	-1358
1026.806	-1873
1026.874	-1415
1026.941	-1318
1027.009	-1795
1027.076	-1284
1027.144	-992
1027.211	-1758
1027.278	-1588
1027.345	-1187
1027.413	-1910
1027.480	-2391
1027.547	-1462
1027.614	-2196
1027.682	-615
1027.749	-1496
1027.816	-482
1027.883	-1588
1027.950	-1650
1028.017	-1375
1028.084	-1183
1028.151	-2057
1028.218	-1302
1028.285	-1120
1028.352	-1752
1028.419	-1673
1028.486	-2320
1028.553	-1898
1028.619	-1244
1028.686	-1320
1028.753	-1414
1028.820	-1564
1028.886	-2280
1028.953	-1468
1029.020	-1275
1029.086	-1555
1029.153	-1732
1029.220	-1655
1029.286	-1412
1029.353	-598
1029.419	-1634
1029.486	-1382
1029.552	-1707
1029.619	-1564
1029.685	-1939
1029.751	-1262
1029.818	-1331
1029.884	-1480
1029.951	-1012
1030.017	-1311
1030.083	-1391
1030.149	-1173
1030.216	-1282
1030.282	-813
1030.348	-716
1030.414	-1639
1030.480	-1157
1030.546	-2030
1030.612	-894
1030.678	-937
1030.744	-1115
1030.810	-1297
1030.876	-1237
1030.942	-1949
1031.008	-1229
1031.074	-1755
1031.140	-1387
1031.206	-1166
1031.272	-1835
1031.337	-1524
1031.403	-1544
1031.469	-1481
1031.534	-1267
1031.600	-1378
1031.666	-1933
1031.731	-1581
1031.797	-1861
1031.863	-1694
1031.928	-2018
1031.994	-2117
1032.059	-1471
1032.125	-989
1032.190	-2161
1032.256	-1564
1032.321	-1932
1032.386	-1641
1032.452	-1148
1032.517	-1517
1032.582	-1028
1032.647	-1224
1032.713	-1448
1032.778	-1654
1032.843	-1492
1032.908	-797
1032.974	-1937
1033.039	-1975
1033.104	-1812
1033.169	-1553
1033.234	-1747
1033.299	-1550
1033.364	-1889
1033.429	-1581
1033.494	-1749
1033.559	-2398
1033.624	-1144
1033.688	-1140
1033.753	-1847
1033.818	-1591
1033.883	-1144
1033.948	-1794
1034.013	-1585
1034.077	-1293
1034.142	-1437
1034.207	-1369
1034.271	-1398
1034.336	-742
1034.400	-1369
1034.465	-1816
1034.530	-1289
1034.594	-1947
1034.658	-1868
1034.723	-1943
1034.787	-1498
1034.852	-1747
1034.916	-1355
1034.981	-1210
1035.045	-1239
1035.109	-1638
1035.173	-465
1035.238	-2470
1035.302	-1912
1035.366	-1784
1035.430	-1322
1035.495	-1978
1035.559	-1201
1035.623	-1719
1035.687	-1999
1035.751	-2556
1035.815	-1136
1035.879	-1865
1035.943	-1711
1036.007	-1997
1036.071	-1890
1036.135	-1577
1036.198	-921
1036.262	-2588
1036.326	-1540
1036.390	-1313
1036.454	-1188
1036.517	-1724
1036.581	-1415
1036.645	-964
1036.709	-1170
1036.772	-1596
1036.836	-1396
1036.900	-1317
1036.963	-2301
1037.026	-1242
1037.090	-1895
1037.154	-964
1037.217	-1303
1037.280	-2245
1037.344	-1773
1037.407	-1054
1037.471	-951
1037.534	-1577
1037.597	-1824
1037.661	-1779
1037.724	-1781
1037.787	-2353
1037.850	-2212
1037.913	-1781
1037.977	-958
1038.040	-2117
1038.103	-1734
1038.166	-1896
1038.229	-1542
1038.292	-1436
1038.355	-2209
1038.418	-1463
1038.481	-1286
1038.544	-2030
1038.607	-1671
1038.670	-1689
1038.732	-1485
1038.795	-1646
1038.858	-1910
1038.921	-473
1038.984	-1684
1039.046	-1485
1039.109	-1820
1039.172	-1630
1039.234	-1339
1039.297	-2117
1039.360	-1747
1039.422	-1172
1039.485	-1827
1039.547	-2157
1039.610	-1553
1039.672	-2031
1039.734	-2199
1039.797	-1790
1039.859	-1844
1039.922	-1894
1039.984	-958
1040.046	-1928
1040.109	-1699
1040.171	-1828
1040.233	-1483
1040.295	-2003
1040.358	-1850
1040.420	-1640
1040.482	-1829
1040.544	-1579
1040.606	-2152
1040.668	-1770
1040.730	-1313
1040.792	-1904
1040.854	-1744
1040.916	-1461
1040.978	-539
1041.040	-1197
1041.102	-2206
1041.164	-1866
1041.225	-1729
1041.287	-2102
1041.349	-2356
1041.411	-1215
1041.472	-1121
1041.534	-1549
1041.596	-3053
1041.657	-1029
1041.719	-1696
1041.781	-1864
1041.842	-1644
1041.904	-2062
1041.965	-1780
1042.027	-1724
1042.088	-2076
1042.150	-1921
1042.211	-1818
1042.272	-1447
1042.334	-1415
1042.395	-1828
1042.456	-2105
1042.518	-1850
1042.579	-1702
1042.640	-1735
1042.701	-1392
1042.763	-1903
1042.824	-1161
1042.885	-1780
1042.946	-1710
1043.007	-2103
1043.068	-1543
1043.129	-2142
1043.190	-1409
1043.251	-1677
1043.312	-2066
1043.373	-1841
1043.434	-1992
1043.495	-2002
1043.556	-1176
1043.616	-1878
1043.677	-1490
1043.738	-1209
1043.799	-1968
1043.859	-1536
1043.920	-2210
1043.981	-1851
1044.041	-1124
1044.102	-1978
1044.162	-1670
1044.223	-1753
1044.284	-1777
1044.344	-1587
1044.405	-1573
1044.465	-1613
1044.525	-1640
1044.586	-1645
1044.646	-1682
1044.707	-1989
1044.767	-2017
1044.827	-1591
1044.887	-1821
1044.948	-955
1045.008	-1816
1045.068	-1688
1045.128	-1028
1045.188	-969
1045.249	-1051
1045.309	-1356
1045.369	-1198
1045.429	-1315
1045.489	-1713
1045.549	-2560
1045.609	-1987
1045.669	-2344
1045.729	-1958
1045.789	-1225
1045.848	-1229
1045.908	-767
1045.968	-1081
1046.028	-1886
1046.088	-1518
1046.147	-1020
1046.207	-1322
1046.267	-973
1046.326	-1081
1046.386	-1130
1046.446	-369
1046.505	-1016
1046.565	-309
1046.624	-973
1046.684	-221
1046.743	-61
1046.803	-507
1046.862	91
1046.922	0
