'Start Wavelength	183.907
'End Wavelength	1046.922
'Gate Delay	5.000
'Gate Width (ms)	1.050
'Laser Output Level	0.000
'X Position	0.000
'Y Position	0.000
'Z Position	0.000
'Grid Point Number	1.000
'Shot Number	100.000
183.907	-65.000
183.977	-262.000
184.047	-452
184.116	399
184.186	-31
184.256	-111
184.325	62
184.395	-62
184.465	660
184.534	545
184.604	-108
184.674	-63
184.743	-289
184.813	554
184.883	447
184.952	-366
185.022	-450
185.092	468
185.161	-16
185.231	880
185.301	946
185.370	387
185.440	-164
185.509	241
185.579	253
185.649	129
185.718	189
185.788	442
185.857	429
185.927	-318
185.996	-35
186.066	772
186.136	-352
186.205	-234
186.275	234
186.344	-51
186.414	-68
186.483	-68
186.553	554
186.622	1176
186.692	426
186.761	-489
186.831	580
186.900	126
186.970	810
187.039	882
187.109	1588
187.178	-142
187.248	948
187.317	726
187.387	-68
187.456	1132
187.526	991
187.595	534
187.664	378
187.734	-484
187.803	158
187.873	166
187.942	634
188.012	533
188.081	621
188.150	1105
188.220	648
188.289	738
188.358	-204
188.428	161
188.497	229
188.567	1035
188.636	562
188.705	1023
188.775	288
188.844	-9
188.913	980
188.983	281
189.052	291
189.121	-373
189.191	652
189.260	1696
189.329	2068
189.399	1541
189.468	1262
189.537	752
189.606	677
189.676	592
189.745	149
189.814	986
189.883	589
189.953	1320
190.022	2755
190.091	9450
190.161	15281
190.230	4975
190.299	1071
190.368	1356
190.437	889
190.507	604
190.576	1148
190.645	694
190.714	687
190.783	614
190.853	565
190.922	120
190.991	582
191.060	417
191.129	-410
191.198	525
191.268	907
191.337	740
191.406	825
191.475	114
191.544	-229
191.613	268
191.682	-157
191.752	37
191.821	175
191.890	1086
191.959	408
192.028	576
192.097	286
192.166	708
192.235	-405
192.304	75
192.373	-253
192.442	-260
192.511	242
192.580	151
192.650	110
192.719	114
192.788	1134
192.857	347
192.926	-140
192.995	474
193.064	2039
193.133	618
193.202	869
193.271	1139
193.340	1271
193.409	574
193.478	699
193.547	1426
193.615	544
193.684	1343
193.753	749
193.822	954
193.891	911
193.960	446
194.029	737
194.098	699
194.167	218
194.236	1031
194.305	369
194.374	-32
194.443	52
194.512	757
194.580	204
194.649	1605
194.718	1137
194.787	971
194.856	-73
194.925	818
194.994	48
195.062	898
195.131	214
195.200	613
195.269	537
195.338	-127
195.407	1238
195.475	1426
195.544	1339
195.613	345
195.682	338
195.751	165
195.819	-14
195.888	1387
195.957	521
196.026	667
196.094	398
196.163	1148
196.232	782
196.301	900
196.369	586
196.438	294
196.507	-533
196.576	576
196.644	254
196.713	906
196.782	257
196.850	956
196.919	1199
196.988	1054
197.056	-272
197.125	348
197.194	992
197.262	1549
197.331	1089
197.400	1164
197.468	1066
197.537	782
197.606	1841
197.674	3368
197.743	14015
197.812	5193
197.880	12996
197.949	8755
198.017	10263
198.086	8307
198.155	2522
198.223	4130
198.292	14723
198.360	6789
198.429	2699
198.497	3056
198.566	7620
198.635	15192
198.703	4688
198.772	4498
198.840	16759
198.909	20525
198.977	4297
199.046	2300
199.114	1697
199.183	2439
199.251	983
199.320	1545
199.388	380
199.457	493
199.525	514
199.594	974
199.662	247
199.731	1166
199.799	872
199.867	1428
199.936	395
200.004	1400
200.073	1113
200.141	1088
200.210	334
200.278	605
200.346	833
200.415	264
200.483	1015
200.552	1496
200.620	394
200.688	751
200.757	729
200.825	775
200.893	307
200.962	777
201.030	883
201.098	311
201.167	832
201.235	631
201.303	298
201.372	866
201.440	805
201.508	645
201.577	565
201.645	1448
201.713	268
201.781	371
201.850	369
201.918	909
201.986	280
202.055	1450
202.123	-92
202.191	743
202.259	-19
202.327	664
202.396	628
202.464	1011
202.532	584
202.600	1159
202.669	909
202.737	669
202.805	393
202.873	527
202.941	666
203.009	330
203.078	547
203.146	938
203.214	-79
203.282	263
203.350	1605
203.418	764
203.487	1189
203.555	1024
203.623	1079
203.691	952
203.759	643
203.827	857
203.895	563
203.963	819
204.031	650
204.099	948
204.168	1232
204.236	1600
204.304	932
204.372	401
204.440	567
204.508	294
204.576	356
204.644	437
204.712	885
204.780	621
204.848	425
204.916	588
204.984	1064
205.052	1730
205.120	727
205.188	1266
205.256	873
205.324	1905
205.392	2045
205.460	2211
205.528	3559
205.596	2564
205.664	1595
205.732	3283
205.799	15474
205.867	29932
205.935	6503
206.003	3907
206.071	2627
206.139	3873
206.207	2513
206.275	1880
206.343	876
206.411	2056
206.478	1313
206.546	2292
206.614	2075
206.682	923
206.750	1401
206.818	1707
206.885	749
206.953	977
207.021	1348
207.089	2456
207.157	1302
207.225	2057
207.292	1824
207.360	1572
207.428	2098
207.496	1236
207.563	1153
207.631	1435
207.699	76
207.767	1268
207.834	895
207.902	1654
207.970	1157
208.038	1047
208.105	1299
208.173	3155
208.241	5053
208.309	3003
208.376	1770
208.444	6541
208.512	5207
208.579	1410
208.647	2465
208.715	1930
208.782	2074
208.850	1931
208.918	399
208.985	1747
209.053	1115
209.120	1644
209.188	1028
209.256	2180
209.323	1164
209.391	649
209.459	2067
209.526	1727
209.594	1845
209.661	1343
209.729	1934
209.796	1937
209.864	1273
209.932	785
209.999	2218
210.067	1949
210.134	1706
210.202	2682
210.269	3076
210.337	2391
210.404	2267
210.472	2268
210.539	1482
210.607	1398
210.674	2175
210.742	2382
210.809	1234
210.877	1772
210.944	2549
211.012	1248
211.079	2744
211.146	2431
211.214	2357
211.281	2241
211.349	1384
211.416	3204
211.484	3095
211.551	3179
211.618	2791
211.686	3373
211.753	2405
211.821	3164
211.888	2533
211.955	2829
212.023	3273
212.090	3664
212.157	4547
212.225	5063
212.292	14664
212.359	32664
212.427	101103
212.494	44589
212.561	12684
212.629	8107
212.696	5169
212.763	5288
212.831	3405
212.898	4082
212.965	2762
213.032	2752
213.100	2379
213.167	2711
213.234	3126
213.301	2986
213.369	2926
213.436	2789
213.503	2279
213.570	3178
213.638	2136
213.705	2661
213.772	862
213.839	1818
213.906	2692
213.973	2858
214.041	1688
214.108	2567
214.175	2390
214.242	2245
214.309	3164
214.376	2512
214.444	1554
214.511	2220
214.578	1721
214.645	2924
214.712	2618
214.779	2834
214.846	2127
214.913	3646
214.980	2767
215.048	2727
215.115	3263
215.182	3113
215.249	2076
215.316	1913
215.383	2883
215.450	2443
215.517	1610
215.584	1984
215.651	1960
215.718	1714
215.785	2575
215.852	2097
215.919	2367
215.986	2453
216.053	2851
216.120	2013
216.187	2272
216.254	3460
216.321	2887
216.388	3581
216.455	3503
216.522	3193
216.589	2713
216.656	2369
216.722	3121
216.789	3837
216.856	3052
216.923	3382
216.990	2605
217.057	2740
217.124	2939
217.191	1949
217.258	2647
217.324	3462
217.391	3995
217.458	3825
217.525	3164
217.592	3017
217.659	2935
217.725	4772
217.792	3778
217.859	4670
217.926	2725
217.993	2919
218.059	2744
218.126	2453
218.193	2436
218.260	2671
218.327	2751
218.393	2682
218.460	2824
218.527	2853
218.594	2839
218.660	2275
218.727	3413
218.794	2458
218.860	3252
218.927	2457
218.994	2764
219.061	2397
219.127	1948
219.194	2357
219.261	2815
219.327	2476
219.394	3281
219.461	2096
219.527	1938
219.594	2585
219.661	1479
219.727	2506
219.794	3822
219.860	3611
219.927	3343
219.994	3287
220.060	2487
220.127	3214
220.193	3772
220.260	2774
220.326	3859
220.393	4537
220.460	5720
220.526	5270
220.593	3387
220.659	6486
220.726	7522
220.792	33449
220.859	20426
220.925	9756
220.992	11334
221.058	31325
221.125	49259
221.191	39567
221.258	12219
221.324	6825
221.391	5271
221.457	5130
221.524	5218
221.590	11194
221.657	52097
221.723	38280
221.789	30977
221.856	28298
221.922	14480
221.989	7788
222.055	5816
222.121	3993
222.188	6014
222.254	3951
222.321	3768
222.387	3961
222.453	3341
222.520	3958
222.586	3105
222.652	3972
222.719	3504
222.785	4451
222.851	3406
222.918	3354
222.984	3451
223.050	3404
223.116	1811
223.183	3863
223.249	2483
223.315	3066
223.382	2998
223.448	3180
223.514	1626
223.580	2620
223.647	2736
223.713	3266
223.779	3141
223.845	3286
223.911	3164
223.978	2599
224.044	3496
224.110	2670
224.176	3082
224.242	2963
224.309	2460
224.375	2945
224.441	2822
224.507	2367
224.573	2167
224.639	3603
224.705	2119
224.772	3206
224.838	2537
224.904	3418
224.970	1912
225.036	2877
225.102	2360
225.168	2235
225.234	2961
225.300	2577
225.366	2772
225.432	2581
225.499	1766
225.565	2505
225.631	3283
225.697	3574
225.763	4894
225.829	3766
225.895	4659
225.961	8094
226.027	6360
226.093	4354
226.159	5562
226.225	5108
226.291	8304
226.357	14462
226.423	8006
226.489	5285
226.554	4326
226.620	4566
226.686	3974
226.752	4320
226.818	7161
226.884	18909
226.950	18579
227.016	6852
227.082	4734
227.148	3885
227.214	3661
227.279	3744
227.345	2693
227.411	3523
227.477	2700
227.543	2560
227.609	2244
227.674	3215
227.740	2434
227.806	4079
227.872	5698
227.938	3588
228.003	3232
228.069	3113
228.135	3401
228.201	3037
228.267	2263
228.332	2534
228.398	1857
228.464	3084
228.530	1963
228.595	3851
228.661	1449
228.727	2305
228.792	4152
228.858	2825
228.924	3426
228.990	8450
229.055	4733
229.121	6718
229.187	3362
229.252	2682
229.318	2811
229.384	2625
229.449	2925
229.515	1766
229.581	2323
229.646	3658
229.712	3292
229.777	2716
229.843	2512
229.909	4764
229.974	4945
230.040	4957
230.105	5807
230.171	6329
230.236	11391
230.302	23719
230.368	14039
230.433	9233
230.499	7250
230.564	6443
230.630	4260
230.695	4908
230.761	4693
230.826	3072
230.892	6001
230.957	3400
231.023	3454
231.088	4308
231.154	2924
231.219	4192
231.284	3356
231.350	4951
231.415	3065
231.481	3556
231.546	3559
231.612	3377
231.677	2834
231.742	2507
231.808	4570
231.873	3527
231.939	945
232.004	4583
232.069	3967
232.135	3563
232.200	3088
232.265	3779
232.331	3059
232.396	2596
232.461	3324
232.527	3200
232.592	2216
232.657	2947
232.723	3142
232.788	3452
232.853	3799
232.918	3171
232.984	3048
233.049	3547
233.114	2230
233.179	3379
233.245	3801
233.310	2802
233.375	2388
233.440	3390
233.506	4514
233.571	5269
233.636	3249
233.701	3039
233.766	3112
233.832	2729
233.897	2153
233.962	2296
234.027	3402
234.092	2454
234.157	2112
234.222	1619
234.288	2920
234.353	4830
234.418	5042
234.483	5691
234.548	5195
234.613	4286
234.678	4550
234.743	4059
234.808	6873
234.873	4314
234.938	5760
235.004	4022
235.069	4321
235.134	3784
235.199	3735
235.264	3881
235.329	2108
235.394	5075
235.459	4523
235.524	3028
235.589	3816
235.654	4030
235.719	2668
235.784	4863
235.849	3637
235.913	3772
235.978	4385
236.043	4129
236.108	4007
236.173	2303
236.238	3795
236.303	3333
236.368	3501
236.433	4688
236.498	4293
236.563	5041
236.627	8119
236.692	28385
236.757	22970
236.822	8389
236.887	6338
236.952	6519
237.017	4871
237.081	6650
237.146	5682
237.211	10874
237.276	28301
237.341	52125
237.405	17276
237.470	8371
237.535	5921
237.600	6089
237.664	4912
237.729	3939
237.794	4570
237.859	7080
237.923	4576
237.988	4091
238.053	4691
238.118	3763
238.182	8303
238.247	9209
238.312	3531
238.376	4940
238.441	2470
238.506	5075
238.570	2959
238.635	4082
238.700	3249
238.764	3370
238.829	5310
238.893	3825
238.958	4370
239.023	4030
239.087	3523
239.152	4289
239.216	3025
239.281	3521
239.346	3883
239.410	3708
239.475	3295
239.539	6500
239.604	5032
239.668	4363
239.733	3190
239.797	3940
239.862	3389
239.926	4449
239.991	3271
240.055	3431
240.120	2740
240.184	4152
240.249	2338
240.313	2185
240.378	1488
240.442	3443
240.507	5558
240.571	3358
240.635	2671
240.700	4247
240.764	2348
240.829	2626
240.893	1724
240.957	2666
241.022	3742
241.086	5855
241.151	2186
241.215	1533
241.279	3818
241.344	2804
241.408	5275
241.472	4731
241.537	6191
241.601	5500
241.665	5007
241.730	5656
241.794	5584
241.858	5326
241.922	5985
241.987	6191
242.051	5014
242.115	4050
242.179	5022
242.244	5546
242.308	5949
242.372	4699
242.436	4712
242.501	5266
242.565	4424
242.629	4636
242.693	5161
242.757	4091
242.822	4878
242.886	4552
242.950	6025
243.014	4754
243.078	5270
243.142	4812
243.206	5346
243.271	7268
243.335	9043
243.399	18692
243.463	81922
243.527	240836
243.591	76329
243.655	24053
243.719	13669
243.783	13490
243.847	22886
243.911	31402
243.975	11361
244.040	7037
244.104	7169
244.168	6520
244.232	5628
244.296	12078
244.360	26004
244.424	8441
244.488	5550
244.552	6104
244.615	3796
244.679	5403
244.743	3693
244.807	3719
244.871	3858
244.935	5136
244.999	3475
245.063	4374
245.127	5825
245.191	16814
245.255	17939
245.319	5900
245.383	3271
245.446	5128
245.510	2959
245.574	3216
245.638	3235
245.702	2418
245.766	3672
245.829	4242
245.893	3356
245.957	3595
246.021	4445
246.085	3844
246.149	4105
246.212	5382
246.276	4727
246.340	3676
246.404	3408
246.467	5213
246.531	1943
246.595	5112
246.659	4875
246.722	3796
246.786	4061
246.850	3668
246.913	3179
246.977	3736
247.041	3511
247.104	3734
247.168	3782
247.232	3852
247.295	5958
247.359	5142
247.423	4133
247.486	3981
247.550	4762
247.614	2812
247.677	3279
247.741	3780
247.804	3824
247.868	5375
247.932	3217
247.995	7053
248.059	3990
248.122	3622
248.186	5327
248.249	5908
248.313	14509
248.376	14528
248.440	6503
248.503	3706
248.567	6086
248.630	4892
248.694	6566
248.757	9861
248.821	18503
248.884	12840
248.948	8994
249.011	11814
249.075	16500
249.138	14507
249.202	9580
249.265	8285
249.328	10119
249.392	7764
249.455	9101
249.519	9116
249.582	8166
249.645	9115
249.709	9105
249.772	9340
249.835	9515
249.899	10492
249.962	10766
250.025	10450
250.089	11158
250.152	12588
250.215	11957
250.279	11033
250.342	13083
250.405	13606
250.468	14314
250.532	20984
250.595	41992
250.658	203710
250.721	377592
250.785	104603
250.848	45254
250.911	29970
250.974	26132
251.038	23495
251.101	23855
251.164	21215
251.227	23398
251.290	29080
251.354	59970
251.417	293858
251.480	313722
251.543	192253
251.606	569145
251.669	439922
251.732	137461
251.795	81024
251.859	101047
251.922	341902
251.985	196320
252.048	60291
252.111	39246
252.174	30478
252.237	32124
252.300	48645
252.363	126649
252.426	403466
252.489	152617
252.552	52434
252.615	35187
252.678	32642
252.741	46097
252.804	138767
252.867	439222
252.930	167618
252.993	54545
253.056	34793
253.119	26462
253.182	27206
253.245	71423
253.308	44482
253.371	17648
253.434	14287
253.497	12474
253.559	12709
253.622	9445
253.685	9148
253.748	8723
253.811	7803
253.874	8650
253.937	7424
254.000	7403
254.062	7266
254.125	7841
254.188	8007
254.251	6258
254.314	5966
254.376	5202
254.439	5178
254.502	5440
254.565	5416
254.628	6866
254.690	4745
254.753	4248
254.816	3175
254.878	3878
254.941	6378
255.004	4928
255.067	4055
255.129	3096
255.192	3693
255.255	2308
255.317	3106
255.380	2528
255.443	2913
255.505	2173
255.568	1751
255.631	2972
255.693	3506
255.756	2465
255.819	3435
255.881	2616
255.944	3421
256.006	3278
256.069	2696
256.132	2702
256.194	2316
256.257	3711
256.319	4161
256.382	3885
256.444	5398
256.507	5002
256.569	3818
256.632	4169
256.694	4539
256.757	13215
256.819	39346
256.882	22349
256.944	11058
257.007	6759
257.069	5476
257.132	4590
257.194	5426
257.257	4050
257.319	3943
257.381	4269
257.444	10171
257.506	46503
257.569	42949
257.631	12321
257.693	8976
257.756	8399
257.818	5032
257.880	3833
257.943	4570
258.005	3307
258.067	3348
258.130	3519
258.192	4002
258.254	3128
258.317	3960
258.379	3395
258.441	3976
258.503	4944
258.566	5500
258.628	6508
258.690	3726
258.753	4011
258.815	4602
258.877	4112
258.939	4845
259.001	4492
259.064	4362
259.126	3294
259.188	4446
259.250	3855
259.312	4244
259.375	4861
259.437	4192
259.499	3955
259.561	3020
259.623	4216
259.685	2902
259.747	3899
259.809	5575
259.872	7180
259.934	12948
259.996	10676
260.058	4773
260.120	3071
260.182	3571
260.244	3050
260.306	2019
260.368	3734
260.430	2087
260.492	3061
260.554	4825
260.616	3307
260.678	4781
260.740	6477
260.802	3514
260.864	3347
260.926	3186
260.988	4346
261.050	2554
261.112	2143
261.174	7144
261.236	6692
261.298	3614
261.359	3973
261.421	5838
261.483	2099
261.545	4358
261.607	2295
261.669	3599
261.731	3707
261.793	5132
261.854	1992
261.916	3966
261.978	2262
262.040	2925
262.102	3804
262.164	2506
262.225	2734
262.287	2908
262.349	1952
262.411	2290
262.472	3019
262.534	2541
262.596	4592
262.658	4068
262.719	2391
262.781	4065
262.843	4455
262.904	4688
262.966	6741
263.028	14637
263.090	78599
263.151	276552
263.213	77973
263.275	20808
263.336	13156
263.398	10084
263.459	6540
263.521	5605
263.583	4723
263.644	3773
263.706	2648
263.767	2537
263.829	3159
263.891	2302
263.952	1776
264.014	1736
264.075	1998
264.137	2232
264.198	2333
264.260	1270
264.321	1492
264.383	2887
264.444	1507
264.506	1772
264.567	2794
264.629	3762
264.690	1290
264.752	2152
264.813	2556
264.875	2064
264.936	3331
264.998	2424
265.059	2123
265.120	2895
265.182	3196
265.243	11411
265.305	12845
265.366	4738
265.427	2998
265.489	3041
265.550	1453
265.611	1631
265.673	1602
265.734	1431
265.795	1677
265.857	1859
265.918	2497
265.979	5320
266.040	24430
266.102	19781
266.163	4724
266.224	3057
266.286	2239
266.347	1645
266.408	1097
266.469	2291
266.530	1154
266.592	1275
266.653	1118
266.714	1455
266.775	1897
266.836	1381
266.898	1205
266.959	2238
267.020	1823
267.081	3607
267.142	2414
267.203	1394
267.264	1290
267.326	2740
267.387	1267
267.448	1285
267.509	1834
267.570	1610
267.631	1952
267.692	1360
267.753	2128
267.814	621
267.875	1973
267.936	2337
267.997	1635
268.058	2384
268.119	2030
268.180	1826
268.241	1126
268.302	1752
268.363	1550
268.424	1829
268.485	1872
268.546	1330
268.607	2027
268.668	1547
268.729	1613
268.790	1516
268.851	1810
268.912	1612
268.972	1913
269.033	1903
269.094	2148
269.155	1888
269.216	1769
269.277	2004
269.338	1370
269.398	1902
269.459	2107
269.520	3080
269.581	2678
269.642	2629
269.702	2020
269.763	2058
269.824	1874
269.885	2745
269.945	1886
270.006	1430
270.067	2069
270.128	2646
270.188	1585
270.249	1892
270.310	1867
270.370	2230
270.431	1768
270.492	2122
270.553	1382
270.613	2025
270.674	2766
270.734	1454
270.795	1779
270.856	1683
270.916	1142
270.977	2403
271.038	1954
271.098	1597
271.159	1149
271.219	1850
271.280	2468
271.340	2373
271.401	904
271.462	2183
271.522	1761
271.583	2188
271.643	1721
271.704	2294
271.764	1380
271.825	2600
271.885	7164
271.946	11400
272.006	3358
272.066	4813
272.127	7374
272.187	2900
272.248	1884
272.308	1771
272.369	3573
272.429	3262
272.489	1316
272.550	1857
272.610	1449
272.671	1363
272.731	2140
272.791	1892
272.852	858
272.912	1773
272.972	1398
273.033	1904
273.093	1556
273.153	2136
273.214	1492
273.274	1197
273.334	2644
273.394	3920
273.455	1560
273.515	1843
273.575	1911
273.635	2480
273.696	2377
273.756	4027
273.816	1279
273.876	2003
273.936	3081
273.997	5166
274.057	1413
274.117	862
274.177	1307
274.237	3960
274.297	4276
274.358	3277
274.418	2543
274.478	2155
274.538	1594
274.598	1734
274.658	3626
274.718	4287
274.778	1587
274.838	1370
274.898	2185
274.958	5979
275.018	4660
275.078	3425
275.138	1311
275.198	1299
275.258	1506
275.318	1338
275.378	512
275.438	910
275.498	1243
275.558	3130
275.618	5640
275.678	2681
275.738	1529
275.798	1064
275.858	1429
275.918	1112
275.978	1371
276.038	806
276.098	919
276.157	613
276.217	2014
276.277	1693
276.337	1376
276.397	1009
276.457	1390
276.517	1230
276.576	299
276.636	468
276.696	647
276.756	1315
276.815	301
276.875	773
276.935	610
276.995	1037
277.055	1187
277.114	1475
277.174	472
277.234	1772
277.293	555
277.353	672
277.413	741
277.472	759
277.532	712
277.592	1805
277.651	983
277.711	1064
277.771	295
277.830	2023
277.890	1546
277.950	1419
278.009	3891
278.069	2089
278.128	1553
278.188	2289
278.248	1647
278.307	2375
278.367	1774
278.426	724
278.486	1651
278.545	1158
278.605	1434
278.664	1557
278.724	1343
278.783	1721
278.843	3652
278.902	2181
278.962	1082
279.021	1235
279.081	1662
279.140	2101
279.199	1166
279.259	1583
279.318	3506
279.378	3426
279.437	4368
279.496	13973
279.556	77938
279.615	68549
279.675	12587
279.734	6674
279.793	6288
279.853	8341
279.912	3392
279.971	2653
280.031	2449
280.090	2984
280.149	4347
280.208	6033
280.268	41075
280.327	46658
280.386	8337
280.445	4446
280.505	2985
280.564	2742
280.623	2259
280.682	2919
280.742	2411
280.801	1682
280.860	906
280.919	1070
280.978	1668
281.037	1753
281.097	739
281.156	2077
281.215	2172
281.274	1888
281.333	2208
281.392	1445
281.451	1156
281.510	1333
281.569	1415
281.628	1698
281.688	1362
281.747	1408
281.806	1425
281.865	1640
281.924	737
281.983	711
282.042	407
282.101	1338
282.160	875
282.219	1272
282.278	920
282.337	584
282.396	1425
282.454	1090
282.513	571
282.572	1352
282.631	1537
282.690	654
282.749	520
282.808	1210
282.867	1036
282.926	1493
282.985	493
283.043	1044
283.102	993
283.161	1167
283.220	887
283.279	2415
283.338	1459
283.396	542
283.455	942
283.514	1424
283.573	1240
283.631	1686
283.690	1223
283.749	711
283.808	1475
283.866	2050
283.925	39
283.984	1942
284.043	348
284.101	834
284.160	788
284.219	1674
284.277	785
284.336	1349
284.395	1318
284.453	2031
284.512	1069
284.570	1937
284.629	868
284.688	910
284.746	1307
284.805	1540
284.863	1092
284.922	2193
284.981	1559
285.039	2502
285.098	4883
285.156	12756
285.215	77780
285.273	79246
285.332	15746
285.390	7906
285.449	5554
285.507	4921
285.566	3183
285.624	2614
285.683	2890
285.741	1795
285.799	1856
285.858	1404
285.916	1761
285.975	2140
286.033	1738
286.091	2581
286.150	1548
286.208	2633
286.267	2011
286.325	2385
286.383	2164
286.442	2898
286.500	1534
286.558	2684
286.616	3184
286.675	3031
286.733	1962
286.791	2378
286.850	3729
286.908	3673
286.966	2593
287.024	3703
287.083	3122
287.141	3333
287.199	4030
287.257	3983
287.315	4168
287.374	4607
287.432	4702
287.490	5976
287.548	5168
287.606	5890
287.664	6325
287.723	7280
287.781	8559
287.839	10221
287.897	13590
287.955	22604
288.013	47272
288.071	116623
288.129	414438
288.187	1151604
288.245	575685
288.303	179281
288.361	96381
288.419	65729
288.477	45073
288.535	34086
288.593	23969
288.651	17476
288.709	12967
288.767	9377
288.825	7709
288.883	7225
288.941	6357
288.999	5469
289.057	5529
289.115	3837
289.173	4176
289.231	4602
289.289	3721
289.346	4860
289.404	3650
289.462	3721
289.520	3458
289.578	3306
289.636	2391
289.694	3085
289.751	2420
289.809	2324
289.867	2384
289.925	3744
289.983	2699
290.040	2287
290.098	1933
290.156	1873
290.214	1674
290.271	1559
290.329	1712
290.387	2425
290.444	345
290.502	1816
290.560	2018
290.617	1571
290.675	1010
290.733	311
290.790	1384
290.848	1627
290.906	1230
290.963	784
291.021	252
291.078	1200
291.136	311
291.194	869
291.251	1241
291.309	492
291.366	125
291.424	681
291.481	243
291.539	819
291.596	531
291.654	332
291.711	700
291.769	1099
291.826	745
291.884	685
291.941	-108
291.999	628
292.056	-93
292.114	-458
292.171	-279
292.228	609
292.286	215
292.343	75
292.401	27
292.458	218
292.515	29
292.573	82
292.630	436
292.687	-187
292.745	507
292.802	765
292.859	704
292.917	934
292.974	861
293.031	287
293.089	-419
293.146	-6
293.203	563
293.260	676
293.318	426
293.375	1425
293.432	-511
293.489	649
293.546	-559
293.604	821
293.661	1020
293.718	3430
293.775	1420
293.832	928
293.889	-146
293.947	231
294.004	327
294.061	532
294.118	757
294.175	214
294.232	386
294.289	292
294.346	-229
294.403	644
294.460	356
294.517	38
294.574	204
294.631	61
294.688	145
294.745	1134
294.802	3202
294.859	2409
294.916	1303
294.973	608
295.030	191
295.087	273
295.144	0
295.201	624
295.258	715
295.315	649
295.372	1156
295.429	1632
295.486	680
295.542	866
295.599	965
295.656	997
295.713	190
295.770	1520
295.827	44
295.883	26
295.940	173
295.997	267
296.054	-557
296.111	445
296.167	953
296.224	219
296.281	-560
296.338	261
296.394	648
296.451	-106
296.508	-24
296.564	966
296.621	1326
296.678	3850
296.734	7675
296.791	1961
296.848	1257
296.904	778
296.961	928
297.018	4266
297.074	6325
297.131	2391
297.187	1245
297.244	1446
297.301	3279
297.357	5771
297.414	1878
297.470	655
297.527	1
297.583	311
297.640	279
297.696	437
297.753	-233
297.809	431
297.866	302
297.922	483
297.979	-381
298.035	-162
298.092	413
298.148	1260
298.204	515
298.261	-68
298.317	1691
298.374	4974
298.430	2471
298.486	1750
298.543	1078
298.599	3305
298.656	7646
298.712	21561
298.768	97682
298.824	99748
298.881	27182
298.937	9821
298.993	6704
299.050	3813
299.106	3177
299.162	1943
299.218	2476
299.275	717
299.331	984
299.387	1816
299.443	3929
299.500	4104
299.556	1245
299.612	416
299.668	481
299.724	506
299.780	170
299.837	453
299.893	-102
299.949	1774
300.005	1471
300.061	1591
300.117	4753
300.173	2170
300.229	546
300.285	372
300.341	422
300.397	-148
300.453	-803
300.510	-7
300.566	-555
300.622	179
300.678	-198
300.734	1387
300.790	1315
300.845	2240
300.901	177
300.957	1546
301.013	478
301.069	505
301.125	370
301.181	11
301.237	30
301.293	-470
301.349	-33
301.405	-526
301.461	-487
301.516	652
301.572	-368
301.628	-139
301.684	-1085
301.740	-440
301.796	59
301.851	337
301.907	861
301.963	2687
302.019	5728
302.074	19855
302.130	20194
302.186	8478
302.242	2140
302.297	1515
302.353	1420
302.409	830
302.464	1191
302.520	507
302.576	2192
302.631	2507
302.687	145
302.743	608
302.798	158
302.854	-231
302.910	479
302.965	-17
303.021	244
303.076	815
303.132	195
303.187	-115
303.243	-255
303.299	449
303.354	333
303.410	91
303.465	-1299
303.521	184
303.576	-558
303.632	303
303.687	578
303.743	3150
303.798	2914
303.853	839
303.909	-682
303.964	-377
304.020	-43
304.075	-57
304.130	267
304.186	348
304.241	1215
304.297	-31
304.352	-694
304.358	-608
304.407	88
304.449	-112
304.463	-178
304.518	72
304.539	77
304.573	60
304.629	565
304.630	558
304.684	330
304.720	1169
304.739	1592
304.794	4171
304.811	3424
304.850	1608
304.902	529
304.905	464
304.960	698
304.992	493
305.015	304
305.071	943
305.083	751
305.126	59
305.173	-179
305.181	-201
305.236	475
305.264	381
305.292	253
305.347	785
305.354	632
305.402	-293
305.445	631
305.457	881
305.512	1164
305.535	712
305.567	58
305.622	419
305.626	437
305.678	936
305.716	2705
305.733	3408
305.788	3352
305.807	2952
305.843	2179
305.897	2588
305.898	2595
305.953	3728
305.988	2686
306.008	2013
306.063	1042
306.078	775
306.118	259
306.168	303
306.173	295
306.228	-141
306.259	511
306.283	1055
306.338	638
306.349	730
306.393	1184
306.440	1383
306.448	1395
306.503	1760
306.530	1376
306.558	1112
306.613	2008
306.620	2013
306.668	1803
306.711	1686
306.723	1615
306.778	1492
306.801	1345
306.833	1403
306.888	1050
306.892	1037
306.943	713
306.982	973
306.997	1046
307.052	957
307.072	780
307.107	613
307.162	1120
307.163	1119
307.217	1282
307.253	1500
307.272	1496
307.327	733
307.343	720
307.381	915
307.434	1023
307.436	1042
307.491	1860
307.524	2144
307.546	2162
307.600	2469
307.614	2303
307.655	1651
307.704	1596
307.710	1674
307.765	1307
307.795	1805
307.819	1912
307.874	2712
307.885	2686
307.929	3393
307.975	4846
307.984	5364
308.038	10513
308.065	14783
308.093	29562
308.148	67730
308.156	78578
308.202	123945
308.246	153630
308.257	154149
308.312	69297
308.336	42470
308.366	24437
308.421	11794
308.426	11294
308.475	8286
308.517	6538
308.530	6030
308.585	4913
308.607	4373
308.639	4152
308.694	4503
308.697	4532
308.748	4482
308.787	4765
308.803	4693
308.857	4128
308.877	3905
308.912	4017
308.967	4471
308.967	4492
309.021	7234
309.058	9829
309.076	14056
309.130	31477
309.148	38978
309.185	93937
309.238	198704
309.239	198876
309.293	228530
309.328	176991
309.348	145532
309.402	53947
309.418	36246
309.457	20269
309.508	11482
309.511	11053
309.566	8875
309.598	7524
309.620	6749
309.674	5776
309.688	5616
309.729	4861
309.778	3859
309.783	3763
309.837	2624
309.868	2602
309.892	2633
309.946	2511
309.959	2634
310.001	2988
310.049	2858
310.055	2815
310.109	2617
310.139	2414
310.163	1981
310.218	1314
310.229	1149
310.272	1316
310.319	1547
310.326	1495
310.381	1030
310.409	895
310.435	978
310.489	1121
310.499	1155
310.543	1326
310.589	1354
310.598	1315
310.652	1356
310.679	1161
310.706	1042
310.760	1118
310.769	1100
310.814	1280
310.859	1666
310.868	1639
310.923	1011
310.948	929
310.977	1107
311.031	1186
311.038	1237
311.085	1499
311.128	1358
311.139	1348
311.193	1571
311.218	1653
311.247	1691
311.301	1668
311.308	1663
311.356	1348
311.398	1048
311.410	1009
311.464	815
311.488	735
311.518	995
311.572	1425
311.578	1467
311.626	1175
311.668	989
311.680	1054
311.734	1261
311.758	1349
311.788	1080
311.842	620
311.847	570
311.896	973
311.937	1326
311.950	1253
312.004	940
312.027	801
312.058	1200
312.112	1907
312.117	1973
312.165	1455
312.207	1006
312.297	1246
312.386	1308
312.476	1456
312.566	510
312.656	1285
312.745	454
312.835	988
312.925	1105
313.015	1575
313.104	1213
313.194	858
313.284	904
313.374	1177
313.463	1127
313.553	1161
313.643	904
313.732	1160
313.822	437
313.912	1452
314.001	614
314.091	1493
314.180	237
314.270	1137
314.360	1049
314.449	940
314.539	139
314.628	523
314.718	871
314.808	1188
314.897	759
314.987	767
315.076	180
315.166	787
315.255	1342
315.345	1330
315.434	746
315.524	1527
315.613	1490
315.703	2183
315.792	4321
315.881	13562
315.971	4489
316.060	1764
316.150	1664
316.239	1405
316.328	865
316.418	1243
316.507	1115
316.597	1202
316.686	1102
316.775	875
316.865	1147
316.954	1824
317.043	1281
317.133	586
317.222	756
317.311	1010
317.400	-68
317.490	2091
317.579	1389
317.668	865
317.757	2425
317.847	7136
317.936	23681
318.025	7791
318.114	4031
318.203	2674
318.293	1038
318.382	679
318.471	1341
318.560	943
318.649	1188
318.738	1308
318.828	218
318.917	540
319.006	511
319.095	1589
319.184	911
319.273	1713
319.362	793
319.451	875
319.540	910
319.629	953
319.718	753
319.807	1167
319.896	1173
319.985	2850
320.074	1616
320.163	1273
320.252	632
320.341	1290
320.430	682
320.519	787
320.608	488
320.697	909
320.786	552
320.875	1696
320.964	1034
321.053	799
321.142	1286
321.230	1748
321.319	1609
321.408	1296
321.497	1216
321.586	1736
321.675	1175
321.764	1027
321.852	1379
321.941	1235
322.030	208
322.119	124
322.207	1143
322.296	1914
322.385	1382
322.474	1229
322.562	1217
322.651	1869
322.740	1718
322.829	2102
322.917	1162
323.006	1075
323.095	479
323.183	1282
323.272	607
323.361	2330
323.449	5485
323.538	1449
323.626	2760
323.715	2617
323.804	550
323.892	2070
323.981	1190
324.069	1923
324.158	1639
324.246	2224
324.335	1027
324.424	812
324.512	256
324.601	667
324.689	1790
324.778	2629
324.866	1556
324.954	937
325.043	502
325.131	254
325.220	1815
325.308	1447
325.397	1624
325.485	918
325.574	755
325.662	74
325.750	550
325.839	886
325.927	918
326.015	927
326.104	924
326.192	1786
326.280	359
326.369	901
326.457	321
326.545	392
326.634	435
326.722	393
326.810	412
326.898	837
326.987	736
327.075	82
327.163	1359
327.251	535
327.340	1147
327.428	1361
327.516	263
327.604	694
327.692	751
327.781	695
327.869	437
327.957	203
328.045	125
328.133	954
328.221	211
328.309	321
328.397	316
328.485	841
328.574	1071
328.662	688
328.750	655
328.838	676
328.926	1054
329.014	1534
329.102	1045
329.190	1259
329.278	6
329.366	1180
329.454	-553
329.542	315
329.630	683
329.718	792
329.806	-240
329.893	1380
329.981	265
330.069	1271
330.157	7125
330.245	11720
330.333	4207
330.421	1100
330.509	711
330.597	1404
330.684	789
330.772	1091
330.860	603
330.948	979
331.036	198
331.123	721
331.211	-177
331.299	689
331.387	-339
331.475	1165
331.562	496
331.650	503
331.738	214
331.825	1195
331.913	366
332.001	211
332.089	-118
332.176	913
332.264	833
332.352	659
332.439	720
332.527	909
332.614	312
332.702	660
332.790	386
332.877	1196
332.965	768
333.052	324
333.140	-63
333.228	265
333.315	223
333.403	742
333.490	1518
333.578	890
333.665	530
333.753	1701
333.840	-192
333.928	431
334.015	2046
334.103	1747
334.190	2561
334.278	701
334.365	366
334.452	326
334.540	388
334.627	1344
334.715	840
334.802	984
334.889	6275
334.977	6342
335.064	1168
335.151	577
335.239	1464
335.326	1099
335.413	590
335.501	1013
335.588	245
335.675	155
335.762	1163
335.850	817
335.937	1024
336.024	2935
336.111	5883
336.199	2369
336.286	744
336.373	1141
336.460	580
336.547	1382
336.635	795
336.722	398
336.809	222
336.896	200
336.983	863
337.070	2002
337.157	1871
337.245	2531
337.332	1704
337.419	599
337.506	-29
337.593	787
337.680	463
337.767	1012
337.854	404
337.941	428
338.028	303
338.115	567
338.202	758
338.289	736
338.376	2098
338.463	826
338.550	575
338.637	358
338.724	495
338.811	1247
338.898	132
338.984	1052
339.071	360
339.158	546
339.245	495
339.332	1242
339.419	741
339.506	1255
339.593	-149
339.679	853
339.766	-310
339.853	-79
339.940	-54
340.027	451
340.113	485
340.200	791
340.287	614
340.374	772
340.460	370
340.547	-806
340.634	960
340.720	1544
340.807	91
340.894	179
340.980	-344
341.067	258
341.154	528
341.240	272
341.327	954
341.414	802
341.500	-234
341.587	464
341.674	524
341.760	652
341.847	170
341.933	325
342.020	345
342.106	363
342.193	412
342.279	339
342.366	232
342.452	274
342.539	-269
342.625	638
342.712	964
342.798	449
342.885	-561
342.971	-47
343.058	-240
343.144	-154
343.230	261
343.317	1150
343.403	93
343.490	288
343.576	347
343.662	-114
343.749	533
343.835	615
343.921	380
344.008	5853
344.094	7780
344.180	1232
344.267	656
344.353	640
344.439	911
344.525	1482
344.612	2281
344.698	1048
344.784	178
344.870	167
344.957	556
345.043	933
345.129	-705
345.215	-62
345.301	684
345.387	33
345.474	148
345.560	-601
345.646	-450
345.732	-182
345.818	-27
345.904	-106
345.990	148
346.076	462
346.162	386
346.249	240
346.335	358
346.421	628
346.507	1040
346.593	2117
346.679	-589
346.765	446
346.851	-301
346.937	-209
347.023	859
347.108	-70
347.194	120
347.280	268
347.366	373
347.452	799
347.538	1194
347.624	2644
347.710	783
347.796	74
347.882	105
347.967	633
348.053	-95
348.139	356
348.225	549
348.311	-506
348.397	205
348.482	811
348.568	-520
348.654	-514
348.740	-165
348.825	-1412
348.911	1326
348.997	1747
349.083	1486
349.168	-459
349.254	-168
349.340	97
349.425	563
349.511	-1
349.597	-61
349.682	-746
349.768	910
349.854	490
349.939	368
350.025	865
350.110	1113
350.196	171
350.282	-946
350.367	674
350.453	449
350.538	265
350.624	-283
350.709	582
350.795	-325
350.880	-68
350.966	1005
351.051	779
351.137	472
351.222	-69
351.308	353
351.393	839
351.479	-243
351.564	-709
351.649	160
351.735	595
351.820	151
351.906	85
351.991	-702
352.076	665
352.162	1052
352.247	147
352.332	231
352.418	-571
352.503	478
352.588	1629
352.673	569
352.759	611
352.844	-106
352.929	728
353.014	-467
353.100	648
353.185	837
353.270	439
353.355	1123
353.441	254
353.526	58
353.611	434
353.696	-55
353.781	657
353.866	-124
353.952	428
354.037	-770
354.122	1307
354.207	-69
354.292	981
354.377	-56
354.462	650
354.547	269
354.632	957
354.717	974
354.802	487
354.887	-379
354.972	50
355.057	-36
355.142	-292
355.227	152
355.312	645
355.397	-146
355.482	1091
355.567	306
355.652	1303
355.737	-273
355.822	1355
355.907	96
355.991	1269
356.076	-618
356.161	843
356.246	-76
356.331	433
356.416	71
356.501	4241
356.585	1569
356.670	206
356.755	1281
356.840	1040
356.924	3966
357.009	8683
357.094	3083
357.179	-249
357.263	-751
357.348	335
357.433	-296
357.517	375
357.602	-453
357.687	325
357.771	876
357.856	132
357.941	848
358.025	5887
358.110	15730
358.195	5303
358.279	-405
358.364	613
358.448	325
358.533	1749
358.617	563
358.702	1385
358.787	441
358.871	570
358.956	-82
359.040	-813
359.125	-15
359.209	-366
359.294	-236
359.378	-424
359.462	95
359.547	727
359.631	-726
359.716	-687
359.800	-14
359.885	147
359.969	-573
360.053	117
360.138	-645
360.222	-109
360.306	-333
360.391	-202
360.475	-297
360.559	-526
360.644	289
360.728	-407
360.812	1850
360.896	3728
360.981	614
361.065	-238
361.149	124
361.233	-159
361.318	-660
361.402	-443
361.486	335
361.570	-64
361.654	-690
361.739	493
361.823	3137
361.907	5433
361.991	-367
362.075	-780
362.159	-1021
362.243	223
362.327	-1047
362.411	991
362.495	-580
362.580	-150
362.664	165
362.748	-119
362.832	460
362.916	-616
363.000	1927
363.084	4907
363.168	3729
363.252	747
363.336	-137
363.420	-248
363.503	224
363.587	-110
363.671	-130
363.755	-1033
363.839	251
363.923	-1031
364.007	-537
364.091	26
364.175	-1324
364.258	2422
364.342	-70
364.426	2981
364.510	-1425
364.594	1063
364.677	1561
364.761	3019
364.845	1287
364.929	-707
365.013	-20
365.096	66
365.180	-117
365.264	567
365.347	1190
365.431	507
365.515	-423
365.598	-1461
365.682	1134
365.766	-441
365.849	-435
365.933	-859
366.017	304
366.100	-637
366.184	-1279
366.267	407
366.351	-472
366.435	63
366.518	-555
366.602	-1072
366.685	-277
366.769	-312
366.852	82
366.936	-59
367.019	-225
367.103	-999
367.186	377
367.270	-674
367.353	-1129
367.436	863
367.520	-1118
367.603	-116
367.687	-1581
367.770	-89
367.853	362
367.937	1044
368.020	165
368.104	-851
368.187	540
368.270	42
368.353	-353
368.437	-164
368.520	1589
368.603	729
368.687	581
368.770	1096
368.853	-40
368.936	571
369.020	-281
369.103	-469
369.186	-459
369.269	-924
369.352	11
369.436	-579
369.519	41
369.602	-1431
369.685	685
369.768	-1497
369.851	-409
369.934	-523
370.018	-1287
370.101	-2057
370.184	1757
370.267	602
370.350	-222
370.433	118
370.516	1542
370.599	3977
370.682	-492
370.765	1738
370.848	1994
370.931	347
371.014	1233
371.097	-1633
371.180	223
371.263	-98
371.346	-988
371.429	676
371.511	-1149
371.594	-884
371.677	309
371.760	346
371.843	1127
371.926	8404
372.009	12709
372.091	3887
372.174	98
372.257	1831
372.340	-671
372.423	-373
372.505	237
372.588	-916
372.671	800
372.754	1197
372.836	138
372.919	741
373.002	115
373.085	-885
373.167	102
373.250	-17
373.332	1746
373.415	9122
373.498	13514
373.580	5667
373.663	12150
373.746	10747
373.828	1100
373.911	944
373.993	-1229
374.076	304
374.159	-187
374.241	701
374.324	743
374.406	1261
374.489	3666
374.571	6792
374.654	1059
374.736	1021
374.819	4127
374.901	10071
374.983	5846
375.066	886
375.148	-516
375.231	-126
375.313	400
375.395	-451
375.478	-575
375.560	1007
375.643	106
375.725	1748
375.807	5001
375.890	5100
375.972	32
376.054	626
376.136	1226
376.219	508
376.301	1986
376.383	2461
376.465	291
376.548	389
376.630	866
376.712	2626
376.794	268
376.877	503
376.959	-394
377.041	-522
377.123	-1047
377.205	-517
377.287	-456
377.369	527
377.452	-26
377.534	741
377.616	-107
377.698	-484
377.780	-1703
377.862	21
377.944	315
378.026	-550
378.108	-87
378.190	-411
378.272	-504
378.354	-385
378.436	-366
378.518	-299
378.600	-226
378.682	369
378.764	-229
378.846	670
378.928	-567
379.010	-1023
379.091	-23
379.173	-348
379.255	-978
379.337	-63
379.419	-717
379.501	1536
379.583	-239
379.664	-908
379.746	-1156
379.828	2013
379.910	-49
379.991	1032
380.073	-865
380.155	8
380.237	-258
380.318	-131
380.400	-716
380.482	621
380.564	21
380.645	-232
380.727	-533
380.809	518
380.890	-1648
380.972	-1407
381.053	-180
381.135	346
381.217	-746
381.298	870
381.380	161
381.461	779
381.543	2363
381.624	2324
381.706	460
381.787	142
381.869	805
381.951	3019
382.032	9143
382.113	5400
382.195	-1137
382.276	951
382.358	-115
382.439	2326
382.521	4959
382.602	6297
382.684	2135
382.765	2838
382.846	1233
382.928	2732
383.009	580
383.090	860
383.172	2858
383.253	5637
383.334	1888
383.416	3865
383.497	1574
383.578	273
383.659	-18
383.741	2715
383.822	8468
383.903	3109
383.984	1049
384.066	4630
384.147	1540
384.228	763
384.309	-395
384.390	266
384.471	0
384.553	-59
384.634	-25
384.715	1043
384.796	-561
384.877	-891
384.958	1079
385.039	-307
385.120	557
385.201	925
385.282	986
385.363	1227
385.444	850
385.525	3735
385.606	8534
385.687	4569
385.768	713
385.849	656
385.930	7180
386.011	8478
386.092	710
386.173	1176
386.254	3786
386.335	2782
386.416	164
386.496	-247
386.577	837
386.658	382
386.739	-1201
386.820	1172
386.901	-531
386.981	612
387.062	132
387.143	-152
387.224	-468
387.304	981
387.385	1074
387.466	-1413
387.547	273
387.627	-540
387.708	750
387.789	2743
387.869	1905
387.950	1636
388.031	-671
388.111	-1484
388.192	1017
388.273	1779
388.353	190
388.434	112
388.514	631
388.595	3517
388.676	1730
388.756	865
388.837	1677
388.917	483
388.998	-1303
389.078	1025
389.159	825
389.239	115
389.320	1849
389.400	-1050
389.480	508
389.561	-486
389.641	558
389.722	220
389.802	-813
389.883	523
389.963	1686
390.043	876
390.124	123
390.204	1209
390.284	2489
390.365	5951
390.445	50445
390.525	228752
390.605	166221
390.686	18233
390.766	3501
390.846	2610
390.927	779
391.007	136
391.087	451
391.167	829
391.247	-660
391.328	1253
391.408	895
391.488	882
391.568	-1082
391.648	-119
391.728	463
391.808	1333
391.888	-151
391.969	517
392.049	-780
392.129	724
392.209	205
392.289	1775
392.369	111
392.449	380
392.529	596
392.609	1587
392.689	749
392.769	1911
392.849	1366
392.929	2550
393.009	2787
393.089	3018
393.169	10345
393.248	76094
393.328	431316
393.408	405684
393.488	53924
393.568	8195
393.648	2923
393.728	1732
393.807	1182
393.887	1757
393.967	1933
394.047	1551
394.127	2256
394.206	8705
394.286	71834
394.366	278622
394.446	198380
394.525	23381
394.605	3380
394.685	3005
394.764	3055
394.844	1058
394.924	462
395.003	847
395.083	967
395.163	517
395.242	1229
395.322	2195
395.402	-494
395.481	2160
395.561	460
395.640	2450
395.720	3038
395.799	2813
395.879	3354
395.958	12182
396.038	100364
396.117	393628
396.197	292794
396.276	38043
396.356	6277
396.435	3669
396.515	2899
396.594	2978
396.673	11344
396.753	90070
396.832	334320
396.912	174817
396.991	16489
397.070	4244
397.150	302
397.229	1871
397.308	1350
397.388	490
397.467	1059
397.546	1111
397.625	-871
397.705	1894
397.784	520
397.863	314
397.942	-257
398.022	103
398.101	-1114
398.180	541
398.259	-469
398.338	1061
398.417	-800
398.497	-209
398.576	457
398.655	-719
398.734	222
398.813	-784
398.892	-388
398.971	408
399.050	-621
399.129	-772
399.208	-307
399.287	535
399.366	-1164
399.445	39
399.524	-606
399.603	-2105
399.682	-916
399.761	-523
399.840	885
399.919	678
399.998	-375
400.077	-1675
400.156	-1992
400.235	1048
400.313	-589
400.392	-569
400.471	-46
400.550	721
400.629	-1606
400.708	320
400.786	-1186
400.865	-398
400.944	-1290
401.023	1634
401.102	-909
401.180	-518
401.259	-778
401.338	-793
401.416	-472
401.495	-1195
401.574	-79
401.652	-996
401.731	-9
401.810	-868
401.888	-563
401.967	-877
402.046	-615
402.124	125
402.203	-1719
402.281	-160
402.360	-828
402.438	-66
402.517	-1954
402.596	-380
402.674	-667
402.753	-290
402.831	-640
402.910	446
402.988	-1027
403.066	-822
403.145	175
403.223	539
403.302	-659
403.380	634
403.459	-443
403.537	-413
403.615	-916
403.694	-1592
403.772	-42
403.850	-1264
403.929	-1243
404.007	-1353
404.085	162
404.164	-1749
404.242	349
404.320	10392
404.398	23190
404.477	8426
404.555	6313
404.633	9145
404.711	13126
404.789	3362
404.868	-1026
404.946	-780
405.024	-336
405.102	-659
405.180	-1427
405.258	-1878
405.336	-143
405.415	-969
405.493	-630
405.571	-272
405.649	-1032
405.727	-1551
405.805	419
405.883	-212
405.961	-1039
406.039	-1592
406.117	-1452
406.195	129
406.273	-552
406.351	2011
406.429	441
406.507	-1197
406.585	-1428
406.663	-648
406.740	-1247
406.818	-1847
406.896	-1442
406.974	276
407.052	-2371
407.130	1064
407.208	869
407.285	203
407.363	-1600
407.441	-213
407.519	-1282
407.596	410
407.674	7371
407.752	27191
407.830	14469
407.907	1138
407.985	-1469
408.063	-653
408.141	-1251
408.218	49
408.296	-1858
408.373	-1203
408.451	-533
408.529	-555
408.606	-935
408.684	-451
408.762	-1455
408.839	-1176
408.917	-1286
408.994	-1078
409.072	-1785
409.149	-730
409.227	-342
409.304	-1140
409.382	-891
409.459	-1073
409.537	-288
409.614	-667
409.692	-1329
409.769	-1304
409.846	-1300
409.924	318
410.001	-2264
410.079	-1404
410.156	193
410.233	163
410.311	1683
410.388	-626
410.465	-491
410.543	-1469
410.620	354
410.697	-511
410.775	-1176
410.852	-2058
410.929	447
411.006	-45
411.083	-1006
411.161	-985
411.238	-503
411.315	-884
411.392	-1013
411.469	22
411.547	-508
411.624	-1525
411.701	-525
411.778	-258
411.855	-1158
411.932	-1117
412.009	-1262
412.086	27
412.163	-1093
412.240	-894
412.317	-965
412.394	-882
412.471	-702
412.548	-762
412.625	-423
412.702	-633
412.779	1339
412.856	1004
412.933	-703
413.010	932
413.087	3189
413.164	971
413.241	225
413.318	-1424
413.395	124
413.471	-998
413.548	-528
413.625	46
413.702	-1431
413.779	-831
413.855	-295
413.932	-1778
414.009	-1319
414.086	-1007
414.162	-271
414.239	-179
414.316	-202
414.393	1659
414.469	-1938
414.546	-79
414.623	-1031
414.699	-485
414.776	-648
414.853	-1208
414.929	-654
415.006	-377
415.082	-636
415.159	-649
415.236	-1359
415.312	28
415.389	-506
415.465	-1155
415.542	-1104
415.618	-1543
415.695	47
415.771	-764
415.848	-1158
415.924	-772
416.000	-792
416.077	462
416.153	-986
416.230	-1083
416.306	-591
416.383	-1281
416.459	-166
416.535	-1347
416.612	-698
416.688	-793
416.764	-1497
416.841	-1565
416.917	-1265
416.993	-852
417.069	-860
417.146	-1112
417.222	71
417.298	-187
417.374	-1069
417.451	12
417.527	-850
417.603	-717
417.679	-1123
417.755	-262
417.831	-1139
417.908	-1087
417.984	-1878
418.060	-1147
418.136	-658
418.212	-800
418.288	-1090
418.364	-153
418.440	-1825
418.516	-147
418.592	-1197
418.668	-873
418.744	-1096
418.820	-745
418.896	-768
418.972	-1323
419.048	-1418
419.124	475
419.200	-1504
419.276	-1106
419.352	-1040
419.428	-66
419.504	-1765
419.579	-1256
419.655	-715
419.731	-480
419.807	-660
419.883	-1290
419.959	-928
420.034	-11
420.110	-212
420.186	-837
420.262	-611
420.337	22
420.413	-1518
420.489	-676
420.565	-24
420.640	-1321
420.716	-708
420.792	-1521
420.867	-168
420.943	-1662
421.019	-1220
421.094	-1938
421.170	-490
421.245	-1302
421.321	-60
421.397	-611
421.472	4539
421.548	12371
421.623	4555
421.699	179
421.774	-1279
421.850	-997
421.925	-533
422.001	-994
422.076	-386
422.152	-813
422.227	-757
422.302	937
422.378	15
422.453	725
422.529	13376
422.604	87502
422.679	151368
422.755	37646
422.830	3179
422.905	594
422.981	-601
423.056	-611
423.131	-540
423.207	-581
423.282	-1083
423.357	-200
423.432	-1061
423.508	-110
423.583	-1547
423.658	-767
423.733	-728
423.808	-170
423.883	-982
423.959	-671
424.034	-1535
424.109	-692
424.184	-1260
424.259	-1665
424.334	-1640
424.409	-1210
424.484	-1324
424.559	-122
424.634	-1430
424.709	-1106
424.784	-195
424.859	42
424.934	-1535
425.009	-700
425.084	-437
425.159	-1353
425.234	-1124
425.309	-1596
425.384	-765
425.459	-815
425.534	-812
425.609	-1265
425.683	-1184
425.758	-760
425.833	-570
425.908	-44
425.983	-2063
426.058	622
426.132	-1218
426.207	-1144
426.282	587
426.357	-1976
426.431	-1234
426.506	-60
426.581	-1300
426.655	-545
426.730	-1146
426.805	-1514
426.879	-279
426.954	-1251
427.029	-965
427.103	845
427.178	725
427.253	-754
427.327	-580
427.402	-1044
427.476	-1616
427.551	-2412
427.625	-1324
427.700	-646
427.774	-1139
427.849	-595
427.923	-1614
427.998	-1612
428.072	-1389
428.147	-1031
428.221	755
428.296	2089
428.370	-753
428.444	-560
428.519	-2103
428.593	-1487
428.667	-1212
428.742	-922
428.816	-997
428.890	989
428.965	1034
429.039	-75
429.113	-1135
429.188	-1710
429.262	-1699
429.336	-958
429.410	-1034
429.485	-1015
429.559	-739
429.633	-1083
429.707	-1067
429.781	-657
429.855	696
429.930	1708
430.004	-1163
430.078	-877
430.152	841
430.226	6204
430.300	4243
430.374	-1473
430.448	-1209
430.522	-1639
430.596	-1243
430.670	414
430.744	1853
430.818	1756
430.892	-471
430.966	-403
431.040	-389
431.114	-1322
431.188	-1382
431.262	-1835
431.336	-1361
431.410	-766
431.484	-1422
431.557	-531
431.631	-2281
431.705	-783
431.779	-1042
431.853	2239
431.927	-397
432.000	-1598
432.074	-856
432.148	-1498
432.222	-1611
432.295	-865
432.369	-1131
432.443	-1449
432.516	-68
432.590	820
432.664	-350
432.737	-1489
432.811	-1138
432.885	-1530
432.958	-1230
433.032	-976
433.106	-1088
433.179	-1034
433.253	-1492
433.326	-1287
433.400	-1784
433.473	-612
433.547	-1531
433.620	-718
433.694	-1452
433.767	-1017
433.841	-2154
433.914	-1973
433.988	-974
434.061	-842
434.134	-1166
434.208	-1205
434.281	-1580
434.355	-1523
434.428	-1101
434.501	-1570
434.575	-1278
434.648	-1810
434.721	-2119
434.795	-1834
434.868	-2139
434.941	-1029
435.014	-1765
435.088	-1244
435.161	-1637
435.234	-1518
435.307	-1319
435.381	-1360
435.454	-975
435.527	-285
435.600	-1310
435.673	-1416
435.746	-1948
435.819	-959
435.892	-1843
435.966	-1585
436.039	-1631
436.112	-1542
436.185	-868
436.258	-757
436.331	-1886
436.404	-1614
436.477	-1364
436.550	-1168
436.623	-836
436.696	-867
436.769	-1245
436.842	-1281
436.915	-1846
436.987	-955
437.060	-1454
437.133	-1262
437.206	-1683
437.279	-577
437.352	-1660
437.425	-1991
437.498	-1374
437.570	-1827
437.643	-1893
437.716	-1271
437.789	-1916
437.861	-1740
437.934	-1289
438.007	-1086
438.080	-990
438.152	-1288
438.225	-1009
438.298	549
438.370	2848
438.443	115
438.516	-1054
438.588	-1824
438.661	-1732
438.734	-804
438.806	-2183
438.879	-989
438.951	-1339
439.024	-1074
439.096	-1566
439.169	-1573
439.241	-1473
439.314	-1251
439.386	-1734
439.459	-1215
439.531	-2079
439.604	-1466
439.676	-927
439.749	-1917
439.821	-1964
439.893	-1585
439.966	-1713
440.038	-1356
440.110	-1310
440.183	-882
440.255	-2690
440.327	-1388
440.400	-960
440.472	99
440.544	-782
440.617	-1585
440.689	-68
440.761	-1478
440.833	-1732
440.905	-1723
440.978	-1670
441.050	-816
441.122	-1065
441.194	-1786
441.266	-1663
441.338	-1292
441.411	-1485
441.483	-556
441.555	-521
441.627	-1126
441.699	-1034
441.771	-1677
441.843	-2001
441.915	-1420
441.987	-1329
442.059	-1161
442.131	-1959
442.203	-649
442.275	-1200
442.347	-866
442.419	-1562
442.491	-241
442.563	381
442.635	-904
442.706	-1187
442.778	-1498
442.850	-1528
442.922	-1075
442.994	-1418
443.066	-1419
443.137	-1814
443.209	-2051
443.281	-1231
443.353	-900
443.425	580
443.496	3138
443.568	2649
443.640	-1116
443.711	-1736
443.783	-746
443.855	-2000
443.926	-1999
443.998	-1954
444.070	-953
444.141	-1468
444.213	-1752
444.285	-949
444.356	-1835
444.428	-1325
444.499	-2032
444.571	-1405
444.642	-1587
444.714	-1030
444.785	-1377
444.857	-1111
444.928	-1592
445.000	-1900
445.071	-833
445.143	-1324
445.214	-1002
445.285	-1629
445.357	-819
445.428	3137
445.500	6431
445.571	2647
445.642	677
445.714	-1172
445.785	-1436
445.856	-2591
445.928	-1303
445.999	-1888
446.070	-1653
446.141	-1449
446.213	-1042
446.284	-1559
446.355	-1254
446.426	-1941
446.497	-1372
446.569	-1848
446.640	-1682
446.711	-2435
446.782	-1460
446.853	-1257
446.924	-1225
446.995	-1162
447.066	-1558
447.138	-1103
447.209	-1160
447.280	-2044
447.351	-1753
447.422	-1681
447.493	-1905
447.564	-1717
447.635	-1574
447.706	-1555
447.777	-1254
447.847	-1743
447.918	-1501
447.989	-2078
448.060	-783
448.131	-2009
448.202	-1507
448.273	-2138
448.344	-1326
448.414	-1412
448.485	-1604
448.556	-1989
448.627	-953
448.698	-681
448.768	-1954
448.839	-1201
448.910	-1962
448.981	-1328
449.051	-1843
449.122	-1385
449.193	-1503
449.263	-1719
449.334	-1437
449.405	-1470
449.475	-1624
449.546	-573
449.616	-1446
449.687	-683
449.758	-1407
449.828	-1810
449.899	-1489
449.969	-2310
450.040	-1624
450.110	-1872
450.181	-625
450.251	-1660
450.322	-847
450.392	-481
450.463	-1291
450.533	-1065
450.604	-2332
450.674	-1846
450.744	-1837
450.815	-1375
450.885	-1238
450.955	-1160
451.026	-1631
451.096	-1945
451.166	-1912
451.237	-1658
451.307	-1076
451.377	-1315
451.447	-2426
451.518	-1290
451.588	-1622
451.658	-1318
451.728	-1291
451.799	-2577
451.869	-1601
451.939	-1783
452.009	-1581
452.079	-2053
452.149	-1117
452.219	-2370
452.289	-1004
452.360	-1554
452.430	-958
452.500	-862
452.570	-1438
452.640	-1268
452.710	-856
452.780	-1574
452.850	-929
452.920	-1678
452.990	-1034
453.060	-1249
453.129	-1467
453.199	-1479
453.269	-1079
453.339	-1182
453.409	-1295
453.479	-545
453.549	-1034
453.619	-1221
453.688	-1570
453.758	-1096
453.828	-1289
453.898	-1592
453.968	-2216
454.037	-847
454.087	-1418
454.107	-1664
454.168	-1525
454.177	-1523
454.247	-1073
454.249	-1078
454.316	-1594
454.330	-1545
454.386	-1427
454.411	-1414
454.456	-1478
454.492	-1435
454.525	-1412
454.574	-924
454.595	-725
454.655	-1785
454.665	-1980
454.734	-1216
454.736	-1196
454.804	-1307
454.817	-1250
454.873	-1122
454.898	-806
454.943	-222
454.979	-628
455.013	-1064
455.060	-738
455.082	-555
455.141	-655
455.152	-69
455.221	6842
455.222	7155
455.291	29886
455.303	38871
455.360	65593
455.384	85132
455.430	94343
455.465	60369
455.499	34900
455.546	11455
455.569	3318
455.627	907
455.638	540
455.707	-426
455.708	-406
455.777	-693
455.789	-700
455.846	-859
455.869	-693
455.916	-380
455.950	-430
455.985	-542
456.031	-482
456.054	-489
456.112	-514
456.124	-487
456.193	-239
456.193	-255
456.262	-289
456.274	-311
456.332	-312
456.355	-488
456.401	-884
456.436	-701
456.470	-560
456.516	-569
456.540	-584
456.597	-447
456.609	-445
456.678	-965
456.678	-979
456.747	-302
456.759	-416
456.817	-881
456.840	-776
456.886	-872
456.920	-747
456.955	-418
457.001	-43
457.024	21
457.082	-467
457.093	-550
457.162	-679
457.163	-666
457.232	-317
457.243	-244
457.301	-81
457.324	-112
457.370	-307
457.405	108
457.439	591
457.485	18
457.508	-297
457.566	-62
457.577	-10
457.646	-149
457.647	-137
457.715	-34
457.727	58
457.784	666
457.808	1015
457.853	1469
457.889	1569
457.922	1455
457.969	1353
457.991	1251
458.050	740
458.060	745
458.129	1994
458.130	2019
458.198	1285
458.211	1238
458.267	721
458.292	301
458.336	12
458.372	130
458.405	527
458.453	937
458.474	1091
458.533	1937
458.543	2085
458.611	3879
458.614	3908
458.680	1433
458.694	1020
458.749	929
458.775	988
458.818	749
458.855	538
458.887	578
458.936	282
458.955	77
459.016	155
459.024	214
459.093	753
459.097	762
459.162	509
459.177	444
459.230	273
459.257	254
459.299	272
459.338	395
459.368	317
459.418	89
459.437	65
459.499	537
459.505	602
459.574	673
459.579	709
459.643	557
459.659	507
459.711	588
459.740	554
459.780	412
459.820	363
459.849	500
459.900	937
459.917	1054
459.981	1246
459.986	1197
460.054	880
460.061	830
460.123	825
460.141	903
460.191	1405
460.222	1500
460.260	1301
460.302	1435
460.328	1670
460.382	1679
460.397	1666
460.462	1885
460.465	2015
460.534	5837
460.543	6234
460.602	20714
460.623	26170
460.671	42635
460.703	55586
460.739	47375
460.783	32360
460.808	23286
460.864	2862
460.876	2318
460.944	1396
460.945	1392
461.013	1782
461.024	1778
461.081	1416
461.104	1497
461.150	1479
461.184	1141
461.218	1125
461.264	1375
461.286	1366
461.345	923
461.355	876
461.423	1107
461.425	1106
461.491	836
461.505	888
461.559	1544
461.585	1725
461.628	1711
461.665	1620
461.696	1600
461.745	1788
461.764	1837
461.825	1602
461.832	1583
461.901	1766
461.905	1790
461.969	1517
461.985	1277
462.037	1487
462.065	1934
462.105	1938
462.145	1827
462.173	2095
462.225	2288
462.241	2104
462.305	1566
462.310	1575
462.378	1982
462.385	1966
462.446	1602
462.465	1618
462.514	1732
462.545	1958
462.582	2336
462.625	2185
462.650	1895
462.705	1703
462.718	1765
462.785	1928
462.786	1923
462.854	1267
462.865	1233
462.922	1584
462.945	1691
462.990	1865
463.025	1963
463.058	2021
463.104	2297
463.126	2134
463.184	1354
463.194	1483
463.262	2201
463.264	2245
463.330	2396
463.344	2333
463.398	2575
463.424	2664
463.466	2221
463.504	1930
463.533	2052
463.583	2192
463.601	2285
463.663	2490
463.669	2445
463.737	1905
463.743	1866
463.805	2403
463.823	2554
463.873	2743
463.903	2885
463.940	3020
463.982	2935
464.008	2657
464.062	2340
464.076	2347
464.142	2341
464.144	2352
464.211	2134
464.221	2157
464.279	2352
464.301	2413
464.347	2189
464.381	2029
464.414	2022
464.461	2096
464.482	2152
464.540	1969
464.550	2002
464.617	2170
464.620	2181
464.685	3197
464.699	3398
464.753	3644
464.779	3739
464.820	4020
464.859	4173
464.888	3852
464.938	3447
464.956	3587
465.018	3882
465.023	3870
465.091	3732
465.098	3708
465.158	3361
465.177	3273
465.226	4015
465.257	4400
465.293	3987
465.336	3461
465.361	3468
465.416	3571
465.428	3731
465.495	4448
465.496	4457
465.563	4311
465.575	4314
465.631	4113
465.654	3984
465.698	3859
465.734	3758
465.765	3921
465.813	4124
465.833	4210
465.893	4354
465.900	4323
465.968	4021
465.972	3991
466.035	3967
466.052	3942
466.102	4160
466.131	4306
466.170	4242
466.210	4064
466.237	4407
466.290	5162
466.304	5011
466.369	4120
466.372	4134
466.439	4328
466.449	4335
466.506	4728
466.528	4906
466.573	5368
466.607	5624
466.641	5800
466.687	6053
466.708	6088
466.766	6104
466.775	6074
466.842	5788
466.845	5757
466.909	5590
466.925	5555
466.977	5832
467.004	5950
467.044	6122
467.083	6267
467.111	6368
467.163	6510
467.178	6598
467.242	6885
467.245	6885
467.312	6581
467.321	6525
467.379	5769
467.400	5478
467.446	6036
467.480	6417
467.559	5675
467.638	5750
467.717	4874
467.796	5286
467.875	5234
467.955	4382
468.034	5492
468.113	5187
468.192	6546
468.271	4357
468.350	4995
468.429	5128
468.508	6200
468.588	4806
468.667	5197
468.746	4003
468.825	4594
468.904	4272
468.983	5030
469.062	5240
469.141	6878
469.220	4575
469.299	4463
469.378	3775
469.456	6886
469.535	5622
469.614	4613
469.693	5027
469.772	5411
469.851	4376
469.930	5413
470.009	4670
470.088	4753
470.166	4197
470.245	4926
470.324	4958
470.403	5178
470.482	4704
470.560	4765
470.639	4880
470.718	4484
470.797	4937
470.875	3083
470.954	4084
471.033	4840
471.111	3870
471.190	4624
471.269	4876
471.347	4177
471.426	4044
471.505	4618
471.583	5416
471.662	4891
471.740	4720
471.819	3912
471.898	4787
471.976	4769
472.055	4356
472.133	4606
472.212	6221
472.290	4564
472.369	3561
472.447	5415
472.526	4363
472.604	5800
472.683	5373
472.761	4250
472.839	4646
472.918	3695
472.996	3945
473.075	4662
473.153	4447
473.231	4787
473.310	4284
473.388	4370
473.466	4499
473.545	4695
473.623	5075
473.701	4402
473.780	4895
473.858	3344
473.936	5053
474.014	5077
474.093	4448
474.171	6027
474.249	5670
474.327	3816
474.405	3373
474.484	4302
474.562	3907
474.640	4267
474.718	4160
474.796	4455
474.874	5505
474.952	4069
475.030	4187
475.108	4368
475.187	4559
475.265	5466
475.343	5710
475.421	5872
475.499	4433
475.577	4370
475.655	5448
475.733	5243
475.811	4895
475.889	5075
475.966	4906
476.044	4339
476.122	4065
476.200	4203
476.278	4190
476.356	3837
476.434	3473
476.512	4611
476.590	4383
476.667	4456
476.745	3849
476.823	4208
476.901	3807
476.979	3584
477.056	3477
477.134	3904
477.212	4614
477.290	3851
477.367	4125
477.445	3465
477.523	2982
477.601	3636
477.678	4512
477.756	4451
477.834	4919
477.911	3534
477.989	3668
478.066	4413
478.144	3837
478.222	4210
478.299	5559
478.377	5166
478.454	4173
478.532	3820
478.609	3984
478.687	5112
478.764	3366
478.842	4196
478.919	4383
478.997	4229
479.074	3358
479.152	5272
479.229	5108
479.307	5008
479.384	4414
479.461	4660
479.539	3766
479.616	3827
479.694	2958
479.771	4177
479.848	3016
479.926	4089
480.003	3937
480.080	4678
480.157	3510
480.235	3526
480.312	3055
480.389	3516
480.467	3761
480.544	3935
480.621	3720
480.698	4004
480.775	3159
480.853	3718
480.930	3758
481.007	4011
481.084	3937
481.161	6637
481.238	4077
481.315	3462
481.392	3273
481.470	3902
481.547	3210
481.624	2672
481.701	3419
481.778	2857
481.855	3128
481.932	3934
482.009	3982
482.086	3593
482.163	3146
482.240	3429
482.317	4807
482.393	4410
482.470	3685
482.547	4125
482.624	2947
482.701	3505
482.778	3456
482.855	3882
482.932	3083
483.009	3208
483.085	4225
483.162	4520
483.239	4851
483.316	3338
483.393	4640
483.469	3296
483.546	3867
483.623	3840
483.699	3050
483.776	3200
483.853	3091
483.930	4320
484.006	3581
484.083	6227
484.160	7971
484.236	13609
484.313	9912
484.389	7297
484.466	7430
484.543	6512
484.619	6967
484.696	7781
484.772	6600
484.849	6538
484.925	6846
485.002	7398
485.078	6789
485.155	6968
485.231	6462
485.308	6637
485.384	7685
485.461	7098
485.537	7844
485.614	8181
485.690	6434
485.766	7335
485.843	6758
485.919	7287
485.995	6884
486.072	6457
486.148	6236
486.224	6313
486.301	6457
486.377	6720
486.453	5931
486.530	7666
486.606	8936
486.682	8675
486.758	8738
486.835	8653
486.911	6297
486.987	8955
487.063	9034
487.139	9213
487.215	9728
487.292	8733
487.368	6963
487.444	6624
487.520	7856
487.596	7834
487.672	9226
487.748	14808
487.824	17722
487.900	9270
487.976	6417
488.052	6011
488.128	6011
488.204	5108
488.280	5205
488.356	6665
488.432	6269
488.508	7058
488.584	6135
488.660	5520
488.736	4998
488.812	5023
488.888	6572
488.964	5806
489.039	7135
489.115	9667
489.191	8182
489.267	6352
489.343	4841
489.418	5685
489.494	5317
489.570	4197
489.646	6738
489.722	5330
489.797	4684
489.873	6380
489.949	10431
490.024	10681
490.100	5090
490.176	5232
490.251	5671
490.327	4772
490.403	4373
490.478	4897
490.554	4669
490.629	5277
490.705	5237
490.781	4654
490.856	3571
490.932	5250
491.007	5463
491.083	4904
491.158	4318
491.234	4039
491.309	5502
491.385	5344
491.460	4280
491.536	5865
491.611	4492
491.686	4680
491.762	4889
491.837	5632
491.913	7033
491.988	7355
492.063	8586
492.139	6145
492.214	5008
492.289	3627
492.365	4047
492.440	5068
492.515	5317
492.590	4968
492.666	5764
492.741	6046
492.816	8047
492.891	9359
492.967	11969
493.042	16877
493.117	22864
493.192	34234
493.267	90299
493.342	427957
493.418	613599
493.493	59429
493.568	10068
493.643	6969
493.718	7109
493.793	5531
493.868	5242
493.943	5328
494.018	4825
494.093	4463
494.168	5091
494.243	4342
494.318	5009
494.393	3708
494.468	3936
494.543	4732
494.618	4410
494.693	4099
494.768	4298
494.842	3912
494.917	4781
494.992	3866
495.067	4646
495.142	4071
495.217	4572
495.292	4631
495.366	4217
495.441	3684
495.516	4840
495.591	4698
495.665	7843
495.740	13156
495.815	7928
495.890	4418
495.964	2949
496.039	6126
496.114	4235
496.188	6828
496.263	6169
496.338	3462
496.412	4291
496.487	4745
496.561	5703
496.636	5401
496.710	4361
496.785	4825
496.860	4849
496.934	4776
497.009	5265
497.083	4427
497.158	4866
497.232	4074
497.307	5066
497.381	5205
497.455	4759
497.530	5844
497.604	5788
497.679	6221
497.753	7870
497.827	9088
497.902	9808
497.976	10440
498.050	10992
498.125	21671
498.199	20600
498.273	11417
498.348	12003
498.422	10865
498.496	9191
498.570	7568
498.645	6903
498.719	5081
498.793	6081
498.867	6004
498.941	6058
499.016	7980
499.090	16178
499.164	7489
499.238	3732
499.312	3945
499.386	5299
499.460	3751
499.534	3620
499.609	3561
499.683	2923
499.757	4048
499.831	5629
499.905	10976
499.979	9507
500.053	3374
500.127	3957
500.201	2724
500.275	3541
500.349	3071
500.422	3498
500.496	4122
500.570	4682
500.644	8142
500.718	10865
500.792	5318
500.866	4135
500.940	3346
501.013	3675
501.087	3136
501.161	2888
501.235	2901
501.309	5885
501.382	7839
501.456	8533
501.530	3460
501.603	2398
501.677	2544
501.751	2288
501.825	4076
501.898	3740
501.972	3829
502.046	2745
502.119	2368
502.193	3346
502.266	4535
502.340	3392
502.413	3493
502.487	4430
502.561	3300
502.634	2756
502.708	2076
502.781	1641
502.855	3353
502.928	1210
503.002	2390
503.075	1629
503.149	2442
503.222	2808
503.295	1836
503.369	3033
503.442	1985
503.516	3945
503.589	6102
503.662	4508
503.736	2635
503.809	5536
503.882	2875
503.956	5137
504.029	4100
504.102	5974
504.175	9483
504.249	2896
504.322	2243
504.395	2300
504.468	2454
504.542	1599
504.615	1014
504.688	3077
504.761	911
504.834	3145
504.907	1880
504.980	2446
505.053	2420
505.127	118
505.200	4626
505.273	2346
505.346	933
505.419	1393
505.492	3512
505.565	3297
505.638	4217
505.711	2682
505.784	1361
505.857	1601
505.930	3678
506.003	574
506.076	3523
506.149	1613
506.221	1009
506.294	4340
506.367	1039
506.440	3874
506.513	3702
506.586	2686
506.659	904
506.731	2409
506.804	1593
506.877	901
506.950	2274
507.022	2496
507.095	961
507.168	1947
507.241	2781
507.313	1751
507.386	1553
507.459	2433
507.531	1615
507.604	1224
507.677	2033
507.749	854
507.822	3090
507.894	2532
507.967	5349
508.040	3208
508.112	4129
508.185	3284
508.257	1025
508.330	4362
508.402	2046
508.475	2578
508.547	3640
508.620	2428
508.692	3399
508.765	2930
508.837	2324
508.909	3185
508.982	2503
509.054	3439
509.127	2779
509.199	1828
509.271	1827
509.344	2556
509.416	2459
509.488	2064
509.560	3226
509.633	2493
509.705	2490
509.777	4518
509.849	4098
509.922	3602
509.994	4927
510.066	5560
510.138	2175
510.210	7079
510.283	5780
510.355	5009
510.427	4727
510.499	3261
510.571	3564
510.643	2688
510.715	4531
510.787	1806
510.859	5251
510.931	2860
511.003	3758
511.076	5114
511.148	3535
511.219	4029
511.291	5891
511.363	5559
511.435	3594
511.507	3293
511.579	4008
511.651	4769
511.723	2604
511.795	3811
511.867	2679
511.939	2267
512.010	2659
512.082	2322
512.154	1448
512.226	3220
512.298	4311
512.369	4313
512.441	4406
512.513	3068
512.585	1645
512.656	3006
512.728	2694
512.800	3636
512.871	3788
512.943	3257
513.015	1754
513.086	3001
513.158	3268
513.230	1842
513.301	1806
513.373	3808
513.444	2901
513.516	1770
513.588	2177
513.659	2714
513.731	1058
513.802	406
513.874	4464
513.945	3592
514.016	1899
514.088	3024
514.159	1251
514.231	3035
514.302	3771
514.374	3604
514.445	1515
514.516	5676
514.588	2281
514.659	1768
514.730	2376
514.802	4971
514.873	2584
514.944	6205
515.016	3628
515.087	2897
515.158	2724
515.229	5018
515.301	3943
515.372	5552
515.443	3309
515.514	2785
515.585	2066
515.656	3215
515.728	3154
515.799	1911
515.870	2754
515.941	1630
516.012	1749
516.083	4106
516.154	2144
516.225	3354
516.296	4051
516.367	2223
516.438	2029
516.509	1968
516.580	3196
516.651	5406
516.722	10538
516.793	6529
516.864	2615
516.935	2865
517.006	3470
517.077	3033
517.148	4711
517.219	12027
517.289	17676
517.360	4922
517.431	3594
517.502	971
517.573	2781
517.643	1621
517.714	1211
517.785	3032
517.856	878
517.926	4098
517.997	3460
518.068	1916
518.138	4690
518.209	3010
518.280	9197
518.350	31312
518.421	11008
518.492	4326
518.562	2456
518.633	1241
518.703	1443
518.774	6032
518.845	8742
518.915	8842
518.986	2546
519.056	3536
519.127	4058
519.197	3260
519.268	5159
519.338	4020
519.408	1642
519.479	2778
519.549	1513
519.620	3159
519.690	1783
519.760	1935
519.831	1000
519.901	1393
519.971	2363
520.042	1076
520.112	1459
520.182	2380
520.253	2740
520.323	1391
520.393	692
520.463	3468
520.534	-1005
520.604	4919
520.674	2773
520.744	1079
520.814	190
520.885	2849
520.955	1841
521.025	3788
521.095	2602
521.165	3126
521.235	450
521.305	1583
521.375	2090
521.445	2555
521.515	1479
521.585	2039
521.655	1271
521.725	2812
521.795	2499
521.865	-459
521.935	2455
522.005	615
522.075	527
522.145	2132
522.215	216
522.285	697
522.355	1764
522.424	1745
522.494	999
522.564	1999
522.634	2756
522.704	5356
522.774	1225
522.843	1522
522.913	1097
522.983	1766
523.053	1437
523.122	1872
523.192	961
523.262	2374
523.331	2015
523.401	2935
523.471	1498
523.540	1549
523.610	591
523.680	1454
523.749	1018
523.819	2141
523.888	717
523.958	1190
524.027	1201
524.097	768
524.166	790
524.236	186
524.305	2389
524.375	611
524.444	414
524.514	2564
524.583	878
524.653	394
524.722	1726
524.791	166
524.861	2274
524.930	835
524.999	559
525.069	2057
525.138	-257
525.207	-17
525.277	834
525.346	683
525.415	1384
525.484	1071
525.554	1433
525.623	1346
525.692	3101
525.761	2004
525.830	916
525.900	1410
525.969	2343
526.038	3256
526.107	3888
526.176	17921
526.245	11689
526.314	4857
526.383	9967
526.452	8516
526.522	22466
526.591	18994
526.660	4019
526.729	3345
526.797	4326
526.867	4559
526.935	18970
527.004	46344
527.073	23117
527.142	2089
527.211	1495
527.280	2244
527.349	1423
527.418	592
527.487	1924
527.555	81
527.624	957
527.693	-895
527.762	1828
527.831	-712
527.899	1677
527.968	824
528.037	-72
528.106	564
528.174	1094
528.243	1410
528.312	1499
528.380	239
528.449	182
528.518	2401
528.586	-575
528.655	1090
528.723	822
528.792	212
528.861	459
528.929	-296
528.998	1487
529.066	503
529.135	478
529.203	684
529.272	-618
529.340	1236
529.409	2233
529.477	-1103
529.545	-213
529.614	2160
529.682	-1829
529.751	-87
529.819	2566
529.887	-360
529.956	-121
530.024	463
530.092	-697
530.161	1293
530.229	618
530.297	546
530.365	1854
530.434	987
530.502	-606
530.570	825
530.638	-689
530.707	1008
530.775	1306
530.843	175
530.911	184
530.979	1782
531.047	-428
531.115	652
531.183	309
531.252	1077
531.320	717
531.388	-406
531.456	855
531.524	-954
531.592	868
531.660	1879
531.728	-410
531.796	148
531.864	522
531.932	926
532.000	265
532.067	922
532.135	1331
532.203	1979
532.271	948
532.339	4047
532.407	4241
532.475	3829
532.542	1958
532.610	1843
532.678	236
532.746	4776
532.814	7728
532.881	2036
532.949	1021
533.017	1164
533.084	603
533.152	431
533.220	1361
533.287	19
533.355	1622
533.423	1551
533.490	528
533.558	825
533.625	1480
533.693	905
533.761	2193
533.828	2391
533.896	1651
533.963	5960
534.031	7374
534.098	6349
534.166	4396
534.233	2331
534.300	6024
534.368	3933
534.435	3216
534.503	2445
534.570	2588
534.637	1203
534.705	2258
534.772	1995
534.840	1730
534.907	9079
534.974	9568
535.041	1446
535.109	348
535.176	86
535.243	1677
535.310	1422
535.378	423
535.445	1500
535.512	510
535.579	2319
535.646	673
535.714	1582
535.781	2634
535.848	3408
535.915	5258
535.982	4982
536.049	5142
536.116	5770
536.183	3490
536.250	2488
536.317	2160
536.384	3270
536.451	2718
536.518	1621
536.585	196
536.652	2669
536.719	2726
536.786	-191
536.853	164
536.920	1600
536.987	1691
537.053	803
537.120	4614
537.187	4277
537.254	754
537.321	796
537.388	1645
537.454	-209
537.521	-181
537.588	807
537.654	1979
537.721	671
537.788	1565
537.855	487
537.921	1051
537.988	392
538.055	1041
538.121	308
538.188	864
538.254	766
538.321	310
538.388	1157
538.454	631
538.521	558
538.587	885
538.654	453
538.720	42
538.787	537
538.853	741
538.920	710
538.986	898
539.053	407
539.119	1371
539.185	285
539.252	1701
539.318	-175
539.385	1849
539.451	-778
539.517	1387
539.583	1166
539.650	997
539.716	2530
539.782	687
539.849	148
539.915	1234
539.981	235
540.047	439
540.114	857
540.180	2371
540.246	-443
540.312	-165
540.378	1315
540.444	2366
540.510	1159
540.576	2428
540.643	1246
540.709	-809
540.775	599
540.841	723
540.907	1012
540.973	803
541.039	1296
541.105	1516
541.171	66
541.237	484
541.303	1428
541.369	2879
541.435	1757
541.500	1212
541.566	-846
541.632	619
541.698	317
541.764	965
541.830	129
541.896	-254
541.961	1561
542.027	42
542.093	721
542.159	1661
542.224	-268
542.290	2012
542.356	1214
542.421	4121
542.487	3270
542.553	249
542.618	1332
542.684	51
542.750	-185
542.815	1334
542.881	592
542.947	1681
543.012	2612
543.078	419
543.143	528
543.209	610
543.274	413
543.340	1144
543.405	1851
543.471	1150
543.536	52
543.602	1435
543.667	-1025
543.732	1974
543.798	-1134
543.863	478
543.928	31
543.994	-22
544.059	346
544.124	1030
544.190	533
544.255	1383
544.320	788
544.386	285
544.451	1475
544.516	572
544.581	186
544.646	1907
544.712	3361
544.777	327
544.842	662
544.907	714
544.972	107
545.037	925
545.102	1130
545.168	903
545.233	988
545.298	2258
545.363	660
545.428	731
545.493	1955
545.558	1416
545.623	398
545.688	78
545.753	1099
545.818	679
545.883	833
545.947	455
546.012	980
546.077	-651
546.142	1002
546.207	170
546.272	314
546.337	58
546.401	1503
546.466	1060
546.531	-19
546.596	1051
546.661	718
546.725	2223
546.790	160
546.855	832
546.919	390
546.984	1433
547.049	660
547.113	950
547.178	640
547.243	1488
547.307	1294
547.372	1047
547.436	644
547.501	877
547.565	1362
547.630	2605
547.695	1130
547.759	409
547.823	560
547.888	915
547.952	1406
548.017	2103
548.081	2001
548.146	1003
548.210	2438
548.274	779
548.339	1000
548.403	2268
548.468	637
548.532	1213
548.596	1346
548.660	1163
548.725	1287
548.789	1126
548.853	2325
548.917	1066
548.982	834
549.046	1290
549.110	414
549.174	1586
549.238	1586
549.303	624
549.367	2424
549.431	1364
549.495	925
549.559	648
549.623	1402
549.687	1359
549.751	2010
549.815	1421
549.879	1675
549.943	716
550.007	2279
550.071	1255
550.135	1579
550.199	575
550.263	991
550.327	1964
550.391	2071
550.455	1778
550.519	2191
550.582	1909
550.646	1561
550.710	1725
550.774	2147
550.838	1453
550.901	1698
550.965	2837
551.029	2513
551.093	2879
551.156	3843
551.220	3772
551.284	4607
551.347	2939
551.411	2371
551.475	2789
551.538	2334
551.602	1969
551.666	2243
551.729	1252
551.793	2545
551.856	2994
551.920	5036
551.983	3637
552.047	1748
552.110	2357
552.174	2303
552.237	1281
552.301	1514
552.364	1817
552.428	1753
552.491	1404
552.554	2631
552.618	1716
552.681	1679
552.745	883
552.808	3096
552.871	3081
552.934	2884
552.998	2827
553.061	3515
553.124	4025
553.187	6735
553.251	7090
553.314	9311
553.377	11317
553.440	25535
553.503	122760
553.567	178623
553.630	16700
553.693	5164
553.756	3593
553.819	1943
553.882	613
553.945	2319
554.008	1298
554.071	1504
554.134	1325
554.197	1065
554.260	1269
554.323	2498
554.386	1510
554.449	393
554.512	2152
554.575	281
554.638	1338
554.701	1013
554.764	1173
554.827	682
554.889	582
554.952	291
555.015	466
555.078	325
555.141	957
555.203	820
555.266	1374
555.329	1233
555.391	754
555.454	1266
555.517	1393
555.580	400
555.642	718
555.705	496
555.768	1876
555.830	919
555.893	353
555.955	854
556.018	630
556.080	522
556.143	1141
556.206	-413
556.268	890
556.330	1009
556.393	1135
556.455	1046
556.518	1113
556.580	931
556.643	536
556.705	763
556.767	15
556.830	883
556.892	335
556.955	667
557.017	813
557.079	700
557.142	643
557.204	-460
557.266	1694
557.328	757
557.391	114
557.453	624
557.515	310
557.577	416
557.639	855
557.701	377
557.764	-65
557.826	795
557.888	-217
557.950	883
558.012	567
558.074	719
558.136	4565
558.198	8802
558.260	2191
558.322	163
558.384	981
558.446	2172
558.508	1995
558.570	2484
558.632	3139
558.694	5337
558.756	7877
558.818	27497
558.880	64550
558.942	12817
559.003	11168
559.065	4022
559.127	2570
559.189	1647
559.251	1639
559.312	3499
559.374	10459
559.436	37119
559.498	14029
559.559	2156
559.621	799
559.683	1765
559.744	4474
559.806	14752
559.868	20881
559.929	1640
559.991	1446
560.052	2955
560.114	8902
560.176	4415
560.237	6476
560.299	7687
560.360	850
560.422	231
560.483	884
560.545	1480
560.606	8
560.667	-536
560.729	-489
560.790	-633
560.852	1087
560.913	-130
560.974	-105
561.036	-253
561.097	459
561.158	550
561.220	1339
561.281	565
561.342	-427
561.403	635
561.465	-477
561.526	954
561.587	2518
561.648	116
561.709	-384
561.771	774
561.832	228
561.893	-641
561.954	872
562.015	-23
562.076	462
562.137	-86
562.198	610
562.259	536
562.320	547
562.381	141
562.442	368
562.503	302
562.564	-167
562.625	195
562.686	86
562.747	-677
562.808	-361
562.869	-198
562.930	578
562.991	-288
563.051	309
563.112	-647
563.173	-207
563.234	-256
563.294	75
563.355	-110
563.416	634
563.477	-599
563.537	-392
563.598	-99
563.659	900
563.720	456
563.780	313
563.841	330
563.901	1231
563.962	-10
564.023	303
564.083	-145
564.144	461
564.204	-705
564.265	-260
564.325	570
564.386	918
564.446	172
564.507	1498
564.567	1128
564.628	1559
564.688	130
564.749	-123
564.809	149
564.869	47
564.930	-588
564.990	606
565.050	1
565.111	497
565.171	267
565.231	-330
565.292	1442
565.352	-822
565.412	803
565.472	626
565.532	225
565.593	-12
565.653	54
565.713	708
565.773	593
565.833	-117
565.893	1347
565.953	708
566.013	1033
566.074	1202
566.134	1221
566.194	1306
566.254	1094
566.314	1552
566.374	341
566.434	1798
566.494	1600
566.554	3086
566.614	1268
566.673	1068
566.733	1532
566.793	805
566.853	1364
566.913	1762
566.973	1571
567.033	1136
567.092	1634
567.152	1136
567.212	1918
567.272	1572
567.331	2391
567.391	2666
567.451	2782
567.511	1856
567.570	2573
567.630	1684
567.690	1456
567.749	2037
567.809	1661
567.868	3440
567.928	2779
567.988	3927
568.047	4449
568.107	6316
568.166	9121
568.226	15005
568.285	21577
568.345	19289
568.404	16523
568.464	14018
568.523	11695
568.582	10659
568.642	11874
568.701	14879
568.761	22545
568.820	36030
568.879	36338
568.939	25259
568.998	18437
569.057	14227
569.116	9498
569.176	7539
569.235	5479
569.294	5457
569.353	3552
569.413	3270
569.472	2169
569.531	1827
569.590	1700
569.649	2131
569.708	887
569.767	2062
569.827	1087
569.886	947
569.945	951
570.004	929
570.063	2333
570.122	2747
570.181	1152
570.240	607
570.299	952
570.358	538
570.417	722
570.475	729
570.534	1111
570.593	1696
570.652	838
570.711	1048
570.770	2659
570.829	6514
570.887	4257
570.946	2271
571.005	-253
571.064	283
571.122	15
571.181	381
571.240	-282
571.299	473
571.357	1015
571.416	-449
571.475	148
571.533	217
571.592	-442
571.650	607
571.709	-132
571.768	-408
571.826	-242
571.885	157
571.943	342
572.002	-1228
572.060	782
572.119	11
572.177	782
572.236	39
572.294	-938
572.352	19
572.411	13
572.469	-479
572.528	-378
572.586	-79
572.644	-285
572.703	-322
572.761	418
572.819	-555
572.877	-788
572.936	-110
572.994	-796
573.052	-225
573.110	-406
573.169	-484
573.227	-69
573.285	321
573.343	542
573.401	54
573.459	107
573.517	-298
573.576	-1218
573.634	36
573.692	-555
573.750	168
573.808	-574
573.866	-591
573.924	-451
573.982	-473
574.040	-348
574.098	-137
574.155	-277
574.213	-153
574.271	-324
574.329	-394
574.387	-207
574.445	-281
574.503	-533
574.560	-38
574.618	-163
574.676	-602
574.734	341
574.792	-817
574.849	315
574.907	140
574.965	348
575.022	-767
575.080	-199
575.138	-275
575.195	188
575.253	-512
575.311	332
575.368	417
575.426	437
575.483	648
575.541	524
575.598	-128
575.656	83
575.713	-66
575.771	492
575.828	146
575.886	-495
575.943	974
576.001	-546
576.058	-225
576.115	-556
576.173	182
576.230	-516
576.287	-239
576.345	252
576.402	-340
576.459	-564
576.517	-440
576.574	538
576.631	-414
576.688	208
576.746	1
576.803	546
576.860	-578
576.917	692
576.974	111
577.031	-269
577.089	308
577.146	960
577.203	1171
577.260	1671
577.317	1849
577.374	1597
577.431	253
577.488	384
577.545	454
577.602	1041
577.659	2021
577.716	2906
577.773	4555
577.830	1349
577.886	819
577.943	1967
578.000	1236
578.057	1961
578.114	2187
578.171	3312
578.227	6932
578.284	6720
578.341	4077
578.398	2724
578.454	1935
578.511	1338
578.568	774
578.625	-163
578.681	-391
578.738	2
578.794	342
578.851	223
578.908	128
578.964	-33
579.021	-65
579.077	-53
579.134	508
579.190	683
579.247	796
579.303	977
579.360	1241
579.416	261
579.473	114
579.529	4
579.586	110
579.642	307
579.698	1884
579.755	2442
579.811	2503
579.867	2111
579.924	1278
579.980	2229
580.036	3596
580.093	6869
580.149	11403
580.205	12650
580.261	9351
580.317	5036
580.374	3392
580.430	2543
580.486	2176
580.542	778
580.598	623
580.619	802
580.654	1112
580.692	73
580.710	-444
580.765	247
580.767	268
580.823	438
580.838	316
580.879	-36
580.911	-189
580.935	-292
580.984	-142
580.991	-123
581.047	936
581.057	955
581.103	1052
581.130	1256
581.159	1444
581.203	1912
581.215	2044
581.270	1974
581.276	1868
581.326	872
581.349	895
581.382	934
581.422	252
581.438	-33
581.494	-491
581.494	-487
581.550	-174
581.567	-346
581.606	-686
581.640	-476
581.661	-311
581.713	1290
581.717	1404
581.773	554
581.786	434
581.829	53
581.859	-19
581.885	-33
581.932	-475
581.940	-557
581.996	-467
582.004	-447
582.052	-410
582.077	-444
582.107	-491
582.150	16
582.163	172
582.219	-217
582.223	-159
582.274	649
582.296	285
582.330	-412
582.368	5
582.386	237
582.441	-373
582.441	-375
582.497	239
582.514	620
582.552	1630
582.587	2387
582.608	2760
582.659	1048
582.663	909
582.719	-201
582.732	-235
582.774	-226
582.805	140
582.830	508
582.877	454
582.885	393
582.941	832
582.950	720
582.996	271
583.023	1065
583.052	2115
583.095	2343
583.107	2329
583.162	4467
583.168	4502
583.218	4945
583.240	4398
583.273	3557
583.313	2336
583.328	1890
583.384	1763
583.385	1743
583.439	905
583.458	710
583.494	561
583.531	306
583.549	141
583.603	593
583.605	609
583.660	395
583.676	499
583.715	731
583.748	549
583.770	411
583.820	188
583.825	161
583.881	963
583.893	749
583.936	131
583.965	49
583.991	-131
584.038	-137
584.046	-105
584.101	-17
584.110	-11
584.156	9
584.183	101
584.211	157
584.255	469
584.266	533
584.321	401
584.328	342
584.376	171
584.400	391
584.431	589
584.472	375
584.486	282
584.541	278
584.545	299
584.596	686
584.617	674
584.651	811
584.689	815
584.706	602
584.761	265
584.762	262
584.816	659
584.834	689
584.871	597
584.906	563
584.926	445
584.978	398
584.980	419
585.035	1420
585.051	1576
585.090	1551
585.123	1281
585.145	1202
585.195	1786
585.200	1884
585.254	3868
585.267	4798
585.309	7990
585.340	11150
585.364	13043
585.412	5824
585.419	4754
585.473	2147
585.484	1959
585.528	1626
585.556	1775
585.583	2174
585.628	2896
585.637	3040
585.692	5927
585.700	6517
585.747	9438
585.772	7169
585.801	4352
585.845	1632
585.856	1053
585.910	1194
585.917	1184
585.965	795
585.989	752
586.019	886
586.061	806
586.074	778
586.128	526
586.133	574
586.183	1034
586.205	766
586.237	512
586.277	870
586.292	1057
586.346	1535
586.349	1560
586.401	1766
586.421	1742
586.455	1462
586.493	1212
586.509	1292
586.564	1227
586.565	1238
586.618	1690
586.637	1790
586.672	1815
586.709	1575
586.727	1462
586.781	1581
586.781	1581
586.835	1535
586.853	1558
586.889	1831
586.925	1952
586.944	1890
586.996	1952
586.998	1960
587.052	2177
587.068	2230
587.106	2063
587.140	1899
587.161	1929
587.212	2060
587.215	2056
587.269	1835
587.284	1869
587.323	2291
587.356	2523
587.377	2585
587.427	3132
587.431	3148
587.485	2721
587.499	2601
587.539	2500
587.571	2865
587.593	3225
587.643	3600
587.648	3601
587.702	3652
587.715	3809
587.755	4426
587.786	4548
587.810	4727
587.858	5495
587.864	5543
587.917	6139
587.930	6262
587.971	6777
588.001	7145
588.025	7468
588.073	8860
588.079	9121
588.133	11152
588.145	11829
588.187	13622
588.217	14991
588.241	16093
588.288	18792
588.295	19158
588.348	23316
588.360	24486
588.402	29112
588.431	33186
588.456	36441
588.503	44063
588.510	44962
588.564	54220
588.575	56786
588.617	66171
588.646	73861
588.671	80728
588.718	100331
588.725	103818
588.778	146595
588.789	162058
588.832	254190
588.861	348764
588.886	488197
588.932	853939
588.939	892408
588.993	1094728
589.004	1056120
589.047	566722
589.075	306638
589.100	194414
589.147	104814
589.154	98632
589.207	78457
589.218	76524
589.261	73890
589.290	76055
589.314	79422
589.361	94756
589.368	98714
589.421	150297
589.433	168921
589.475	297969
589.504	429274
589.528	573126
589.576	871921
589.582	858834
589.635	423297
589.647	344879
589.689	143512
589.718	62911
589.742	47028
589.790	28941
589.795	27356
589.849	18426
589.861	17022
589.902	13352
589.932	11271
589.955	10293
590.004	9176
590.009	9041
590.062	8484
590.075	8337
590.115	6881
590.146	5921
590.168	5692
590.218	5576
590.222	5493
590.275	4632
590.289	4408
590.328	4601
590.360	4820
590.381	4540
590.431	3920
590.435	3863
590.488	3151
590.503	3003
590.541	3003
590.574	3023
590.594	3122
590.645	3429
590.647	3431
590.700	3506
590.716	3547
590.753	2945
590.787	2384
590.806	2321
590.859	2318
590.859	2320
590.912	2705
590.930	2793
590.965	2663
591.001	2770
591.018	2448
591.071	1277
591.072	1270
591.124	1943
591.143	2187
591.177	2125
591.214	2102
591.230	2197
591.283	2594
591.285	2598
591.336	2230
591.356	2176
591.389	2552
591.427	2890
591.442	2648
591.495	1738
591.498	1675
591.547	1743
591.569	1729
591.600	1706
591.640	1672
591.653	1650
591.706	1695
591.711	1689
591.759	1719
591.782	1702
591.811	1537
591.853	1376
591.864	1538
591.917	2320
591.924	2430
591.969	2208
591.995	2085
592.022	1923
592.066	1551
592.075	1572
592.127	1781
592.137	1816
592.180	1509
592.208	1292
592.233	1216
592.279	1103
592.285	1120
592.338	1274
592.350	1314
592.390	1495
592.421	1626
592.443	1777
592.491	2124
592.495	2090
592.548	1599
592.562	1471
592.600	1703
592.633	1904
592.653	1731
592.704	1294
592.705	1303
592.775	1402
592.846	1646
592.916	1059
592.987	1011
593.058	1768
593.128	1279
593.199	1535
593.270	2084
593.341	1400
593.411	1363
593.482	1328
593.553	2341
593.623	1999
593.694	902
593.764	828
593.835	2270
593.906	1455
593.976	2269
594.047	725
594.117	1441
594.188	1084
594.258	1440
594.329	1185
594.399	898
594.470	2422
594.540	1863
594.611	2046
594.681	2486
594.751	2806
594.822	4802
594.892	4081
594.963	2632
595.033	2260
595.103	1993
595.174	1818
595.244	2242
595.314	1631
595.384	1833
595.455	1927
595.525	1583
595.595	1385
595.665	2080
595.736	1817
595.806	3075
595.876	1668
595.946	1698
596.016	1392
596.087	1280
596.157	1056
596.227	444
596.297	1461
596.367	1584
596.437	1601
596.507	1430
596.577	2490
596.647	832
596.717	1306
596.787	1540
596.857	1144
596.927	1599
596.997	1499
597.067	1282
597.137	2502
597.207	1939
597.277	1520
597.347	778
597.417	1158
597.487	1187
597.557	1459
597.626	984
597.696	1656
597.766	2838
597.836	2555
597.906	2922
597.975	3011
598.045	1139
598.115	1984
598.185	1911
598.254	2398
598.324	1794
598.394	1718
598.464	1931
598.533	2127
598.603	1192
598.672	827
598.742	1396
598.812	1550
598.881	1406
598.951	1447
599.020	499
599.090	1053
599.159	2136
599.229	1147
599.299	841
599.368	581
599.437	1544
599.507	1645
599.576	1694
599.646	2086
599.715	1994
599.785	1627
599.854	934
599.924	1367
599.993	1025
600.062	1949
600.132	1216
600.201	1644
600.270	1771
600.340	1884
600.409	1243
600.478	1995
600.547	1255
600.617	1603
600.686	1299
600.755	1438
600.824	1956
600.894	2409
600.963	2115
601.032	2038
601.101	1701
601.170	1786
601.239	765
601.308	1957
601.378	1236
601.447	1637
601.516	1430
601.585	1899
601.654	1473
601.723	1339
601.792	1486
601.861	1042
601.930	1493
601.999	1076
602.068	1249
602.137	1760
602.206	1772
602.275	1785
602.343	1217
602.412	576
602.481	521
602.550	774
602.619	1100
602.688	1817
602.756	1497
602.825	1282
602.894	834
602.963	1236
603.032	1041
603.100	1099
603.169	776
603.238	101
603.307	1249
603.375	1255
603.444	760
603.513	1468
603.581	1065
603.650	465
603.719	448
603.787	880
603.856	997
603.924	470
603.993	1078
604.061	1047
604.130	510
604.198	812
604.267	1503
604.335	1122
604.404	921
604.472	841
604.541	365
604.609	795
604.678	672
604.746	724
604.815	774
604.883	731
604.951	1999
605.020	1243
605.088	280
605.156	1375
605.225	1088
605.293	735
605.361	1054
605.429	1026
605.498	660
605.566	676
605.634	1054
605.702	1064
605.771	678
605.839	1804
605.907	853
605.975	1042
606.043	971
606.111	1620
606.180	1277
606.248	1411
606.316	1273
606.384	545
606.452	1153
606.520	1225
606.588	979
606.656	858
606.724	725
606.792	1697
606.860	1021
606.928	580
606.996	1541
607.064	576
607.132	942
607.200	1246
607.267	1288
607.335	726
607.403	1389
607.471	822
607.539	1367
607.607	1405
607.674	189
607.742	1278
607.810	529
607.878	1520
607.946	864
608.013	790
608.081	934
608.149	1627
608.216	1088
608.284	2248
608.352	671
608.419	409
608.487	1656
608.555	413
608.622	806
608.690	1311
608.757	0
608.825	984
608.893	1611
608.960	636
609.028	1101
609.095	1732
609.163	741
609.230	589
609.298	2192
609.365	755
609.432	1276
609.500	-93
609.567	1638
609.635	975
609.702	1194
609.769	1134
609.837	1516
609.904	1105
609.971	-30
610.039	1982
610.106	1161
610.173	863
610.241	4153
610.308	3076
610.375	1688
610.442	592
610.509	1399
610.577	2211
610.644	1487
610.711	626
610.778	1478
610.845	958
610.912	921
610.980	1493
611.047	2095
611.114	1427
611.181	1087
611.248	476
611.315	2059
611.382	1313
611.449	1468
611.516	2400
611.583	1266
611.650	1445
611.717	1267
611.784	1283
611.851	1235
611.918	865
611.984	815
612.051	2567
612.118	4403
612.185	9711
612.252	5031
612.319	1063
612.386	1895
612.452	1521
612.519	1377
612.586	1790
612.653	1426
612.719	1649
612.786	1702
612.853	696
612.919	538
612.986	2561
613.053	837
613.120	1247
613.186	13
613.253	2427
613.319	1784
613.386	1100
613.453	940
613.519	2314
613.586	742
613.652	2702
613.719	980
613.785	1904
613.852	1716
613.918	2588
613.985	5418
614.051	12875
614.118	36677
614.184	32796
614.250	4416
614.317	2478
614.383	1379
614.449	1745
614.516	2263
614.582	1773
614.648	1434
614.715	1428
614.781	1053
614.847	1119
614.914	917
614.980	1746
615.046	2738
615.112	1920
615.179	1220
615.245	2062
615.311	2404
615.377	2702
615.443	3178
615.509	3721
615.575	4037
615.642	4232
615.708	4399
615.774	4925
615.840	5451
615.906	5029
615.972	5465
616.038	6438
616.104	10079
616.170	17795
616.236	11120
616.302	6385
616.368	3913
616.434	2599
616.500	3991
616.565	4177
616.631	2742
616.697	2100
616.763	2922
616.829	2768
616.895	4184
616.961	2781
617.026	1783
617.092	1796
617.158	1894
617.224	1516
617.289	1761
617.355	1100
617.421	-180
617.487	2337
617.552	1634
617.618	354
617.684	-34
617.749	3104
617.815	202
617.880	925
617.946	790
618.012	1346
618.077	851
618.143	1019
618.208	609
618.274	778
618.339	1522
618.405	105
618.470	1681
618.536	858
618.601	821
618.667	341
618.732	961
618.798	708
618.863	878
618.928	616
618.994	692
619.059	1068
619.124	445
619.190	366
619.255	716
619.320	897
619.386	572
619.451	-270
619.516	1262
619.581	1179
619.647	241
619.712	1041
619.777	611
619.842	302
619.907	277
619.972	-104
620.038	374
620.103	566
620.168	-217
620.233	1323
620.298	135
620.363	313
620.428	408
620.493	404
620.558	499
620.623	-82
620.688	1476
620.753	-12
620.818	614
620.883	262
620.948	991
621.013	639
621.078	391
621.143	-663
621.207	2278
621.272	667
621.337	-264
621.402	587
621.467	128
621.532	877
621.596	471
621.661	923
621.726	721
621.791	328
621.855	819
621.920	431
621.985	734
622.049	1620
622.114	932
622.179	791
622.243	-158
622.308	-550
622.373	1763
622.437	923
622.502	223
622.566	356
622.631	-673
622.695	1590
622.760	305
622.824	819
622.889	785
622.953	-429
623.018	1246
623.082	813
623.147	618
623.211	313
623.276	594
623.340	-460
623.404	94
623.469	919
623.533	713
623.597	947
623.662	1092
623.726	120
623.790	908
623.854	75
623.919	1275
623.983	415
624.047	418
624.111	543
624.176	675
624.240	230
624.304	1869
624.368	230
624.432	1265
624.496	1520
624.560	1877
624.625	-181
624.689	1413
624.753	1032
624.817	939
624.881	-99
624.945	633
625.009	871
625.073	985
625.137	-227
625.201	517
625.265	901
625.329	465
625.393	877
625.456	739
625.520	1082
625.584	1310
625.648	712
625.712	-22
625.776	-219
625.839	817
625.903	179
625.967	-387
626.031	2098
626.095	755
626.158	869
626.222	-968
626.286	898
626.349	349
626.413	-844
626.477	1590
626.540	102
626.604	366
626.668	716
626.731	58
626.795	260
626.858	224
626.922	-501
626.986	741
627.049	-917
627.113	468
627.176	305
627.240	-45
627.303	311
627.366	-18
627.430	619
627.493	388
627.557	-386
627.620	1578
627.684	-87
627.747	404
627.810	-1606
627.874	446
627.937	-267
628.000	1258
628.064	598
628.127	-1226
628.190	1612
628.253	368
628.317	-391
628.380	43
628.443	-655
628.506	-1031
628.569	-140
628.632	-272
628.696	945
628.759	195
628.822	208
628.885	25
628.948	730
629.011	693
629.074	55
629.137	74
629.200	-616
629.263	1077
629.326	-121
629.389	-720
629.452	508
629.515	-187
629.578	108
629.641	-126
629.704	-51
629.767	-635
629.830	597
629.892	452
629.955	-801
630.018	1549
630.081	-910
630.144	35
630.207	-842
630.269	1368
630.332	-725
630.395	189
630.458	106
630.520	-796
630.583	479
630.646	82
630.708	-481
630.771	-1152
630.834	1061
630.896	-480
630.959	628
631.021	-1140
631.084	-924
631.146	-205
631.209	111
631.272	-301
631.334	-154
631.397	-296
631.459	-364
631.522	-150
631.584	-247
631.646	244
631.709	236
631.771	-7
631.834	708
631.896	-237
631.958	286
632.021	-80
632.083	-949
632.145	193
632.208	-691
632.270	739
632.332	-294
632.395	-1033
632.457	252
632.519	-287
632.581	-57
632.643	-563
632.706	777
632.768	-779
632.830	955
632.892	-660
632.954	-431
633.016	440
633.078	-1372
633.141	-622
633.203	-322
633.265	-541
633.327	739
633.389	-864
633.451	1044
633.513	-1191
633.575	709
633.637	-1114
633.698	-129
633.760	722
633.822	571
633.884	-81
633.946	228
634.008	-177
634.070	466
634.132	718
634.193	-20
634.255	661
634.317	410
634.379	1935
634.441	1926
634.502	3159
634.564	11626
634.626	22767
634.687	30783
634.749	11074
634.811	3405
634.873	900
634.934	1203
634.996	860
635.057	-408
635.119	-865
635.181	7
635.242	636
635.304	-1486
635.365	1538
635.427	-703
635.488	-118
635.550	-1079
635.611	437
635.673	-2574
635.734	513
635.796	-325
635.857	1185
635.918	-637
635.980	707
636.041	-220
636.102	694
636.164	-254
636.225	71
636.286	-1941
636.348	-99
636.409	-46
636.470	-440
636.531	-31
636.593	-1448
636.654	47
636.715	-175
636.776	25
636.838	-90
636.899	1951
636.960	3392
637.021	6642
637.082	13846
637.143	9708
637.204	2169
637.265	538
637.326	1068
637.387	-489
637.448	-1245
637.509	573
637.570	-391
637.631	681
637.692	-1297
637.753	-845
637.814	-217
637.875	282
637.936	-170
637.997	-627
638.058	-910
638.119	733
638.179	-469
638.240	-472
638.301	-353
638.362	-738
638.423	-327
638.483	798
638.544	-1913
638.605	-480
638.666	-1482
638.726	-98
638.787	1083
638.848	-505
638.908	-24
638.969	-460
639.030	94
639.090	-940
639.151	-840
639.211	579
639.272	-207
639.332	-202
639.393	-240
639.453	-735
639.514	-1152
639.574	250
639.635	-956
639.695	219
639.756	-1371
639.816	101
639.877	-109
639.937	147
639.997	-418
640.058	-1427
640.118	-1231
640.178	195
640.239	-846
640.299	-395
640.359	-1185
640.420	522
640.480	-822
640.540	-119
640.600	-1085
640.661	-312
640.721	-1557
640.781	66
640.841	-1388
640.901	1188
640.961	1137
641.021	-185
641.082	-1029
641.142	-61
641.202	450
641.262	-1294
641.322	871
641.382	-978
641.442	458
641.502	-557
641.562	965
641.622	-226
641.682	-386
641.742	-538
641.802	-663
641.861	490
641.921	-341
641.981	900
642.041	470
642.101	-257
642.161	-1554
642.221	-321
642.280	-755
642.340	-5
642.400	-737
642.460	632
642.519	-431
642.579	-273
642.639	308
642.698	-2324
642.758	2146
642.818	-560
642.877	-2041
642.937	-634
642.997	385
643.056	143
643.116	-2291
643.175	686
643.235	-983
643.294	-589
643.354	-712
643.414	182
643.473	-358
643.532	-1053
643.592	-74
643.651	-25
643.711	1718
643.770	1859
643.830	3564
643.889	9472
643.948	2058
644.008	-101
644.067	-709
644.126	-1294
644.186	-885
644.245	690
644.304	-1219
644.363	2272
644.423	-953
644.482	-681
644.541	688
644.600	-1718
644.659	-104
644.719	-635
644.778	-1219
644.837	-489
644.896	1094
644.955	1163
645.014	-407
645.073	937
645.132	119
645.191	204
645.250	-487
645.309	1155
645.368	429
645.427	116
645.486	-1866
645.545	1167
645.604	289
645.663	965
645.722	611
645.781	544
645.840	524
645.898	-309
645.957	1127
646.016	-505
646.075	887
646.134	1499
646.192	3433
646.251	5922
646.310	-90
646.369	-99
646.427	380
646.486	-1075
646.545	-722
646.603	764
646.662	163
646.721	75
646.779	-1481
646.838	-742
646.896	33
646.955	-283
647.014	580
647.072	-1309
647.131	1365
647.189	-1090
647.248	-643
647.306	629
647.365	564
647.423	-1518
647.481	744
647.540	-861
647.598	711
647.657	-334
647.715	702
647.773	-1349
647.832	227
647.890	-1234
647.948	-974
648.007	1517
648.065	-477
648.123	953
648.181	1512
648.240	1908
648.298	654
648.356	1722
648.414	2032
648.472	1796
648.531	2266
648.589	1956
648.647	1122
648.705	1167
648.763	1713
648.821	1477
648.879	1119
648.937	720
648.995	883
649.053	380
649.111	165
649.169	1186
649.227	605
649.285	1424
649.343	2999
649.401	2949
649.459	2565
649.516	3785
649.574	3583
649.632	14392
649.690	17330
649.748	3138
649.806	-460
649.863	2236
649.921	1720
649.979	-659
650.037	867
650.094	-1547
650.152	130
650.210	-723
650.268	-156
650.325	211
650.383	-699
650.440	-1217
650.498	353
650.556	-93
650.613	-1067
650.671	366
650.728	-547
650.786	-506
650.843	-246
650.901	-2041
650.958	-881
651.016	-407
651.073	-214
651.131	-932
651.188	-1144
651.246	-817
651.303	-1663
651.360	269
651.418	7
651.475	-624
651.532	-981
651.590	101
651.647	-1666
651.704	-427
651.762	-594
651.819	-712
651.876	-1496
651.933	-347
651.990	78
652.048	-1641
652.105	-524
652.162	-910
652.219	-1223
652.276	333
652.333	-1031
652.390	-1659
652.448	-407
652.505	-999
652.562	-497
652.619	43
652.676	56
652.733	683
652.790	-28
652.847	-1092
652.904	-432
652.961	-1358
653.017	-1281
653.074	664
653.131	-351
653.188	-1479
653.245	-140
653.302	-411
653.359	-847
653.415	-76
653.472	-1052
653.529	-149
653.586	-1141
653.642	-992
653.699	-106
653.756	-1796
653.813	-466
653.869	-760
653.926	-1015
653.983	-510
654.039	457
654.096	-54
654.152	383
654.209	-1728
654.266	153
654.322	-766
654.379	359
654.435	510
654.492	-656
654.548	570
654.605	-1024
654.661	292
654.717	117
654.774	1362
654.830	888
654.887	410
654.943	-93
655.000	933
655.056	1330
655.112	546
655.168	113
655.225	1020
655.281	1885
655.337	959
655.394	1387
655.450	2497
655.506	2625
655.562	4211
655.618	4977
655.675	3471
655.731	4458
655.787	6251
655.843	7524
655.899	8722
655.955	11023
656.011	13032
656.067	14003
656.123	19045
656.179	21381
656.235	24100
656.291	22032
656.347	21081
656.403	15980
656.459	12774
656.515	10747
656.571	9270
656.627	7981
656.683	5548
656.739	5808
656.795	4680
656.850	4022
656.906	2850
656.962	2987
657.018	1652
657.074	1175
657.129	802
657.185	776
657.241	1048
657.297	13
657.352	1486
657.408	-409
657.464	1243
657.519	-71
657.575	-576
657.630	-250
657.686	-268
657.742	-36
657.797	-54
657.853	-955
657.908	59
657.964	-748
658.019	-761
658.075	-746
658.130	-262
658.186	-1063
658.241	-368
658.297	-831
658.352	-617
658.407	-480
658.463	-893
658.518	-239
658.573	-422
658.629	-1883
658.684	-868
658.739	41
658.795	-1663
658.850	-437
658.905	-1835
658.960	-1280
659.016	-1622
659.071	-1073
659.126	-1489
659.181	-1638
659.236	328
659.291	-273
659.346	-1266
659.401	-380
659.457	436
659.512	-891
659.567	560
659.622	-982
659.677	-1258
659.732	-1402
659.787	-570
659.842	-852
659.897	-827
659.952	-959
660.007	-1434
660.061	-1335
660.116	-2550
660.171	-1569
660.226	-489
660.281	-684
660.336	-1229
660.391	-424
660.445	-1451
660.500	-922
660.555	-956
660.610	-786
660.664	-715
660.719	-679
660.774	-984
660.828	-960
660.883	-1165
660.938	-664
660.992	-1736
661.047	-1376
661.101	-909
661.156	-2177
661.211	-1506
661.265	-1724
661.320	-1323
661.374	-1349
661.429	-1800
661.483	-664
661.538	-1922
661.592	-1427
661.647	-1399
661.701	-985
661.755	-634
661.810	-1019
661.864	-2017
661.919	-1205
661.973	-606
662.027	-687
662.081	-850
662.136	-1178
662.190	-648
662.244	-1177
662.299	-1147
662.353	-781
662.407	-2184
662.461	-1113
662.515	-790
662.569	-1901
662.624	-1036
662.678	-1983
662.732	-1101
662.786	-1161
662.840	-1429
662.894	-941
662.948	-1245
663.002	-970
663.056	-860
663.110	-1185
663.164	-965
663.218	-992
663.272	-421
663.326	-1064
663.380	-1595
663.434	-1403
663.488	-1811
663.542	-1257
663.595	-885
663.649	-2286
663.703	-805
663.757	-1125
663.811	-1435
663.864	-1745
663.918	-1380
663.972	-1499
664.026	-1746
664.079	-1036
664.133	-190
664.187	-1545
664.240	-627
664.294	-576
664.348	-883
664.401	-940
664.455	-908
664.508	-1301
664.562	-321
664.615	-206
664.669	-1249
664.722	-878
664.776	-8
664.829	-1063
664.883	-862
664.936	-1222
664.990	-1989
665.043	-754
665.097	-1869
665.150	-744
665.203	-935
665.257	-750
665.310	-1443
665.363	-377
665.417	-705
665.470	-1018
665.523	-1102
665.576	-819
665.630	-590
665.683	-1410
665.736	-2167
665.789	-22
665.842	-688
665.895	-1461
665.949	-1224
666.002	-760
666.055	-1128
666.108	-440
666.161	-1068
666.214	-454
666.267	-801
666.320	-321
666.373	-1053
666.426	-1297
666.479	-1697
666.532	-1180
666.585	-1619
666.638	-813
666.691	-1699
666.744	-1392
666.796	-1774
666.849	-1228
666.902	-1282
666.955	-1186
667.008	-1278
667.060	-1232
667.113	-1568
667.166	-930
667.219	-1049
667.271	-1370
667.324	-1360
667.377	-1658
667.430	-1115
667.482	-1321
667.535	-773
667.587	-1014
667.640	-1344
667.693	-2409
667.745	-890
667.798	-1352
667.850	-1437
667.903	-1205
667.955	-1781
668.008	-1583
668.060	-1580
668.113	-2172
668.165	-208
668.218	-1326
668.270	-1388
668.322	-1586
668.375	-1245
668.427	-940
668.479	-1646
668.532	-1639
668.584	-1571
668.636	-1629
668.689	-839
668.741	-1843
668.793	-1689
668.845	-1644
668.898	-1446
668.950	-1344
669.002	-800
669.054	-2209
669.106	-829
669.158	-1952
669.211	-1655
669.263	-2191
669.315	-583
669.367	-1558
669.419	-1674
669.471	-338
669.523	-1179
669.575	-566
669.627	-1544
669.679	-1052
669.731	-981
669.783	-1037
669.835	-1376
669.886	-1886
669.938	-664
669.990	-1327
670.042	-1747
670.094	-1399
670.146	-1412
670.197	-1749
670.249	-693
670.301	-1264
670.353	-1014
670.404	-634
670.456	-1421
670.508	-539
670.560	-67
670.611	871
670.663	1785
670.715	6858
670.766	13358
670.818	4395
670.869	-359
670.921	-491
670.972	-832
671.024	-1071
671.075	-581
671.127	-1565
671.178	-1673
671.230	-881
671.281	-895
671.333	-1400
671.384	-1828
671.436	-2310
671.487	-1107
671.538	-1799
671.590	-813
671.641	-799
671.692	-1777
671.744	-1308
671.795	-922
671.846	-769
671.897	-1307
671.949	-748
672.000	-1135
672.051	-641
672.102	-1431
672.153	-1756
672.204	-1312
672.256	-1463
672.307	-876
672.358	-1624
672.409	-1058
672.460	-1373
672.511	-1281
672.562	-2095
672.613	-1291
672.664	-1517
672.715	-721
672.766	-1594
672.817	-776
672.868	-1507
672.919	-1023
672.970	-1172
673.021	-799
673.071	-1886
673.122	-672
673.173	-706
673.224	-1377
673.275	-1455
673.326	-1169
673.376	-934
673.427	-1178
673.478	-900
673.528	-587
673.579	-1769
673.630	-2473
673.680	-811
673.731	-1718
673.782	-2228
673.832	-1286
673.883	-1189
673.934	-1643
673.984	-1524
674.035	-1143
674.085	-1532
674.136	-1428
674.186	-1065
674.237	-1652
674.287	-1753
674.338	-1091
674.388	-1341
674.438	-2369
674.489	-1653
674.539	-1645
674.589	-1399
674.640	-1717
674.690	-1451
674.740	-1857
674.791	-2306
674.841	-1793
674.891	-1121
674.942	-749
674.992	-1719
675.042	-1829
675.092	-1896
675.142	-1862
675.193	-1863
675.243	-2010
675.293	-1108
675.343	-2002
675.393	-1587
675.443	-1312
675.493	-1871
675.543	-1286
675.593	-1560
675.643	-2016
675.693	-1524
675.743	-1106
675.793	-1330
675.843	-2272
675.893	-2231
675.943	-1088
675.993	-1304
676.043	-1481
676.093	-1350
676.142	-1804
676.192	-1275
676.242	-1369
676.292	-1888
676.341	-1712
676.391	-1792
676.441	-1945
676.491	-1763
676.540	-1632
676.590	-793
676.640	-1815
676.689	-2174
676.739	-1913
676.789	-1718
676.838	-1854
676.888	-1080
676.937	-1724
676.987	-1981
677.037	-2320
677.086	-1460
677.136	-1404
677.185	-1808
677.235	-1478
677.284	-1612
677.333	-1607
677.383	-2682
677.432	-1551
677.482	-2081
677.531	-2063
677.580	-2073
677.630	-1504
677.679	-1910
677.728	-788
677.778	-1528
677.827	-1702
677.876	-1423
677.925	-1540
677.975	-1923
678.024	-832
678.073	-2147
678.122	-2364
678.171	-1114
678.220	-1961
678.269	-2038
678.319	-2326
678.368	-1916
678.417	-1787
678.466	-1604
678.515	-365
678.564	-2136
678.613	-1881
678.662	-2304
678.711	-1625
678.760	-2213
678.809	-1881
678.857	-1836
678.906	-1182
678.955	-2365
679.004	-1258
679.053	-1523
679.102	-1991
679.151	-2183
679.199	-1577
679.248	-2146
679.297	-1496
679.346	-1568
679.394	-1908
679.443	-2129
679.492	-1537
679.540	-1436
679.589	-1153
679.638	-1497
679.686	-1299
679.735	-1693
679.784	-1917
679.832	-1608
679.881	-2323
679.929	-1511
679.978	-2115
680.026	-1826
680.075	-2340
680.123	-1621
680.172	-1480
680.220	-2667
680.268	-1404
680.317	-2089
680.365	-2391
680.414	-2197
680.462	-1020
680.510	-1463
680.559	-1437
680.607	-2318
680.655	-1460
680.703	-2136
680.752	-2549
680.800	-2054
680.848	-1810
680.896	-1751
680.945	-2028
680.993	-2572
681.041	-1499
681.089	-1865
681.137	-1375
681.185	-1686
681.233	-1336
681.258	-1654
681.281	-1961
681.329	-1641
681.377	-1757
681.380	-1756
681.425	-1826
681.473	-1526
681.502	-1275
681.521	-1118
681.569	-2268
681.617	-1377
681.624	-1477
681.665	-2154
681.713	-1328
681.745	-2001
681.761	-2334
681.809	-1245
681.857	-1924
681.867	-1837
681.904	-1541
681.952	-1015
681.989	-1438
682.000	-1575
682.048	-2217
682.096	-1116
682.111	-1159
682.143	-1279
682.191	-1456
682.233	-1135
682.239	-1094
682.286	-1308
682.334	-1286
682.354	-1485
682.382	-1749
682.430	-1746
682.476	-2475
682.477	-2496
682.525	-1627
682.572	-1882
682.598	-1833
682.620	-1801
682.667	-2074
682.715	-1177
682.720	-1203
682.763	-1525
682.810	-1357
682.841	-1628
682.857	-1768
682.905	-1748
682.952	-490
682.963	-620
683.000	-1097
683.047	-1221
683.085	-803
683.095	-697
683.142	-1340
683.190	-2196
683.206	-1780
683.237	-1023
683.284	-939
683.328	-1280
683.332	-1313
683.379	-1417
683.426	-1107
683.449	-1138
683.473	-1185
683.521	-1974
683.568	-1456
683.571	-1442
683.615	-1258
683.662	-1403
683.693	-1369
683.709	-1362
683.757	-1267
683.804	-1320
683.814	-1448
683.851	-1954
683.898	-1157
683.936	-1325
683.945	-1367
683.992	-887
684.039	-1767
684.057	-1577
684.086	-1249
684.133	-1651
684.179	-1273
684.180	-1267
684.227	-688
684.274	-449
684.300	-875
684.321	-1243
684.368	-576
684.415	-799
684.422	-787
684.462	-675
684.509	-1061
684.543	-634
684.556	-472
684.603	-852
684.649	-1186
684.665	-1216
684.696	-1376
684.743	-1422
684.786	-1274
684.790	-1255
684.837	-1431
684.883	-842
684.908	-921
684.930	-1041
684.977	-558
685.023	-734
685.029	-748
685.070	-892
685.117	-1227
685.150	-1191
685.164	-1172
685.210	-1248
685.257	-1127
685.272	-908
685.303	-453
685.350	-1046
685.393	-1480
685.396	-1515
685.443	-1045
685.490	-777
685.514	-665
685.536	-561
685.583	-418
685.629	-753
685.636	-766
685.675	-990
685.722	-944
685.757	-944
685.768	-919
685.815	-918
685.861	-602
685.878	-558
685.908	-420
685.954	-742
686.000	-692
686.000	-696
686.047	-965
686.093	-293
686.121	-683
686.139	-902
686.185	-753
686.232	-808
686.242	-822
686.278	-797
686.324	-542
686.363	-663
686.370	-718
686.416	-663
686.463	-482
686.484	-686
686.509	-809
686.555	-998
686.601	-536
686.606	-484
686.647	-231
686.693	-847
686.727	-665
686.739	-538
686.785	-314
686.831	-339
686.848	-307
686.877	-415
686.923	-646
686.969	-772
686.969	-772
687.015	-406
687.061	-223
687.090	-335
687.107	-432
687.153	-185
687.199	-315
687.211	-427
687.245	-733
687.291	-459
687.332	34
687.336	79
687.382	57
687.428	-350
687.453	-185
687.474	-100
687.520	-225
687.565	-484
687.574	-603
687.611	-894
687.657	-906
687.695	-339
687.702	-244
687.748	-421
687.794	-417
687.816	-179
687.839	-22
687.885	-230
687.931	-669
687.937	-646
687.976	-368
688.022	-543
688.058	24
688.067	143
688.113	-283
688.158	-293
688.179	-348
688.204	-285
688.249	141
688.295	197
688.300	231
688.340	251
688.386	159
688.421	199
688.431	218
688.477	-629
688.522	-246
688.542	-77
688.567	187
688.613	-238
688.658	18
688.663	41
688.703	209
688.749	-155
688.784	89
688.794	143
688.839	84
688.884	-281
688.905	-308
688.930	-246
688.975	276
689.020	84
689.026	133
689.065	285
689.110	-400
689.146	-304
689.155	-239
689.201	-143
689.246	404
689.267	373
689.291	276
689.336	40
689.381	-340
689.388	-301
689.426	50
689.471	-48
689.509	332
689.516	363
689.561	240
689.606	186
689.630	-182
689.651	-382
689.696	-300
689.741	184
689.750	179
689.785	142
689.830	94
689.871	145
689.875	137
689.920	156
689.965	338
689.992	83
690.010	-3
690.054	222
690.099	-80
690.112	-4
690.144	177
690.189	52
690.233	-48
690.233	-44
690.278	813
690.323	758
690.354	1011
690.367	951
690.412	991
690.457	708
690.474	571
690.501	543
690.546	533
690.590	773
690.595	746
690.635	701
690.680	626
690.716	1021
690.724	1075
690.769	1137
690.813	1234
690.836	1212
690.857	1479
690.902	2082
690.946	2475
690.957	2774
690.991	4379
691.035	6129
691.077	8777
691.080	8818
691.124	7411
691.168	5492
691.198	4491
691.213	3971
691.257	3176
691.301	2028
691.318	1770
691.346	1885
691.390	1460
691.434	1396
691.439	1363
691.478	1243
691.522	1425
691.559	1462
691.567	1500
691.611	1370
691.655	1737
691.680	1729
691.699	1504
691.743	1367
691.787	794
691.800	636
691.831	561
691.875	608
691.919	743
691.921	743
691.964	788
692.008	319
692.041	370
692.052	503
692.096	615
692.139	1095
692.162	1437
692.183	1449
692.227	904
692.271	724
692.282	655
692.315	824
692.359	1059
692.402	1199
692.403	1205
692.447	1051
692.490	1078
692.523	1229
692.534	1347
692.578	1675
692.622	1352
692.643	1704
692.666	1755
692.709	1148
692.753	448
692.763	451
692.797	1113
692.840	1430
692.884	1594
692.884	1599
692.928	1487
692.971	1358
693.004	1218
693.015	1246
693.059	1565
693.102	1647
693.124	1721
693.146	1740
693.189	1353
693.233	1531
693.245	1535
693.276	1626
693.320	1670
693.363	1518
693.365	1508
693.407	1692
693.450	2036
693.485	2231
693.493	2307
693.537	3108
693.580	2971
693.605	3460
693.624	4160
693.667	5238
693.710	6367
693.725	6971
693.753	9466
693.797	13332
693.840	17796
693.845	18083
693.883	15821
693.926	12882
693.966	10621
693.970	10366
694.013	7887
694.056	5508
694.086	3714
694.099	3516
694.142	2939
694.185	2387
694.206	2283
694.229	2457
694.272	2379
694.315	2330
694.326	2389
694.358	2423
694.401	2213
694.444	2042
694.446	2021
694.487	1997
694.530	2228
694.566	2235
694.573	2240
694.616	1999
694.659	2049
694.686	2118
694.702	2200
694.745	1986
694.787	2354
694.806	2418
694.830	2348
694.873	1900
694.916	1752
694.926	1691
694.959	1926
695.002	2067
695.044	2533
695.046	2525
695.087	2257
695.130	2326
695.166	2242
695.172	2241
695.215	2160
695.258	2308
695.286	2276
695.301	2234
695.343	1967
695.386	1768
695.406	1695
695.428	1769
695.471	1840
695.514	1885
695.526	1940
695.556	2000
695.599	1848
695.641	1899
695.646	1877
695.684	1785
695.726	1698
695.766	1722
695.769	1742
695.811	1789
695.854	1738
695.886	1723
695.896	1742
695.938	1986
695.981	2079
696.005	2108
696.023	2125
696.065	2432
696.108	2277
696.125	2302
696.150	2353
696.192	2336
696.235	2559
696.245	2550
696.277	2669
696.319	2658
696.361	2944
696.365	2945
696.404	2996
696.446	3058
696.485	3145
696.488	3150
696.530	2970
696.572	2812
696.604	2737
696.614	2747
696.656	2586
696.698	2505
696.724	2451
696.740	2415
696.783	2387
696.825	2213
696.844	2131
696.867	2238
696.909	2476
696.951	2642
696.964	2729
696.992	2618
697.034	2344
697.076	1980
697.083	1912
697.118	2327
697.160	2929
697.202	3400
697.203	3401
697.244	3027
697.286	2567
697.323	2092
697.327	2122
697.369	2373
697.411	2646
697.442	2745
697.453	2759
697.494	2840
697.536	2951
697.562	3027
697.578	3115
697.620	3186
697.661	3317
697.682	3388
697.703	3242
697.744	2915
697.786	2619
697.801	2433
697.828	2489
697.869	2729
697.911	2937
697.921	2981
697.952	2968
697.994	2896
698.035	2793
698.040	2776
698.077	2964
698.118	3081
698.160	3263
698.160	3249
698.201	3357
698.243	3433
698.279	3508
698.284	3532
698.325	3641
698.367	3701
698.399	3727
698.408	3689
698.449	3472
698.491	3274
698.518	3112
698.532	3079
698.573	2977
698.614	2810
698.638	2716
698.656	2716
698.697	2698
698.738	2683
698.757	2662
698.779	2838
698.820	3141
698.862	3450
698.877	3554
698.903	3537
698.944	3485
698.985	3433
698.996	3408
699.026	3320
699.067	3181
699.116	3005
699.235	3348
699.354	3976
699.474	3574
699.593	3028
699.713	4842
699.832	4146
699.951	3192
700.070	4994
700.190	4766
700.309	5310
700.428	5500
700.547	5512
700.667	4326
700.786	3980
700.905	3859
701.024	4287
701.143	3269
701.262	3964
701.381	2913
701.500	2632
701.619	3473
701.738	4474
701.857	3523
701.976	3674
702.095	2151
702.214	3238
702.333	2804
702.452	3878
702.571	2778
702.690	3674
702.809	2748
702.928	3310
703.047	3770
703.165	3408
703.284	2942
703.403	3494
703.522	3077
703.640	3633
703.759	3345
703.878	3407
703.997	2916
704.115	2719
704.234	2397
704.353	3067
704.471	3131
704.590	1663
704.708	2417
704.827	2719
704.946	3294
705.064	2437
705.183	2666
705.301	1780
705.420	2324
705.538	2848
705.656	2560
705.775	2946
705.893	4530
706.012	5340
706.130	1667
706.249	1041
706.367	2373
706.485	2336
706.604	1945
706.722	2968
706.840	2096
706.958	2609
707.077	1794
707.195	2136
707.313	2580
707.431	2888
707.549	2295
707.668	2782
707.786	2059
707.904	2294
708.022	1381
708.140	2092
708.258	2502
708.376	2088
708.494	2044
708.612	1572
708.730	2455
708.848	1969
708.966	1507
709.084	1885
709.202	1844
709.320	2135
709.438	1314
709.556	2300
709.674	1806
709.791	1824
709.909	1945
710.027	1870
710.145	2043
710.263	1618
710.380	2029
710.498	2331
710.616	1601
710.733	1607
710.851	2468
710.969	1333
711.086	1798
711.204	2134
711.322	1853
711.439	1663
711.557	1359
711.674	2782
711.792	1487
711.909	2814
712.027	2215
712.144	1928
712.262	1681
712.379	1658
712.497	1103
712.614	2230
712.732	729
712.849	1675
712.966	1787
713.084	2434
713.201	721
713.318	2720
713.436	839
713.553	2078
713.670	2117
713.787	2498
713.905	1690
714.022	1847
714.139	1413
714.256	2299
714.373	790
714.490	1413
714.608	2783
714.725	6111
714.842	5011
714.959	2003
715.076	1759
715.193	1865
715.310	2493
715.427	2402
715.544	3779
715.661	8047
715.778	3138
715.895	2053
716.011	1815
716.128	2555
716.245	2003
716.362	2913
716.479	2790
716.596	3002
716.713	2479
716.829	3071
716.946	1827
717.063	3094
717.180	2058
717.296	1583
717.413	2622
717.530	2586
717.646	2502
717.763	2664
717.880	1700
717.996	2349
718.113	1606
718.229	2194
718.346	1504
718.462	2518
718.579	1500
718.695	2281
718.812	1864
718.928	2000
719.045	2041
719.161	2443
719.277	2006
719.394	3071
719.510	1537
719.626	1673
719.743	1291
719.859	1378
719.975	1656
720.092	2670
720.208	3591
720.324	2166
720.440	1658
720.557	1721
720.673	1362
720.789	1064
720.905	1737
721.021	1694
721.137	1692
721.253	1545
721.369	1890
721.486	1832
721.602	2000
721.718	1559
721.834	1048
721.950	2034
722.066	1990
722.181	1255
722.297	1568
722.413	2435
722.529	2581
722.645	2451
722.761	2607
722.877	2052
722.993	1504
723.108	1698
723.224	2056
723.340	1660
723.456	3020
723.571	2884
723.687	1246
723.803	2242
723.918	1240
724.034	1784
724.150	1877
724.265	1389
724.381	1732
724.497	1446
724.612	1727
724.728	1243
724.843	1526
724.959	2347
725.074	2954
725.190	2725
725.305	1854
725.421	1313
725.536	2167
725.651	2283
725.767	1716
725.882	1834
725.997	704
726.113	2320
726.228	1056
726.343	2196
726.459	1914
726.574	1188
726.689	1287
726.804	1595
726.920	1754
727.035	1609
727.150	1302
727.265	1571
727.380	1878
727.495	3086
727.610	1727
727.725	2189
727.841	2271
727.956	2963
728.071	2452
728.186	1367
728.301	1747
728.416	2019
728.531	2353
728.645	2108
728.760	2996
728.875	6034
728.990	5352
729.105	3556
729.220	2035
729.335	2505
729.449	1456
729.564	1952
729.679	1217
729.794	1433
729.908	1055
730.023	1486
730.138	1778
730.253	1409
730.367	1527
730.482	1974
730.596	2269
730.711	1542
730.826	1896
730.940	875
731.055	1610
731.169	993
731.284	461
731.398	947
731.513	1484
731.627	1064
731.742	953
731.856	955
731.970	574
732.085	1657
732.199	994
732.313	1375
732.428	1203
732.542	1975
732.656	1757
732.771	1200
732.885	1159
732.999	1024
733.113	1212
733.227	1735
733.342	1054
733.456	1222
733.570	1104
733.684	679
733.798	1212
733.912	1431
734.026	1145
734.140	1583
734.254	1544
734.368	1581
734.482	1598
734.596	992
734.710	1787
734.824	1729
734.938	610
735.052	1241
735.166	1280
735.280	1737
735.393	730
735.507	1315
735.621	1014
735.735	1276
735.849	860
735.962	408
736.076	1393
736.190	1057
736.303	920
736.417	957
736.531	612
736.644	481
736.758	141
736.872	1776
736.985	861
737.099	1316
737.212	926
737.326	1679
737.439	1288
737.553	1496
737.666	661
737.780	1793
737.893	773
738.007	1067
738.120	169
738.233	1082
738.347	1009
738.460	1544
738.573	1971
738.687	889
738.800	1166
738.913	1264
739.026	1135
739.140	1451
739.253	860
739.366	1180
739.479	884
739.592	689
739.705	476
739.818	1372
739.932	584
740.045	1090
740.158	1570
740.271	3481
740.384	2065
740.497	3940
740.610	4392
740.723	3337
740.836	4110
740.949	3993
741.062	3127
741.174	2230
741.287	1772
741.400	2099
741.513	3834
741.626	5809
741.739	3092
741.851	2103
741.964	2901
742.077	3297
742.189	6734
742.302	18916
742.415	15225
742.527	3926
742.640	2672
742.753	2815
742.865	1295
742.978	1162
743.090	1841
743.203	1388
743.316	738
743.428	1677
743.541	1954
743.653	770
743.766	1817
743.878	2494
743.990	3832
744.103	14557
744.215	32833
744.327	9493
744.440	2304
744.552	2245
744.664	541
744.777	477
744.889	110
745.001	1262
745.113	806
745.226	1054
745.338	1681
745.450	918
745.562	1396
745.674	1117
745.786	1252
745.898	1030
746.010	1058
746.122	836
746.234	1596
746.347	1906
746.459	3750
746.570	4912
746.682	15933
746.794	48977
746.906	21609
747.018	2882
747.130	1930
747.242	1865
747.354	1145
747.466	2119
747.577	1321
747.689	2506
747.801	1611
747.913	1050
748.024	340
748.136	598
748.248	-498
748.359	788
748.471	1061
748.583	1566
748.694	1036
748.806	1576
748.918	590
749.029	922
749.141	1471
749.252	1117
749.364	613
749.475	471
749.587	1015
749.698	698
749.809	905
749.921	579
750.032	522
750.144	509
750.255	838
750.366	477
750.478	660
750.589	1095
750.700	-88
750.811	1026
750.923	941
751.034	784
751.145	1304
751.256	251
751.367	466
751.479	1550
751.590	409
751.701	-111
751.812	221
751.923	466
752.034	340
752.145	485
752.256	184
752.367	4
752.478	514
752.589	880
752.700	691
752.811	39
752.922	-221
753.032	31
753.143	127
753.254	360
753.365	1074
753.476	986
753.586	598
753.697	724
753.808	382
753.919	900
754.029	252
754.140	321
754.251	733
754.361	969
754.472	363
754.582	230
754.693	1040
754.804	1210
754.914	227
755.025	850
755.135	77
755.246	1511
755.356	-251
755.466	932
755.577	900
755.687	873
755.798	-123
755.908	505
756.018	950
756.129	1270
756.239	-286
756.349	126
756.460	290
756.570	1309
756.680	233
756.790	967
756.900	990
757.011	813
757.121	765
757.231	845
757.341	257
757.451	382
757.561	949
757.671	762
757.781	173
757.891	2045
758.001	321
758.111	736
758.221	1173
758.331	489
758.441	-131
758.551	545
758.661	199
758.771	1154
758.880	354
758.990	163
759.100	949
759.210	579
759.320	941
759.429	-48
759.539	734
759.649	949
759.758	402
759.868	1457
759.978	-44
760.087	679
760.197	909
760.307	652
760.416	1435
760.526	339
760.635	792
760.745	1182
760.854	1269
760.964	1222
761.073	1328
761.182	863
761.292	43
761.401	1774
761.511	723
761.620	547
761.729	694
761.839	569
761.948	1057
762.057	694
762.166	1010
762.276	625
762.385	1961
762.494	1165
762.603	932
762.712	878
762.822	548
762.931	682
763.040	1290
763.149	1585
763.258	1226
763.367	1720
763.476	1472
763.585	1592
763.694	1875
763.803	2464
763.912	2616
764.021	2002
764.130	1178
764.238	1858
764.347	1694
764.456	1570
764.565	1943
764.674	2184
764.783	1729
764.891	2225
765.000	3043
765.109	5165
765.217	4685
765.326	6066
765.435	5444
765.543	7511
765.652	9296
765.761	11780
765.869	19437
765.978	28596
766.086	48919
766.195	97318
766.303	215780
766.412	422577
766.520	334060
766.629	121138
766.737	54706
766.846	31756
766.954	21315
767.062	16438
767.171	11409
767.279	10166
767.387	7055
767.496	5702
767.604	5538
767.712	5745
767.820	4847
767.928	5014
768.037	3122
768.145	4630
768.253	4814
768.361	4130
768.469	3561
768.577	3227
768.685	4620
768.793	4108
768.901	3156
769.009	5548
769.117	5973
769.225	8976
769.333	11747
769.441	19856
769.549	37283
769.657	85621
769.765	226545
769.873	336119
769.981	130010
770.088	42366
770.196	20987
770.304	14348
770.412	10109
770.519	7471
770.627	5458
770.735	4838
770.842	3779
770.950	3549
771.058	2822
771.165	4103
771.273	2821
771.380	3246
771.488	1797
771.595	1684
771.703	1925
771.810	2619
771.918	1897
772.025	1994
772.133	1275
772.240	1530
772.348	1399
772.455	2125
772.562	248
772.670	1262
772.777	1157
772.884	1450
772.991	1128
773.099	901
773.206	678
773.313	1541
773.420	604
773.528	126
773.635	478
773.742	1456
773.849	942
773.956	537
774.063	731
774.170	184
774.277	949
774.384	855
774.491	-198
774.598	693
774.705	809
774.812	1624
774.919	932
775.026	1155
775.133	326
775.239	1294
775.346	-500
775.453	560
775.560	-498
775.667	475
775.773	35
775.880	844
775.987	69
776.093	1744
776.200	1120
776.307	1075
776.413	843
776.520	1282
776.627	1828
776.733	2588
776.840	2974
776.946	10716
777.053	33816
777.159	101052
777.266	57001
777.372	79584
777.478	68204
777.585	32082
777.691	5103
777.798	2664
777.904	2628
778.010	1975
778.117	1471
778.223	958
778.329	388
778.435	703
778.542	874
778.648	700
778.754	331
778.860	524
778.966	325
779.072	-355
779.178	336
779.284	742
779.391	-40
779.497	-150
779.603	1841
779.708	-164
779.815	2928
779.920	6821
780.026	9029
780.132	1370
780.238	-386
780.344	1258
780.450	543
780.556	300
780.661	-327
780.767	788
780.873	-198
780.979	212
781.085	-208
781.190	304
781.296	-1005
781.402	-678
781.507	-912
781.613	277
781.719	-377
781.824	246
781.930	-445
782.035	-246
782.141	-168
782.246	194
782.352	393
782.457	44
782.563	83
782.668	-835
782.773	-1029
782.879	-878
782.984	-163
783.090	365
783.195	252
783.300	-531
783.405	-1458
783.511	154
783.616	541
783.721	150
783.826	-570
783.932	-1094
784.037	205
784.142	-156
784.247	-1034
784.352	255
784.457	-868
784.562	405
784.667	-767
784.772	272
784.877	795
784.982	-18
785.087	-55
785.192	431
785.297	-964
785.402	56
785.507	88
785.611	-62
785.716	-671
785.821	-158
785.926	-734
786.031	152
786.135	-658
786.240	503
786.345	-1543
786.450	-420
786.554	-594
786.659	-180
786.763	-1226
786.868	799
786.973	-88
787.077	-996
787.182	-868
787.286	-115
787.391	-51
787.495	28
787.600	-676
787.704	-551
787.809	-607
787.913	-624
788.017	521
788.122	-472
788.226	-668
788.330	-485
788.435	-936
788.539	-295
788.643	-679
788.747	-176
788.852	-637
788.956	-235
789.060	-68
789.164	-83
789.268	-518
789.372	-166
789.476	-1113
789.580	-389
789.684	-1005
789.788	658
789.892	-1205
789.996	592
790.100	-267
790.204	-216
790.308	-176
790.412	65
790.516	352
790.620	-1242
790.724	-8
790.828	-351
790.931	-996
791.035	1208
791.139	-440
791.242	-678
791.346	800
791.450	858
791.554	-943
791.657	272
791.761	430
791.864	871
791.968	343
792.072	463
792.175	-170
792.279	573
792.382	197
792.486	863
792.589	-380
792.693	386
792.796	-888
792.899	1118
793.003	285
793.106	229
793.209	100
793.313	1746
793.416	-1685
793.519	1176
793.623	-116
793.726	-232
793.829	-203
793.932	492
794.035	-1054
794.138	746
794.242	169
794.345	1625
794.448	863
794.551	1154
794.654	5940
794.757	7877
794.860	889
794.963	1541
795.066	1525
795.169	2254
795.272	-269
795.375	-333
795.477	-316
795.580	159
795.683	-1648
795.786	166
795.889	-1314
795.991	341
796.094	437
796.197	-1788
796.300	1042
796.402	-621
796.505	-911
796.608	-305
796.710	-557
796.813	-5
796.915	-443
797.018	324
797.120	75
797.223	-1867
797.326	-88
797.428	-563
797.530	-914
797.633	-272
797.735	106
797.838	-696
797.940	-471
798.042	-554
798.145	-227
798.247	769
798.349	-1023
798.452	1058
798.554	-379
798.656	-1564
798.758	-531
798.860	-463
798.962	-1214
799.065	-382
799.167	-1540
799.269	735
799.371	120
799.473	-96
799.575	-1262
799.677	-1190
799.779	-387
799.881	-1286
799.983	-199
800.085	-632
800.187	-1653
800.289	-416
800.390	-843
800.492	-462
800.594	335
800.696	-425
800.798	-512
800.899	-1159
801.001	-1309
801.103	-578
801.205	-1112
801.306	-557
801.408	-1639
801.509	-81
801.611	-416
801.713	-796
801.814	-1453
801.916	-274
802.017	-265
802.119	-1278
802.220	-549
802.322	-1615
802.423	-149
802.525	-1243
802.626	-837
802.727	81
802.829	-385
802.930	-1640
803.031	656
803.133	-468
803.234	-828
803.335	-618
803.436	-1331
803.538	-170
803.639	-1481
803.740	103
803.841	-657
803.942	-161
804.043	-276
804.144	-1268
804.245	-1193
804.346	-911
804.447	-873
804.548	-1234
804.649	-21
804.750	-1450
804.851	-884
804.952	-78
805.053	-914
805.154	-1375
805.255	-451
805.355	-437
805.456	-1346
805.557	-1276
805.658	-1225
805.758	232
805.859	-1647
805.960	-622
806.061	-1081
806.161	-802
806.262	-547
806.362	-237
806.463	-1208
806.564	-141
806.664	-617
806.765	-705
806.865	-1054
806.966	-259
807.066	-1446
807.166	-199
807.267	-902
807.367	-627
807.468	33
807.568	-1647
807.668	-21
807.769	-361
807.869	-1380
807.969	-374
808.069	-203
808.170	-533
808.270	-363
808.370	-353
808.470	-871
808.570	-2010
808.670	-610
808.770	-274
808.870	-1226
808.970	-331
809.070	-1103
809.170	-336
809.271	-965
809.370	-655
809.470	337
809.570	-757
809.670	-1162
809.770	-237
809.870	-838
809.970	-1024
810.070	-179
810.169	-621
810.269	-782
810.369	739
810.469	-1109
810.568	-1244
810.668	-1936
810.768	-531
810.867	-467
810.967	-635
811.066	-1270
811.166	-1319
811.265	-355
811.365	-782
811.464	-1390
811.564	302
811.663	-237
811.763	-1854
811.862	-737
811.962	-520
812.061	-1317
812.160	-960
812.260	-898
812.359	-359
812.458	-1052
812.557	304
812.657	-1622
812.756	170
812.855	-1659
812.954	-1356
813.053	-639
813.153	-471
813.252	-2025
813.351	-520
813.450	-1644
813.549	-2004
813.648	-1077
813.747	-777
813.846	-315
813.945	-1588
814.044	-1409
814.143	-693
814.242	67
814.341	-889
814.439	-1084
814.538	-216
814.637	-1112
814.736	-860
814.835	-343
814.933	-1356
815.032	-1123
815.131	-1282
815.229	-1363
815.328	-546
815.427	-625
815.525	-479
815.624	-803
815.722	-913
815.821	-615
815.919	-1475
816.018	-2083
816.116	-421
816.215	-1536
816.313	-346
816.412	-1523
816.510	-542
816.609	181
816.707	-145
816.805	-1049
816.904	-288
817.002	-271
817.100	360
817.198	-249
817.296	-939
817.395	-623
817.493	1153
817.591	-1009
817.689	-166
817.787	-989
817.885	474
817.983	136
818.081	4498
818.179	10248
818.277	27624
818.375	20205
818.473	15925
818.571	7328
818.669	6220
818.767	13139
818.865	7074
818.963	1501
819.061	1593
819.158	2940
819.256	9687
819.354	24275
819.452	50152
819.549	18717
819.647	4684
819.745	1258
819.842	1791
819.940	1314
820.038	2717
820.135	14
820.233	1069
820.330	-68
820.428	-1308
820.525	483
820.623	-159
820.720	-1072
820.818	665
820.915	1634
821.012	4748
821.110	3451
821.207	1938
821.304	1210
821.402	5658
821.499	13154
821.596	31214
821.693	17506
821.791	2495
821.888	794
821.985	1454
822.082	2468
822.179	6889
822.276	11701
822.373	7025
822.470	679
822.567	34
822.664	-256
822.761	473
822.858	-786
822.955	880
823.052	-1083
823.149	-796
823.246	-906
823.343	-664
823.440	-520
823.536	-1053
823.633	-1386
823.730	-1154
823.827	-936
823.923	367
824.020	2422
824.117	4860
824.213	10769
824.310	5545
824.407	-109
824.503	333
824.600	-348
824.696	-647
824.793	-163
824.889	-1738
824.986	-1058
825.082	-1448
825.179	-324
825.275	-834
825.371	-1770
825.468	-165
825.564	-1982
825.660	-1179
825.757	-1080
825.853	-72
825.949	-1129
826.045	-125
826.142	-1344
826.238	-1854
826.334	-976
826.430	-2183
826.526	-283
826.622	-1510
826.718	-1305
826.814	-1268
826.910	-142
827.006	-746
827.102	-1551
827.198	325
827.294	-1818
827.390	-1052
827.486	-962
827.582	-1251
827.678	-2098
827.774	-163
827.869	-2183
827.965	-142
828.061	-1550
828.157	-1469
828.252	-1188
828.348	-1833
828.444	-681
828.539	-949
828.635	-751
828.731	-164
828.826	-2100
828.922	-891
829.017	-1902
829.113	-21
829.208	-1631
829.304	-1257
829.399	-400
829.495	-1227
829.590	-429
829.685	-1551
829.781	-1092
829.876	-1145
829.971	-1312
830.066	-978
830.162	-1821
830.257	-1988
830.352	-1012
830.447	-581
830.543	-1686
830.638	-1085
830.733	-918
830.828	-1103
830.923	-311
831.018	-1446
831.113	-1146
831.208	-1005
831.303	-1498
831.398	-373
831.493	-1059
831.588	-1238
831.683	-1798
831.778	-5
831.873	-537
831.967	138
832.062	-1773
832.157	-1704
832.252	-562
832.346	-1614
832.441	-634
832.536	-878
832.631	-1282
832.725	-1063
832.820	-909
832.914	-2195
833.009	-1916
833.104	-952
833.198	-839
833.293	-1514
833.387	-1232
833.482	-1415
833.576	-1522
833.670	-402
833.765	-1069
833.859	-1852
833.954	-1241
834.048	-1298
834.142	-788
834.237	-1617
834.331	-1652
834.425	-885
834.519	-1608
834.613	-294
834.708	-1954
834.802	-865
834.896	-2229
834.990	-1037
835.084	-943
835.178	-1089
835.272	-1298
835.366	-942
835.460	-138
835.554	-442
835.648	-1814
835.742	-894
835.836	-1426
835.930	-1604
836.024	-825
836.117	-855
836.211	-896
836.305	-1502
836.399	-326
836.493	-1577
836.586	-1185
836.680	-560
836.774	-1897
836.867	573
836.961	-1535
837.055	-1927
837.148	-1362
837.242	-790
837.335	-2107
837.429	-1371
837.522	-2407
837.616	-1588
837.709	-1002
837.803	-1116
837.896	-936
837.989	-754
838.083	-1683
838.176	-1491
838.269	-1824
838.363	-867
838.456	-1237
838.549	-875
838.642	-1457
838.735	-1012
838.829	-1712
838.922	-2138
839.015	-967
839.108	-1514
839.201	-1711
839.294	-1033
839.387	-394
839.480	-1437
839.573	-1083
839.666	-1017
839.759	-789
839.852	-2013
839.945	-1162
840.038	-1344
840.131	-1399
840.223	-1041
840.316	-978
840.409	-1946
840.502	-2120
840.594	-189
840.687	-1448
840.780	-517
840.873	-825
840.965	-1143
841.058	-1203
841.150	-1338
841.243	-2037
841.336	-1404
841.428	-1976
841.521	-1102
841.613	-1822
841.706	-1145
841.798	-1104
841.890	-762
841.983	-2041
842.075	-379
842.167	-1752
842.260	-715
842.352	-376
842.444	-1221
842.537	-1021
842.629	-87
842.721	-1678
842.813	-639
842.905	-2506
842.997	-723
843.090	-1208
843.182	-687
843.274	-2168
843.366	-1277
843.458	-1152
843.550	149
843.642	-1180
843.734	-1441
843.826	-1280
843.918	-974
844.009	-210
844.101	95
844.193	714
844.285	1206
844.377	5399
844.469	11983
844.560	24220
844.652	23471
844.744	6823
844.835	1524
844.927	43
845.019	-663
845.110	-1441
845.202	-769
845.293	-1851
845.385	-823
845.476	-935
845.568	-945
845.659	-1697
845.751	89
845.842	-1069
845.934	-1068
846.025	-1505
846.116	-453
846.208	-1918
846.299	-1776
846.390	-260
846.482	-521
846.573	-682
846.664	-762
846.755	-2230
846.846	-750
846.937	-1400
847.029	-1054
847.120	-1427
847.211	-1736
847.302	-314
847.393	-1678
847.484	-1486
847.575	-1020
847.666	-1642
847.757	-568
847.847	-1496
847.938	-653
848.029	-1174
848.120	-966
848.211	-1804
848.302	-807
848.392	-1189
848.483	-793
848.574	-1766
848.664	-788
848.755	-1613
848.846	-694
848.936	-1890
849.027	-432
849.118	-1155
849.208	-1938
849.299	-990
849.389	-1277
849.480	-900
849.570	-808
849.661	-834
849.751	72
849.841	-1390
849.932	-993
850.022	-1586
850.112	80
850.203	-907
850.293	-1059
850.383	-941
850.474	-1167
850.564	-1599
850.654	-377
850.744	-972
850.834	-656
850.924	-982
851.014	-1481
851.104	-2047
851.194	-1404
851.284	-578
851.374	-910
851.464	-1632
851.554	-346
851.644	-1581
851.734	-230
851.824	-1232
851.914	-1977
852.004	-904
852.094	-1612
852.183	-1420
852.273	-893
852.363	-1209
852.452	-958
852.542	-1730
852.632	-680
852.721	-1961
852.811	-927
852.901	-841
852.990	-657
853.080	-1397
853.169	-850
853.259	-1513
853.348	-1341
853.438	-1744
853.527	-1162
853.617	-1473
853.706	-320
853.795	-414
853.885	1370
853.974	2780
854.063	7802
854.152	8143
854.242	1565
854.331	-1655
854.420	-722
854.509	-1159
854.598	-563
854.687	-1699
854.777	-675
854.866	-1289
854.955	-1206
855.044	-1406
855.133	-617
855.222	-522
855.311	-1458
855.400	-938
855.488	-275
855.577	-492
855.666	-766
855.755	-580
855.844	-377
855.933	-606
856.021	-908
856.110	-1133
856.199	-1291
856.288	-925
856.376	-323
856.465	-962
856.554	484
856.642	-143
856.731	1778
856.819	-198
856.908	-1383
856.996	-1957
857.085	-1446
857.173	-1516
857.262	-830
857.350	-1031
857.438	-1929
857.527	-690
857.615	-470
857.703	-677
857.792	-1903
857.880	-946
857.968	-1952
858.056	-1018
858.145	-175
858.233	-1337
858.321	-1712
858.409	-797
858.497	-1197
858.585	-2538
858.673	-416
858.761	-1684
858.849	-776
858.937	-1519
859.025	122
859.113	13
859.201	453
859.289	2575
859.377	2949
859.465	656
859.552	-875
859.640	-1164
859.728	-1205
859.816	-954
859.903	-921
859.991	-1089
860.079	299
860.166	-1593
860.254	-1406
860.342	-1178
860.429	-1048
860.517	-2122
860.604	-949
860.692	-1373
860.779	-1254
860.867	-1597
860.954	-1092
861.042	-1337
861.129	-552
861.216	-1779
861.304	-1376
861.391	-1315
861.478	-1266
861.565	-885
861.653	-729
861.740	-2291
861.827	-1387
861.914	-1154
862.001	-1095
862.089	-1198
862.176	-971
862.263	-1513
862.350	-1159
862.437	-944
862.524	223
862.611	825
862.698	4038
862.785	7368
862.871	9685
862.958	2827
863.045	77
863.132	-407
863.219	-1009
863.306	-1721
863.392	-797
863.479	-1217
863.566	-394
863.652	-827
863.739	-1050
863.826	-701
863.912	-282
863.999	-1893
864.086	-1265
864.172	-1500
864.259	-2003
864.345	-1669
864.432	-802
864.518	-622
864.604	-760
864.691	-975
864.777	-242
864.863	-1357
864.950	-829
865.036	-936
865.122	-342
865.209	-658
865.295	-152
865.381	-284
865.467	801
865.553	1088
865.639	-1073
865.726	-291
865.812	451
865.898	-15
865.984	572
866.070	3608
866.156	3830
866.242	-712
866.328	-304
866.414	-1551
866.499	-795
866.585	-885
866.671	-16
866.757	-1805
866.843	-604
866.928	-990
867.014	-1063
867.100	-983
867.186	-272
867.271	-756
867.357	149
867.442	-226
867.528	221
867.614	2822
867.699	7797
867.785	11588
867.870	21041
867.956	28157
868.041	15389
868.127	10096
868.212	15548
868.297	14567
868.383	5657
868.468	5621
868.553	6223
868.639	1574
868.724	-175
868.809	-488
868.894	-672
868.979	-1269
869.065	-1100
869.150	-2353
869.235	-776
869.320	-1928
869.405	-1223
869.490	-1371
869.575	-1727
869.660	-1643
869.745	-671
869.830	-1014
869.915	-291
870.000	425
870.085	1901
870.169	2778
870.254	4753
870.339	453
870.424	-162
870.509	-793
870.593	-866
870.678	-1183
870.763	-546
870.847	698
870.932	1468
871.016	4607
871.101	5473
871.186	848
871.270	-752
871.355	-653
871.439	643
871.523	-268
871.608	1300
871.692	2597
871.777	5192
871.861	1704
871.945	-1013
872.030	-1361
872.114	-824
872.198	-1602
872.282	-1836
872.367	-1094
872.451	-643
872.535	-883
872.619	-539
872.703	-824
872.787	-1159
872.871	-1447
872.955	-461
873.039	-1380
873.123	-513
873.207	-1994
873.291	-1269
873.375	-1814
873.459	-1541
873.543	-1982
873.627	-1320
873.711	-810
873.794	-598
873.878	-835
873.962	-962
874.045	-403
874.129	-917
874.137	-914
874.213	-889
874.245	-958
874.296	-1074
874.352	-768
874.380	-616
874.460	-1133
874.464	-1154
874.547	-1155
874.568	-868
874.631	-64
874.676	-977
874.714	-1720
874.784	-535
874.798	-301
874.881	89
874.892	-99
874.965	-1419
874.999	-1112
875.048	-683
875.107	-509
875.131	-439
875.215	-216
875.215	-216
875.298	-1295
875.323	-1488
875.381	-1905
875.430	-1239
875.465	-769
875.538	-1099
875.548	-1142
875.631	-1150
875.646	-1274
875.714	-1992
875.753	-1644
875.798	-1136
875.861	-1458
875.881	-1596
875.964	-1306
875.968	-1296
876.047	-951
876.076	-602
876.130	-25
876.183	-1367
876.213	-2116
876.291	-562
876.296	-460
876.379	-1407
876.398	-1213
876.462	-462
876.506	-676
876.545	-885
876.613	-1053
876.628	-1076
876.711	-1105
876.721	-1061
876.794	-919
876.828	-1000
876.877	-985
876.935	-975
876.960	-1004
877.043	-840
877.043	-839
877.125	-514
877.150	-626
877.208	-738
877.258	-449
877.291	-292
877.365	-979
877.374	-1077
877.456	-729
877.472	-695
877.539	-386
877.579	-503
877.622	-714
877.687	-1225
877.704	-1319
877.787	-1086
877.794	-1101
877.869	-1515
877.901	-1343
877.952	-993
878.008	-1212
878.034	-1205
878.115	-917
878.117	-915
878.199	-939
878.222	-768
878.282	-393
878.329	-551
878.364	-646
878.437	-945
878.447	-984
878.529	-1054
878.544	-999
878.611	-714
878.651	-782
878.694	-749
878.758	-849
878.776	-922
878.858	-685
878.865	-707
878.941	-988
878.972	-1105
879.023	-1272
879.078	-1115
879.105	-985
879.185	-497
879.187	-491
879.269	-635
879.292	-825
879.351	-1204
879.399	-1282
879.433	-1254
879.506	-1190
879.516	-1215
879.598	-810
879.613	-894
879.680	-993
879.720	-798
879.762	-719
879.827	-1312
879.844	-1437
879.926	-711
879.933	-777
880.007	-1484
880.040	-1324
880.089	-899
880.147	-948
880.171	-1062
880.253	-835
880.254	-838
880.335	-652
880.360	-510
880.417	-150
880.467	-546
880.499	-816
880.574	-186
880.580	-121
880.662	-697
880.680	-610
880.744	-299
880.787	-343
880.825	-449
880.893	-83
880.907	-59
880.989	-768
881.000	-810
881.070	-359
881.106	-381
881.152	-748
881.213	-646
881.233	-556
881.315	-769
881.319	-742
881.396	-322
881.426	-534
881.478	-830
881.532	-468
881.559	-305
881.639	-484
881.641	-480
881.722	-80
881.745	-70
881.803	-342
881.852	-384
881.885	-384
881.958	-667
881.966	-691
882.047	-701
882.064	-793
882.129	-900
882.171	-669
882.210	-428
882.277	-528
882.291	-674
882.372	-676
882.383	-808
882.454	-881
882.489	-754
882.535	-847
882.596	-747
882.616	-730
882.697	-805
882.702	-809
882.778	-392
882.808	-320
882.859	-437
882.914	-369
882.940	-364
883.020	-779
883.021	-779
883.102	-849
883.127	-748
883.183	-293
883.233	-185
883.264	-317
883.339	-770
883.345	-773
883.426	-875
883.445	-746
883.507	-263
883.551	-475
883.587	-693
883.657	-480
883.668	-415
883.749	-211
883.763	-134
883.830	-386
883.869	-831
883.910	-713
883.975	124
883.991	220
884.072	193
884.081	190
884.152	-50
884.187	-303
884.233	-418
884.292	-131
884.314	-128
884.394	-891
884.398	-906
884.475	-443
884.504	-324
884.555	-219
884.610	158
884.636	79
884.716	-869
884.716	-866
884.797	-338
884.821	-197
884.877	116
884.927	21
884.958	-184
885.033	-187
885.038	-174
885.118	-10
885.139	-34
885.199	-286
885.244	-322
885.279	-105
885.350	-211
885.359	-287
885.439	-421
885.456	-546
885.520	-370
885.561	155
885.600	274
885.667	-207
885.680	-196
885.760	291
885.773	321
885.840	11
885.878	-197
885.920	-168
885.984	-20
886.000	-157
886.080	-581
886.089	-672
886.160	-766
886.195	-688
886.240	-432
886.300	-357
886.320	-448
886.400	-584
886.406	-609
886.480	-782
886.511	-743
886.560	-289
886.616	22
886.640	-0
886.720	-66
886.722	-73
886.800	-504
886.827	-648
886.879	-376
886.932	-223
886.959	-205
887.038	-52
887.039	-41
887.119	304
887.143	407
887.198	279
887.248	133
887.278	258
887.354	525
887.358	493
887.437	-306
887.459	-515
887.517	167
887.564	666
887.596	434
887.669	20
887.676	39
887.755	109
887.774	134
887.835	170
887.880	198
887.914	55
887.985	-285
887.994	-148
888.073	1007
888.090	1255
888.153	368
888.195	-294
888.232	49
888.300	816
888.311	797
888.391	465
888.405	407
888.470	232
888.510	129
888.549	352
888.615	724
888.628	657
888.708	96
888.720	35
888.787	207
888.825	217
888.866	461
888.930	872
888.945	798
889.024	351
889.035	298
889.103	699
889.140	851
889.182	818
889.245	829
889.261	736
889.340	221
889.349	159
889.419	186
889.454	199
889.498	306
889.559	463
889.577	554
889.656	920
889.664	954
889.735	882
889.768	838
889.814	798
889.873	741
889.978	1508
890.083	702
890.187	748
890.292	97
890.397	-190
890.501	1100
890.606	488
890.710	662
890.815	1358
890.919	531
891.024	222
891.128	602
891.233	530
891.337	1630
891.442	952
891.546	388
891.650	635
891.755	818
891.859	1511
891.963	-163
892.068	644
892.172	-97
892.276	-364
892.380	121
892.484	46
892.589	235
892.693	215
892.797	242
892.901	156
893.005	-40
893.109	-357
893.213	409
893.317	187
893.421	438
893.525	394
893.629	-122
893.733	-97
893.837	136
893.941	38
894.045	482
894.148	492
894.252	1382
894.356	-63
894.460	580
894.564	-748
894.667	527
894.771	-170
894.875	399
894.978	241
895.082	80
895.186	464
895.289	565
895.393	768
895.496	-363
895.600	-648
895.703	-111
895.807	-356
895.910	-423
896.014	-24
896.117	-684
896.221	653
896.324	-7
896.427	469
896.531	480
896.634	398
896.737	342
896.840	65
896.944	22
897.047	309
897.150	-851
897.253	-1005
897.356	672
897.460	-804
897.563	-476
897.666	-991
897.769	-903
897.872	-538
897.975	-251
898.078	-536
898.181	-425
898.284	112
898.387	-266
898.490	15
898.593	39
898.695	-46
898.798	-167
898.901	-270
899.004	139
899.107	-118
899.209	-118
899.312	-556
899.415	338
899.518	446
899.620	859
899.723	316
899.826	177
899.928	-26
900.031	-681
900.133	53
900.236	-316
900.338	-484
900.441	263
900.543	-472
900.646	460
900.748	-403
900.851	233
900.953	-229
901.055	452
901.158	14
901.260	3
901.362	764
901.465	48
901.567	-118
901.669	648
901.771	-213
901.873	-337
901.976	285
902.078	219
902.180	-560
902.282	201
902.384	-461
902.486	-94
902.588	500
902.690	224
902.792	1125
902.894	246
902.996	307
903.098	-715
903.200	-662
903.302	-355
903.404	78
903.505	284
903.607	-467
903.709	52
903.811	38
903.913	264
904.014	378
904.116	69
904.218	234
904.319	684
904.421	1790
904.523	2398
904.624	741
904.726	1288
904.827	608
904.929	953
905.030	506
905.132	998
905.233	-154
905.335	356
905.436	-201
905.537	-28
905.639	250
905.740	72
905.841	119
905.943	612
906.044	1167
906.145	867
906.247	-125
906.348	673
906.449	-59
906.550	-294
906.651	318
906.752	464
906.854	-864
906.955	534
907.056	133
907.157	180
907.258	-41
907.359	-128
907.460	248
907.561	-558
907.662	-78
907.762	28
907.863	-621
907.964	-363
908.065	-414
908.166	-596
908.267	-316
908.367	-368
908.468	-562
908.569	92
908.670	-577
908.770	-109
908.871	26
908.971	-25
909.072	-67
909.173	-218
909.273	74
909.374	-532
909.474	-824
909.575	-73
909.675	-97
909.776	231
909.876	319
909.977	-202
910.077	-142
910.177	531
910.278	97
910.378	-45
910.478	-1004
910.579	-592
910.679	-1231
910.779	242
910.879	632
910.980	33
911.080	-427
911.180	370
911.280	-781
911.380	-494
911.480	-70
911.580	-279
911.680	-49
911.780	-725
911.880	-624
911.980	101
912.080	249
912.180	347
912.280	48
912.380	-114
912.480	298
912.580	-129
912.679	-80
912.779	459
912.879	119
912.979	-790
913.078	15
913.178	-718
913.278	-866
913.377	-78
913.477	-379
913.577	63
913.676	333
913.776	-230
913.875	-172
913.975	193
914.074	-716
914.174	20
914.273	-533
914.373	475
914.472	-356
914.572	-815
914.671	-376
914.770	-481
914.870	397
914.969	-167
915.068	-443
915.167	-4
915.267	303
915.366	-31
915.465	-231
915.564	313
915.663	398
915.763	7
915.862	22
915.961	-97
916.060	-306
916.159	178
916.258	-649
916.357	-742
916.456	779
916.555	31
916.654	161
916.752	-240
916.851	-414
916.950	-657
917.049	749
917.148	125
917.247	135
917.345	-631
917.444	-493
917.543	584
917.642	-372
917.740	-1046
917.839	-36
917.937	772
918.036	298
918.135	-609
918.233	406
918.332	-500
918.430	45
918.529	702
918.627	-70
918.726	-170
918.824	-736
918.923	21
919.021	-650
919.119	508
919.218	-612
919.316	-763
919.414	-191
919.512	-300
919.611	-289
919.709	197
919.807	-108
919.905	-327
920.003	-175
920.102	-724
920.200	-107
920.298	69
920.396	-493
920.494	210
920.592	-101
920.690	-74
920.788	-199
920.886	285
920.984	-275
921.082	-471
921.180	515
921.277	-908
921.375	-568
921.473	-717
921.571	-346
921.669	-762
921.766	-709
921.864	158
921.962	-451
922.060	234
922.157	259
922.255	-726
922.352	-781
922.450	484
922.548	-346
922.645	-573
922.743	-521
922.840	-203
922.938	-460
923.035	2
923.133	-770
923.230	-54
923.327	-711
923.425	-491
923.522	-408
923.619	-318
923.717	-681
923.814	30
923.911	-271
924.008	452
924.106	-188
924.203	-137
924.300	-1772
924.397	-455
924.494	294
924.591	-187
924.688	-483
924.786	116
924.883	-338
924.979	-917
925.077	1172
925.173	-89
925.270	416
925.367	-240
925.464	74
925.561	723
925.658	43
925.755	445
925.852	157
925.948	1096
926.045	1570
926.142	2255
926.239	2903
926.335	2968
926.432	3163
926.529	3607
926.625	2752
926.722	2667
926.818	1215
926.915	736
927.011	-558
927.108	-360
927.204	-383
927.301	-41
927.397	136
927.494	-588
927.590	184
927.687	-587
927.783	-6
927.879	-685
927.976	-411
928.072	-63
928.168	-222
928.264	218
928.361	-422
928.457	-54
928.553	-675
928.649	-502
928.745	27
928.841	362
928.937	-253
929.033	64
929.129	-896
929.225	-595
929.321	-114
929.417	-1145
929.513	-291
929.609	-421
929.705	-588
929.801	465
929.897	-1399
929.993	-473
930.089	-347
930.184	-269
930.280	-144
930.376	471
930.471	-278
930.567	-422
930.663	94
930.758	-1078
930.854	-996
930.950	-785
931.045	-746
931.141	-1017
931.236	147
931.332	-574
931.427	-317
931.523	-571
931.618	-315
931.714	-461
931.809	-282
931.905	-918
932.000	-569
932.095	-135
932.191	-423
932.286	-648
932.381	-780
932.476	-502
932.572	-704
932.667	-1056
932.762	-132
932.857	-260
932.952	-57
933.047	-649
933.142	-1039
933.237	-777
933.332	-691
933.427	-412
933.522	-393
933.617	-1070
933.712	-70
933.807	-622
933.902	-34
933.997	-1125
934.092	-335
934.187	-279
934.282	-78
934.376	-925
934.471	-544
934.566	-549
934.661	-405
934.755	-388
934.850	-995
934.945	-1160
935.039	-826
935.134	-1061
935.228	-748
935.323	-804
935.417	-55
935.512	-539
935.606	-951
935.701	-555
935.795	-949
935.890	-735
935.984	-703
936.079	-389
936.173	-580
936.267	-493
936.362	-1156
936.456	-488
936.550	-632
936.644	-305
936.738	111
936.833	-624
936.927	-211
937.021	-541
937.115	-675
937.209	-1104
937.303	-121
937.397	-196
937.491	-663
937.585	-711
937.679	-76
937.773	162
937.867	-33
937.961	-116
938.055	-1395
938.149	208
938.243	-150
938.337	308
938.430	-412
938.524	984
938.618	3584
938.712	3437
938.805	770
938.899	-998
938.993	229
939.086	1494
939.180	4810
939.274	6667
939.367	981
939.461	161
939.554	-830
939.648	160
939.741	-1335
939.835	-521
939.928	-813
940.022	-798
940.115	-508
940.208	-263
940.302	-591
940.395	-969
940.488	-1683
940.582	-60
940.675	-1197
940.768	-669
940.861	-747
940.954	-72
941.048	-385
941.141	754
941.234	1185
941.327	5896
941.420	6068
941.513	1893
941.606	-736
941.699	-605
941.792	-727
941.885	-133
941.978	-460
942.071	-655
942.164	-1414
942.257	-1008
942.349	82
942.442	-301
942.535	-345
942.628	-305
942.721	-579
942.813	-1582
942.906	66
942.999	-117
943.091	-721
943.184	-813
943.277	-792
943.369	13
943.462	-233
943.554	-440
943.647	-1405
943.739	-295
943.832	-1109
943.924	-983
944.017	-286
944.109	-1336
944.201	-1038
944.294	-992
944.386	-840
944.478	-1121
944.571	-536
944.663	-655
944.755	-717
944.847	-1247
944.940	-1062
945.032	-1162
945.124	-1338
945.216	-1335
945.308	-1014
945.400	-874
945.492	-305
945.584	-1232
945.676	-615
945.768	-1058
945.860	-1274
945.952	-250
946.044	926
946.136	-1213
946.228	-294
946.320	-404
946.412	-659
946.503	-1317
946.595	-475
946.687	-1201
946.779	-1349
946.870	-1189
946.962	-858
947.054	-1225
947.145	-1548
947.237	-973
947.329	-921
947.420	-1770
947.512	-1235
947.603	-1300
947.695	-786
947.786	-1423
947.878	-1663
947.969	-125
948.061	-2461
948.152	-1279
948.243	-763
948.335	-604
948.426	-1109
948.517	-1125
948.609	-460
948.700	-1152
948.791	-659
948.882	-1370
948.973	-1238
949.065	-1440
949.156	-1344
949.247	-881
949.338	-1475
949.429	-1164
949.520	-657
949.611	-949
949.702	-1073
949.793	-802
949.884	-1170
949.975	-1811
950.066	-1465
950.157	-882
950.247	-1265
950.338	-1449
950.429	-1203
950.520	-1006
950.611	-1229
950.701	-1169
950.792	-847
950.883	-178
950.973	-1405
951.064	-1119
951.155	-1529
951.245	-463
951.336	-1422
951.427	-944
951.517	-1441
951.608	-1184
951.698	-1090
951.788	-389
951.879	-1286
951.969	-1000
952.060	-1496
952.150	-1562
952.240	-611
952.331	-2136
952.421	90
952.511	-1819
952.602	-1029
952.692	-1634
952.782	-1386
952.872	-929
952.962	-965
953.052	-1210
953.143	-1310
953.233	-1544
953.323	-984
953.413	-1651
953.503	-909
953.593	-952
953.683	-1377
953.773	-1510
953.863	-509
953.953	-1232
954.042	-768
954.132	-1176
954.222	-788
954.312	-2272
954.402	-791
954.492	-520
954.581	-938
954.671	-2188
954.761	-1046
954.850	-416
954.940	-1150
955.030	-770
955.119	-468
955.209	-947
955.298	-1567
955.388	-1473
955.477	-516
955.567	-1060
955.656	-1195
955.746	-849
955.835	-586
955.925	-1517
956.014	-777
956.103	-1477
956.193	-945
956.282	-686
956.371	-1030
956.461	-1844
956.550	-1287
956.639	-1029
956.728	-1053
956.817	-1280
956.906	-1785
956.995	-90
957.085	-883
957.174	-297
957.263	-328
957.352	-1229
957.441	-254
957.530	-1109
957.619	-377
957.708	-943
957.796	-1157
957.885	-760
957.974	-995
958.063	-481
958.152	-1427
958.241	93
958.329	-970
958.418	-1053
958.507	-374
958.596	95
958.684	-1382
958.773	-863
958.861	-663
958.950	35
959.039	490
959.127	-476
959.216	-893
959.304	-226
959.393	-290
959.481	-327
959.570	-239
959.658	-513
959.746	-145
959.835	-85
959.923	-299
960.011	-1356
960.100	-172
960.188	-1120
960.276	-778
960.365	-588
960.453	-380
960.541	-657
960.629	-610
960.717	-1141
960.805	-1329
960.893	-389
960.981	-1600
961.069	-331
961.158	-1521
961.245	-698
961.333	-741
961.421	-1350
961.509	-864
961.597	-1131
961.685	-1491
961.773	-1258
961.861	-1617
961.949	-671
962.036	-2186
962.124	-1337
962.212	-1541
962.299	-1930
962.387	-1493
962.475	-1471
962.562	-1243
962.650	-1349
962.738	-865
962.825	-1525
962.913	-486
963.000	-1434
963.088	-833
963.175	-1454
963.263	-1259
963.350	-1567
963.438	-1901
963.525	-1916
963.612	-762
963.700	-1306
963.787	-761
963.874	-920
963.962	-167
964.049	-1206
964.136	-1597
964.223	-1836
964.310	-1339
964.398	-1808
964.485	-1196
964.572	-870
964.659	-1323
964.746	-1300
964.833	-1534
964.920	-521
965.007	-331
965.094	-1070
965.181	-934
965.268	-874
965.355	-1178
965.441	-1327
965.528	-2310
965.615	-253
965.702	-914
965.789	-2548
965.875	-1624
965.962	-1093
966.049	-1120
966.136	-1493
966.222	-1362
966.309	-771
966.395	-2587
966.482	-1229
966.569	-1712
966.655	-1116
966.742	-2225
966.828	-918
966.915	-1038
967.001	-1378
967.087	-1530
967.174	-1391
967.260	-751
967.347	-1909
967.433	-2005
967.519	-2041
967.605	-1296
967.692	-1106
967.778	-1310
967.864	-1343
967.950	-1807
968.036	-1955
968.123	-870
968.209	-2097
968.295	-2123
968.381	401
968.467	-1498
968.553	-1873
968.639	-1497
968.725	-2064
968.811	-1361
968.897	-1369
968.983	-645
969.069	-2193
969.154	-1098
969.240	-1191
969.326	-1875
969.412	-2088
969.497	-1464
969.583	-2297
969.669	-880
969.755	-2507
969.840	-2350
969.926	-1599
970.012	-1848
970.097	-932
970.183	-2039
970.268	-1509
970.354	-1744
970.439	-3458
970.525	-847
970.610	-2020
970.696	-1389
970.781	-1590
970.866	-1626
970.952	-1622
971.037	-1700
971.122	-1688
971.208	-1211
971.293	-1578
971.378	-1846
971.463	-1130
971.549	-893
971.634	-1231
971.719	-1726
971.804	-1981
971.889	-1514
971.974	-1576
972.059	-1191
972.144	-1243
972.229	-1041
972.314	-2355
972.399	-1921
972.484	-2420
972.569	-2324
972.654	-2177
972.739	-777
972.824	-1443
972.908	-1135
972.993	-1774
973.078	-1136
973.163	-1574
973.247	-753
973.332	-3581
973.417	-656
973.501	-2215
973.586	-1481
973.671	-1914
973.755	-1606
973.840	-1116
973.924	-1177
974.009	-1927
974.093	-1892
974.178	-470
974.262	-2601
974.346	-1875
974.431	-2224
974.515	-1694
974.600	-1994
974.684	-1095
974.768	-1969
974.852	-1115
974.937	-1924
975.021	-967
975.105	-1352
975.189	-1493
975.273	-877
975.358	-1820
975.442	-1827
975.526	-1034
975.610	-1952
975.694	-1689
975.778	-1030
975.862	-1391
975.946	-3055
976.030	-279
976.114	-1669
976.198	-1665
976.281	-2193
976.365	-1385
976.449	-1624
976.533	-1389
976.617	-2616
976.700	-1725
976.784	-1770
976.868	-2408
976.951	-1190
977.035	-1847
977.119	-1133
977.202	-3112
977.286	-1427
977.369	-1481
977.453	-1667
977.536	-1998
977.620	-1305
977.703	-1603
977.787	-2063
977.870	-1425
977.953	-1081
978.037	-2716
978.120	-735
978.203	-2642
978.287	-2164
978.370	-1926
978.453	-2032
978.536	-2243
978.620	-276
978.703	-1330
978.786	-2076
978.869	-1745
978.952	-2466
979.035	-528
979.118	-1517
979.201	-2510
979.284	-1330
979.367	-1997
979.450	-1037
979.533	-2012
979.616	-1692
979.699	-2480
979.782	-1485
979.865	-1967
979.948	-2171
980.030	-1821
980.113	-1397
980.196	-1921
980.279	-1007
980.361	-1693
980.444	-2767
980.526	-1496
980.609	-1616
980.692	-1645
980.774	-1499
980.857	-2434
980.939	-803
981.022	-1712
981.104	-1759
981.187	-1716
981.269	-1478
981.352	-1698
981.434	-2592
981.516	-2313
981.599	-460
981.681	-1115
981.763	-850
981.846	-1220
981.928	-1925
982.010	-2048
982.092	-2189
982.174	-1390
982.256	-2405
982.339	-1553
982.421	-1398
982.503	-2044
982.585	-2990
982.667	-1864
982.749	-2223
982.831	-1739
982.913	-2032
982.995	-831
983.077	-2351
983.158	-1149
983.240	-2659
983.322	-1747
983.404	-1687
983.486	-2367
983.568	-1916
983.649	-1428
983.731	-573
983.813	-1746
983.894	-778
983.976	-2495
984.058	-2484
984.139	-632
984.221	-2181
984.302	-699
984.384	-2012
984.465	-2348
984.547	-2130
984.628	-1939
984.710	-1075
984.791	-2180
984.872	-1365
984.954	-1709
985.035	-1393
985.116	-2214
985.198	-2285
985.279	-498
985.360	-2114
985.441	-1471
985.522	-1237
985.604	-1930
985.685	-3333
985.766	-752
985.847	-423
985.928	-2392
986.009	-1883
986.090	-1273
986.171	-1163
986.252	-1791
986.333	-1326
986.414	-1281
986.495	-1676
986.576	-1848
986.656	-859
986.737	-1444
986.818	-1498
986.899	-1965
986.980	-1971
987.060	-1283
987.141	-2263
987.222	-1004
987.302	-1382
987.383	-1708
987.464	-2013
987.544	-1497
987.625	-1872
987.705	-1275
987.786	-1844
987.866	-1674
987.947	-2224
988.027	-1948
988.108	-3116
988.188	-1730
988.268	-1094
988.349	-2160
988.429	-1517
988.509	-1370
988.589	-2191
988.670	-2646
988.750	-968
988.830	-2175
988.910	-1875
988.990	-1957
989.070	-2168
989.151	-1343
989.231	-2168
989.311	-1589
989.391	-1993
989.471	-2018
989.551	-1952
989.631	-2656
989.711	-1722
989.791	-1712
989.870	-2337
989.950	-1348
990.030	-2057
990.110	-2080
990.190	-2218
990.269	-1338
990.349	-2920
990.429	-1475
990.509	-1557
990.588	-2322
990.668	-1534
990.747	-939
990.827	-1912
990.907	-864
990.986	-1920
991.066	-1489
991.145	-2115
991.225	-1188
991.304	-2160
991.383	-1285
991.463	-1945
991.542	-838
991.622	-2138
991.701	-2424
991.780	-1390
991.859	-2125
991.939	-2043
992.018	-2315
992.097	-1559
992.176	-1569
992.256	-2098
992.335	-2110
992.414	-376
992.493	-1890
992.572	-2427
992.651	-1068
992.730	-1652
992.809	-1939
992.888	-2308
992.967	-1258
993.046	-1058
993.125	-2422
993.203	-1644
993.282	-1824
993.361	-1642
993.440	-1635
993.519	-1983
993.597	-1675
993.676	-2510
993.755	-351
993.834	-1531
993.912	-1744
993.991	-586
994.069	-2365
994.148	-1252
994.226	-2290
994.305	-1054
994.384	-1894
994.462	-833
994.540	-2368
994.619	-2251
994.697	-1660
994.776	-1568
994.854	-856
994.932	-2683
995.011	-1362
995.089	-2447
995.167	-1553
995.245	-1946
995.324	-2527
995.402	-1316
995.480	-2282
995.558	-1647
995.636	-3140
995.714	-1800
995.792	-1118
995.870	-3049
995.948	-2470
996.026	-1066
996.104	-2426
996.182	-878
996.260	-2100
996.338	-652
996.416	-2125
996.494	-2511
996.572	-1845
996.649	-1410
996.727	-2786
996.805	-1306
996.883	-1918
996.960	-2449
997.038	-2050
997.116	-1210
997.193	-2290
997.271	-1691
997.348	-2146
997.426	-1399
997.504	-2609
997.581	-996
997.658	-1016
997.736	-2675
997.813	-1711
997.891	-1023
997.968	-2194
998.046	-2291
998.123	-2787
998.200	-1336
998.277	-2847
998.355	-1686
998.432	-3417
998.509	-1512
998.586	-1424
998.663	-2044
998.741	-1528
998.818	-1939
998.895	-2415
998.972	-1784
999.049	-1160
999.126	-2560
999.203	-1742
999.280	-2075
999.357	-2215
999.434	-2259
999.511	-1553
999.587	-1756
999.664	-2139
999.741	-2233
999.818	-1196
999.895	-2421
999.971	-1842
1000.048	-2342
1000.125	-1167
1000.202	-2288
1000.278	-1816
1000.355	-1462
1000.431	-2626
1000.508	-1838
1000.584	-1811
1000.661	-1687
1000.738	-2773
1000.814	-1626
1000.890	-1884
1000.967	-1962
1001.043	-1039
1001.120	-3374
1001.196	-2508
1001.272	-1630
1001.349	-2272
1001.425	-1315
1001.501	-1914
1001.577	-2143
1001.654	-1677
1001.730	-2317
1001.806	-2454
1001.882	-2513
1001.958	-2030
1002.034	-1832
1002.110	-1318
1002.186	-1995
1002.262	-3151
1002.338	-2312
1002.414	-1201
1002.490	-1852
1002.566	-1839
1002.642	-2676
1002.718	-909
1002.794	-2917
1002.870	-2284
1002.945	-2166
1003.021	-1610
1003.097	-2486
1003.173	-766
1003.248	-1322
1003.324	-2018
1003.400	-1828
1003.475	-2229
1003.551	-2377
1003.626	-2021
1003.702	-2267
1003.777	-1865
1003.853	-2710
1003.928	-2157
1004.004	-1763
1004.079	-2100
1004.155	-1882
1004.230	-2003
1004.305	-1338
1004.381	-2701
1004.456	-1737
1004.531	-2180
1004.607	-1658
1004.682	-1553
1004.757	-1727
1004.832	-1946
1004.907	-2669
1004.982	-1876
1005.057	-2357
1005.133	-1441
1005.208	-2256
1005.283	-1691
1005.358	-957
1005.433	-1860
1005.508	-2002
1005.583	-3314
1005.657	-2225
1005.732	-2102
1005.807	-2658
1005.882	-2798
1005.957	-2247
1006.032	-1507
1006.106	-2837
1006.181	-1716
1006.256	-1880
1006.331	-3050
1006.405	-2168
1006.480	-1908
1006.554	-1957
1006.629	-1547
1006.704	-2422
1006.778	-2016
1006.853	-1607
1006.927	-2264
1007.002	-2781
1007.076	-1524
1007.150	-3256
1007.225	-2275
1007.299	-1386
1007.373	-2738
1007.448	-2011
1007.522	-2013
1007.596	-2394
1007.671	-1963
1007.745	-2138
1007.819	-2285
1007.893	-2678
1007.967	-2285
1008.041	-2615
1008.115	-2192
1008.190	-2416
1008.264	-2165
1008.338	-2995
1008.412	-2325
1008.486	-2635
1008.560	-1472
1008.633	-2548
1008.707	-2743
1008.781	-1313
1008.855	-2412
1008.929	-2805
1009.003	-2546
1009.076	-2063
1009.150	-2633
1009.224	-2415
1009.298	-1966
1009.371	-2990
1009.445	-1803
1009.519	-3004
1009.592	-2195
1009.666	-2161
1009.739	-1882
1009.813	-2218
1009.886	-1350
1009.960	-3120
1010.033	-1519
1010.107	-2329
1010.180	-3407
1010.253	-2468
1010.327	-2674
1010.400	-1610
1010.473	-2084
1010.547	-1681
1010.620	-2561
1010.693	-1262
1010.766	-2644
1010.840	-1720
1010.913	-2059
1010.986	-2800
1011.059	-1692
1011.132	-1555
1011.205	-1227
1011.278	-2357
1011.351	-952
1011.424	-1216
1011.497	-1869
1011.570	-2527
1011.643	-2127
1011.716	-2586
1011.789	-1501
1011.862	-1796
1011.934	-1681
1012.007	-3478
1012.080	-1896
1012.153	-2152
1012.225	-1721
1012.298	-2465
1012.371	-2357
1012.443	-2138
1012.516	-3561
1012.588	-1425
1012.661	-2452
1012.733	-3009
1012.806	-2211
1012.879	-2398
1012.951	-1879
1013.023	-2220
1013.096	-2332
1013.168	-2758
1013.241	-2015
1013.313	-3012
1013.385	-2424
1013.458	-2262
1013.530	-1669
1013.602	-2194
1013.674	-1900
1013.746	-3204
1013.819	-2805
1013.891	-2108
1013.963	-2767
1014.035	-2944
1014.107	-2522
1014.179	-2713
1014.251	-2698
1014.323	-1905
1014.395	-2714
1014.467	-2337
1014.539	-2174
1014.611	-2626
1014.683	-1930
1014.754	-1656
1014.826	-1949
1014.898	-2825
1014.970	-2986
1015.042	-1994
1015.113	-2069
1015.185	-2343
1015.257	-3876
1015.328	-2386
1015.400	-2983
1015.471	-2429
1015.543	-3047
1015.615	-2314
1015.686	-2436
1015.757	-2203
1015.829	-2406
1015.901	-3160
1015.972	-3359
1016.043	-1994
1016.115	-2011
1016.186	-2125
1016.257	-2389
1016.328	-2229
1016.400	-1801
1016.471	-3632
1016.542	-2432
1016.613	-2554
1016.685	-2574
1016.756	-2392
1016.827	-2238
1016.898	-2592
1016.969	-2214
1017.040	-2550
1017.111	-2927
1017.182	-3240
1017.253	-2433
1017.324	-2871
1017.395	-2868
1017.466	-2601
1017.537	-2990
1017.608	-2579
1017.678	-2999
1017.749	-3027
1017.820	-2663
1017.891	-3389
1017.961	-2250
1018.032	-3530
1018.103	-2825
1018.173	-2436
1018.244	-2136
1018.315	-2363
1018.385	-2302
1018.456	-2257
1018.526	-2920
1018.597	-2791
1018.667	-2499
1018.738	-2127
1018.808	-2995
1018.878	-2725
1018.949	-2660
1019.019	-3031
1019.089	-1807
1019.160	-3130
1019.230	-2392
1019.300	-2334
1019.371	-3104
1019.441	-2011
1019.511	-2753
1019.581	-2632
1019.651	-1838
1019.721	-2677
1019.791	-3078
1019.861	-2301
1019.931	-2922
1020.001	-2682
1020.071	-2345
1020.141	-2806
1020.211	-2588
1020.281	-3086
1020.351	-2288
1020.421	-2363
1020.491	-2709
1020.560	-2923
1020.630	-2426
1020.700	-2353
1020.770	-3031
1020.839	-2064
1020.909	-2234
1020.979	-2980
1021.048	-2767
1021.118	-2657
1021.187	-2997
1021.257	-2823
1021.326	-2480
1021.396	-3430
1021.465	-2399
1021.535	-2723
1021.604	-2932
1021.674	-2525
1021.743	-2086
1021.812	-3026
1021.882	-2344
1021.951	-2256
1022.020	-2045
1022.089	-2166
1022.159	-2239
1022.228	-2465
1022.297	-3084
1022.366	-3243
1022.435	-2543
1022.504	-2524
1022.573	-2967
1022.642	-3204
1022.711	-2759
1022.781	-2445
1022.849	-2667
1022.918	-3944
1022.987	-2910
1023.056	-2698
1023.125	-2106
1023.194	-2911
1023.263	-2619
1023.331	-2851
1023.400	-3013
1023.469	-3159
1023.538	-2187
1023.606	-3265
1023.675	-3239
1023.744	-2469
1023.812	-2540
1023.881	-2415
1023.949	-2888
1024.018	-2787
1024.086	-1998
1024.155	-2878
1024.223	-2667
1024.292	-2305
1024.360	-2377
1024.429	-2536
1024.497	-2805
1024.565	-2696
1024.634	-3040
1024.702	-1966
1024.770	-2873
1024.838	-2270
1024.907	-2968
1024.975	-3287
1025.043	-2498
1025.111	-3047
1025.179	-2554
1025.247	-1907
1025.315	-2759
1025.383	-2817
1025.451	-3127
1025.519	-3078
1025.587	-2123
1025.655	-2815
1025.723	-2744
1025.791	-2472
1025.859	-2919
1025.927	-2230
1025.995	-2464
1026.062	-2438
1026.130	-2032
1026.198	-2882
1026.266	-3187
1026.333	-2465
1026.401	-1712
1026.469	-3451
1026.536	-2758
1026.604	-2414
1026.671	-2641
1026.739	-2616
1026.806	-3438
1026.874	-3116
1026.941	-2640
1027.009	-3236
1027.076	-2490
1027.144	-2051
1027.211	-3456
1027.278	-3330
1027.345	-2636
1027.413	-2901
1027.480	-2782
1027.547	-3240
1027.614	-2208
1027.682	-2661
1027.749	-3057
1027.816	-2388
1027.883	-2438
1027.950	-1967
1028.017	-3507
1028.084	-2681
1028.151	-3690
1028.218	-2741
1028.285	-2426
1028.352	-2334
1028.419	-2840
1028.486	-2853
1028.553	-3124
1028.619	-2506
1028.686	-3356
1028.753	-2467
1028.820	-3099
1028.886	-2472
1028.953	-2682
1029.020	-3199
1029.086	-2685
1029.153	-2720
1029.220	-1759
1029.286	-2495
1029.353	-2849
1029.419	-2425
1029.486	-2283
1029.552	-2788
1029.619	-2829
1029.685	-2649
1029.751	-2475
1029.818	-2335
1029.884	-2755
1029.951	-2502
1030.017	-1894
1030.083	-2233
1030.149	-2537
1030.216	-2632
1030.282	-2733
1030.348	-2569
1030.414	-2793
1030.480	-2023
1030.546	-3207
1030.612	-3067
1030.678	-3144
1030.744	-3101
1030.810	-3417
1030.876	-2883
1030.942	-2858
1031.008	-3184
1031.074	-2694
1031.140	-3101
1031.206	-2303
1031.272	-3513
1031.337	-3226
1031.403	-1944
1031.469	-2539
1031.534	-1901
1031.600	-2403
1031.666	-2549
1031.731	-2886
1031.797	-2547
1031.863	-2449
1031.928	-3397
1031.994	-2950
1032.059	-3085
1032.125	-2489
1032.190	-2129
1032.256	-2486
1032.321	-2498
1032.386	-2823
1032.452	-2284
1032.517	-2885
1032.582	-3244
1032.647	-2779
1032.713	-2148
1032.778	-2785
1032.843	-3248
1032.908	-3402
1032.974	-2072
1033.039	-3149
1033.104	-2163
1033.169	-3037
1033.234	-2279
1033.299	-2256
1033.364	-3316
1033.429	-3327
1033.494	-2153
1033.559	-2766
1033.624	-3220
1033.688	-1973
1033.753	-2616
1033.818	-2380
1033.883	-2527
1033.948	-2607
1034.013	-2862
1034.077	-1771
1034.142	-2456
1034.207	-2633
1034.271	-2676
1034.336	-2086
1034.400	-2842
1034.465	-2461
1034.530	-2124
1034.594	-3193
1034.658	-2521
1034.723	-3083
1034.787	-3078
1034.852	-3146
1034.916	-2964
1034.981	-1944
1035.045	-1640
1035.109	-1876
1035.173	-2309
1035.238	-2830
1035.302	-2043
1035.366	-2505
1035.430	-2729
1035.495	-2856
1035.559	-2502
1035.623	-2647
1035.687	-3792
1035.751	-3222
1035.815	-2946
1035.879	-2505
1035.943	-2673
1036.007	-3129
1036.071	-2607
1036.135	-2043
1036.198	-2292
1036.262	-2731
1036.326	-2310
1036.390	-2330
1036.454	-2777
1036.517	-2338
1036.581	-2172
1036.645	-2550
1036.709	-2566
1036.772	-2444
1036.836	-2590
1036.900	-1963
1036.963	-2590
1037.026	-2768
1037.090	-2549
1037.154	-2750
1037.217	-2552
1037.280	-2641
1037.344	-2726
1037.407	-1995
1037.471	-2533
1037.534	-2240
1037.597	-2510
1037.661	-3112
1037.724	-1866
1037.787	-3076
1037.850	-2467
1037.913	-2342
1037.977	-1339
1038.040	-2865
1038.103	-2573
1038.166	-2920
1038.229	-2701
1038.292	-2911
1038.355	-2741
1038.418	-2788
1038.481	-2201
1038.544	-2872
1038.607	-2813
1038.670	-2000
1038.732	-3265
1038.795	-2631
1038.858	-2301
1038.921	-2058
1038.984	-2028
1039.046	-2831
1039.109	-2967
1039.172	-2412
1039.234	-3090
1039.297	-1910
1039.360	-2496
1039.422	-2668
1039.485	-2238
1039.547	-2785
1039.610	-3211
1039.672	-2288
1039.734	-3282
1039.797	-2475
1039.859	-3137
1039.922	-2841
1039.984	-2490
1040.046	-2479
1040.109	-2708
1040.171	-2910
1040.233	-2898
1040.295	-2823
1040.358	-2292
1040.420	-2442
1040.482	-2606
1040.544	-2720
1040.606	-2244
1040.668	-2067
1040.730	-2793
1040.792	-2574
1040.854	-2461
1040.916	-1313
1040.978	-3168
1041.040	-2676
1041.102	-2078
1041.164	-2474
1041.225	-2576
1041.287	-2689
1041.349	-1894
1041.411	-2464
1041.472	-2388
1041.534	-2668
1041.596	-2536
1041.657	-2093
1041.719	-3565
1041.781	-1736
1041.842	-2924
1041.904	-2700
1041.965	-2689
1042.027	-2341
1042.088	-2282
1042.150	-2386
1042.211	-2043
1042.272	-1828
1042.334	-2577
1042.395	-2175
1042.456	-2922
1042.518	-2092
1042.579	-2059
1042.640	-1955
1042.701	-2361
1042.763	-3452
1042.824	-1846
1042.885	-2858
1042.946	-3087
1043.007	-2443
1043.068	-2628
1043.129	-1912
1043.190	-2548
1043.251	-1957
1043.312	-2730
1043.373	-1739
1043.434	-2813
1043.495	-1787
1043.556	-2229
1043.616	-2596
1043.677	-2318
1043.738	-2352
1043.799	-3095
1043.859	-2119
1043.920	-2779
1043.981	-2133
1044.041	-2454
1044.102	-2533
1044.162	-2454
1044.223	-2655
1044.284	-2238
1044.344	-2271
1044.405	-2371
1044.465	-2645
1044.525	-2822
1044.586	-1941
1044.646	-2835
1044.707	-2473
1044.767	-2431
1044.827	-2851
1044.887	-2263
1044.948	-2131
1045.008	-1968
1045.068	-2453
1045.128	-1860
1045.188	-2043
1045.249	-1774
1045.309	-2718
1045.369	-2016
1045.429	-2890
1045.489	-1804
1045.549	-1623
1045.609	-2298
1045.669	-3213
1045.729	-2309
1045.789	-2139
1045.848	-2548
1045.908	-2090
1045.968	-1595
1046.028	-1507
1046.088	-1781
1046.147	-1846
1046.207	-2081
1046.267	-2492
1046.326	-1934
1046.386	-2358
1046.446	-1888
1046.505	-1293
1046.565	-1524
1046.624	-1094
1046.684	-1494
1046.743	-918
1046.803	-1481
1046.862	-809
1046.922	0
