'Start Wavelength	183.907
'End Wavelength	1046.922
'Gate Delay	5.000
'Gate Width (ms)	1.050
'Laser Output Level	0.000
'X Position	0.000
'Y Position	0.000
'Z Position	0.000
'Grid Point Number	1.000
'Shot Number	100.000
183.907	-71.000
183.977	-225.000
184.047	9
184.116	316
184.186	441
184.256	-149
184.325	326
184.395	-364
184.465	313
184.534	-465
184.604	-92
184.674	-160
184.743	-201
184.813	-327
184.883	447
184.952	-427
185.022	639
185.092	-539
185.161	-169
185.231	-297
185.301	-191
185.370	841
185.440	592
185.509	-39
185.579	20
185.649	-157
185.718	385
185.788	66
185.857	-407
185.927	-391
185.996	279
186.066	249
186.136	-95
186.205	-439
186.275	115
186.344	-375
186.414	252
186.483	26
186.553	383
186.622	116
186.692	3
186.761	378
186.831	-725
186.900	-142
186.970	450
187.039	390
187.109	634
187.178	175
187.248	63
187.317	24
187.387	-59
187.456	-102
187.526	-36
187.595	-494
187.664	-439
187.734	-60
187.803	-39
187.873	-396
187.942	68
188.012	17
188.081	-249
188.150	-266
188.220	-190
188.289	-135
188.358	-88
188.428	209
188.497	-37
188.567	-833
188.636	-443
188.705	419
188.775	-556
188.844	-824
188.913	209
188.983	-525
189.052	83
189.121	53
189.191	-40
189.260	-126
189.329	344
189.399	47
189.468	485
189.537	-410
189.606	182
189.676	-710
189.745	36
189.814	-564
189.883	-39
189.953	-133
190.022	-13
190.091	969
190.161	283
190.230	666
190.299	-188
190.368	-153
190.437	-115
190.507	247
190.576	-348
190.645	-468
190.714	66
190.783	-669
190.853	456
190.922	-391
190.991	690
191.060	-212
191.129	-250
191.198	141
191.268	177
191.337	-186
191.406	134
191.475	353
191.544	-658
191.613	-376
191.682	109
191.752	-475
191.821	-274
191.890	-576
191.959	-294
192.028	-195
192.097	834
192.166	245
192.235	112
192.304	-345
192.373	163
192.442	-73
192.511	-6
192.580	-138
192.650	262
192.719	21
192.788	64
192.857	-220
192.926	124
192.995	104
193.064	-429
193.133	618
193.202	-237
193.271	409
193.340	-185
193.409	-59
193.478	678
193.547	-79
193.615	383
193.684	877
193.753	34
193.822	679
193.891	229
193.960	699
194.029	-44
194.098	-183
194.167	-76
194.236	71
194.305	241
194.374	-462
194.443	198
194.512	676
194.580	388
194.649	-134
194.718	-42
194.787	364
194.856	-296
194.925	694
194.994	-120
195.062	84
195.131	-529
195.200	-911
195.269	-124
195.338	270
195.407	663
195.475	-273
195.544	170
195.613	634
195.682	-260
195.751	107
195.819	415
195.888	-122
195.957	50
196.026	317
196.094	191
196.163	84
196.232	-1
196.301	6
196.369	331
196.438	-128
196.507	-185
196.576	-458
196.644	40
196.713	-365
196.782	-15
196.850	221
196.919	183
196.988	245
197.056	309
197.125	-229
197.194	-30
197.262	-215
197.331	-118
197.400	-72
197.468	-144
197.537	-676
197.606	-24
197.674	158
197.743	799
197.812	-269
197.880	730
197.949	407
198.017	680
198.086	447
198.155	-443
198.223	-380
198.292	1324
198.360	-95
198.429	-261
198.497	466
198.566	101
198.635	754
198.703	592
198.772	356
198.840	1028
198.909	354
198.977	256
199.046	-370
199.114	63
199.183	300
199.251	-312
199.320	-437
199.388	-7
199.457	-342
199.525	82
199.594	83
199.662	-327
199.731	-138
199.799	-172
199.867	-504
199.936	-414
200.004	-552
200.073	395
200.141	-629
200.210	-185
200.278	-325
200.346	-299
200.415	-250
200.483	-111
200.552	158
200.620	140
200.688	-844
200.757	-97
200.825	200
200.893	170
200.962	-2
201.030	458
201.098	-952
201.167	-286
201.235	-386
201.303	-132
201.372	337
201.440	225
201.508	-622
201.577	-246
201.645	255
201.713	34
201.781	-260
201.850	285
201.918	-81
201.986	-193
202.055	925
202.123	157
202.191	59
202.259	522
202.327	-250
202.396	21
202.464	-659
202.532	-575
202.600	-840
202.669	-321
202.737	68
202.805	-229
202.873	-61
202.941	-14
203.009	72
203.078	40
203.146	76
203.214	149
203.282	-100
203.350	131
203.418	-197
203.487	134
203.555	260
203.623	215
203.691	-274
203.759	-396
203.827	-353
203.895	-85
203.963	-429
204.031	606
204.099	-907
204.168	-625
204.236	-427
204.304	-130
204.372	-424
204.440	-47
204.508	-21
204.576	-404
204.644	86
204.712	-114
204.780	310
204.848	342
204.916	-674
204.984	-419
205.052	-49
205.120	-507
205.188	70
205.256	-163
205.324	-300
205.392	-460
205.460	115
205.528	-44
205.596	-90
205.664	-291
205.732	-161
205.799	978
205.867	825
205.935	619
206.003	195
206.071	-33
206.139	-1095
206.207	416
206.275	-308
206.343	-43
206.411	-44
206.478	-418
206.546	21
206.614	-332
206.682	-185
206.750	-247
206.818	323
206.885	551
206.953	-112
207.021	849
207.089	194
207.157	217
207.225	613
207.292	-283
207.360	-190
207.428	385
207.496	333
207.563	-221
207.631	-22
207.699	-366
207.767	-153
207.834	349
207.902	-312
207.970	181
208.038	-156
208.105	305
208.173	311
208.241	825
208.309	315
208.376	433
208.444	739
208.512	87
208.579	-325
208.647	286
208.715	-50
208.782	286
208.850	-239
208.918	-523
208.985	-148
209.053	-92
209.120	799
209.188	288
209.256	782
209.323	-334
209.391	244
209.459	-45
209.526	159
209.594	-50
209.661	40
209.729	-860
209.796	-116
209.864	143
209.932	-944
209.999	1107
210.067	190
210.134	32
210.202	459
210.269	134
210.337	-23
210.404	98
210.472	-352
210.539	664
210.607	-474
210.674	-433
210.742	-432
210.809	-408
210.877	-116
210.944	686
211.012	-19
211.079	467
211.146	-431
211.214	-296
211.281	-234
211.349	-38
211.416	-214
211.484	-384
211.551	-305
211.618	225
211.686	-134
211.753	-889
211.821	-37
211.888	-6
211.955	262
212.023	46
212.090	34
212.157	-8
212.225	22
212.292	843
212.359	1971
212.427	4187
212.494	1169
212.561	208
212.629	179
212.696	118
212.763	23
212.831	176
212.898	388
212.965	-187
213.032	-167
213.100	26
213.167	-124
213.234	187
213.301	776
213.369	1017
213.436	197
213.503	426
213.570	356
213.638	321
213.705	-424
213.772	312
213.839	155
213.906	442
213.973	-328
214.041	-204
214.108	218
214.175	-158
214.242	-327
214.309	-340
214.376	-484
214.444	587
214.511	-131
214.578	-301
214.645	-283
214.712	1027
214.779	390
214.846	92
214.913	-2
214.980	897
215.048	285
215.115	231
215.182	54
215.249	-575
215.316	-12
215.383	453
215.450	68
215.517	214
215.584	-450
215.651	-177
215.718	69
215.785	453
215.852	-824
215.919	141
215.986	-101
216.053	30
216.120	-156
216.187	75
216.254	469
216.321	-148
216.388	657
216.455	-6
216.522	637
216.589	186
216.656	307
216.722	475
216.789	85
216.856	920
216.923	265
216.990	195
217.057	189
217.124	612
217.191	479
217.258	584
217.324	869
217.391	2067
217.458	784
217.525	665
217.592	-41
217.659	-555
217.725	-143
217.792	525
217.859	-426
217.926	204
217.993	-7
218.059	890
218.126	-475
218.193	-59
218.260	-257
218.327	-146
218.393	46
218.460	-373
218.527	-631
218.594	428
218.660	-482
218.727	1056
218.794	-499
218.860	173
218.927	-532
218.994	-43
219.061	-432
219.127	-596
219.194	-142
219.261	-149
219.327	-41
219.394	-490
219.461	-890
219.527	-399
219.594	87
219.661	-81
219.727	-635
219.794	412
219.860	-447
219.927	-451
219.994	-179
220.060	-65
220.127	79
220.193	756
220.260	141
220.326	1336
220.393	1128
220.460	2475
220.526	973
220.593	-211
220.659	359
220.726	708
220.792	1783
220.859	1319
220.925	2775
220.992	4631
221.058	4119
221.125	3264
221.191	1322
221.258	204
221.324	306
221.391	519
221.457	-557
221.524	635
221.590	898
221.657	3342
221.723	1176
221.789	1540
221.856	1256
221.922	231
221.989	443
222.055	392
222.121	-1470
222.188	938
222.254	-234
222.321	-433
222.387	-189
222.453	-289
222.520	-540
222.586	-450
222.652	559
222.719	-382
222.785	266
222.851	-114
222.918	-321
222.984	-130
223.050	-517
223.116	-790
223.183	339
223.249	177
223.315	-988
223.382	-112
223.448	-431
223.514	-587
223.580	-325
223.647	-394
223.713	-1220
223.779	-186
223.845	-363
223.911	-390
223.978	-153
224.044	-126
224.110	-308
224.176	-621
224.242	-180
224.309	-1086
224.375	-725
224.441	-157
224.507	-501
224.573	-244
224.639	213
224.705	-385
224.772	-112
224.838	-744
224.904	-772
224.970	234
225.036	-17
225.102	-904
225.168	-309
225.234	-540
225.300	-139
225.366	197
225.432	-231
225.499	-782
225.565	-388
225.631	-1089
225.697	-72
225.763	371
225.829	68
225.895	120
225.961	-207
226.027	-104
226.093	10
226.159	521
226.225	294
226.291	2946
226.357	6441
226.423	2043
226.489	1013
226.554	-39
226.620	967
226.686	-436
226.752	257
226.818	2241
226.884	8811
226.950	5484
227.016	1455
227.082	743
227.148	132
227.214	44
227.279	-705
227.345	-175
227.411	-482
227.477	-289
227.543	134
227.609	-75
227.674	-416
227.740	-669
227.806	-264
227.872	-906
227.938	-177
228.003	543
228.069	-614
228.135	58
228.201	-454
228.267	-645
228.332	-499
228.398	-754
228.464	-510
228.530	-923
228.595	-534
228.661	-188
228.727	4
228.792	-202
228.858	-48
228.924	-719
228.990	349
229.055	-1122
229.121	-607
229.187	-26
229.252	-451
229.318	-505
229.384	-566
229.449	-226
229.515	-1614
229.581	-566
229.646	303
229.712	-696
229.777	-331
229.843	-13
229.909	-19
229.974	-187
230.040	-284
230.105	-605
230.171	-263
230.236	-419
230.302	170
230.368	-266
230.433	-1545
230.499	-17
230.564	44
230.630	-570
230.695	-1067
230.761	51
230.826	-1028
230.892	548
230.957	-679
231.023	-703
231.088	-751
231.154	-85
231.219	-767
231.284	117
231.350	-467
231.415	-1071
231.481	-755
231.546	119
231.612	-572
231.677	-796
231.742	-937
231.808	154
231.873	-822
231.939	-1722
232.004	354
232.069	-80
232.135	-442
232.200	-1226
232.265	-108
232.331	-312
232.396	-464
232.461	-542
232.527	-1011
232.592	-1141
232.657	-946
232.723	-477
232.788	-1536
232.853	11
232.918	-882
232.984	-743
233.049	-1079
233.114	-1310
233.179	-968
233.245	-453
233.310	-758
233.375	-1018
233.440	-704
233.506	101
233.571	-446
233.636	67
233.701	-530
233.766	-549
233.832	-318
233.897	-473
233.962	-1287
234.027	284
234.092	-162
234.157	-69
234.222	-959
234.288	-62
234.353	-229
234.418	-514
234.483	-888
234.548	-1197
234.613	-991
234.678	-233
234.743	-498
234.808	595
234.873	-961
234.938	274
235.004	-118
235.069	-278
235.134	-765
235.199	-120
235.264	-349
235.329	-650
235.394	-516
235.459	-849
235.524	-975
235.589	-269
235.654	-1035
235.719	-1425
235.784	-356
235.849	-262
235.913	-358
235.978	-473
236.043	-739
236.108	-180
236.173	-799
236.238	251
236.303	-546
236.368	-411
236.433	-189
236.498	-492
236.563	-293
236.627	855
236.692	9595
236.757	5874
236.822	724
236.887	161
236.952	497
237.017	-652
237.081	910
237.146	607
237.211	3529
237.276	10008
237.341	13041
237.405	3848
237.470	177
237.535	449
237.600	386
237.664	157
237.729	-126
237.794	641
237.859	1284
237.923	441
237.988	-100
238.053	-249
238.118	-447
238.182	-420
238.247	725
238.312	-547
238.376	-381
238.441	-1253
238.506	-89
238.570	-889
238.635	263
238.700	-641
238.764	-504
238.829	-588
238.893	-1459
238.958	-263
239.023	-626
239.087	-1285
239.152	-407
239.216	-480
239.281	-95
239.346	-568
239.410	-589
239.475	-720
239.539	-208
239.604	-1991
239.668	-470
239.733	-411
239.797	-521
239.862	801
239.926	-164
239.991	-261
240.055	-1232
240.120	-383
240.184	-99
240.249	-1290
240.313	-448
240.378	-858
240.442	-1182
240.507	-425
240.571	-1100
240.635	-207
240.700	-810
240.764	-642
240.829	-595
240.893	-1638
240.957	-1082
241.022	-969
241.086	-64
241.151	-1324
241.215	-1716
241.279	-462
241.344	-631
241.408	-587
241.472	-887
241.537	-572
241.601	-1360
241.665	-1057
241.730	-797
241.794	-302
241.858	-724
241.922	-414
241.987	-736
242.051	-1106
242.115	-1261
242.179	-153
242.244	-1614
242.308	563
242.372	14
242.436	-727
242.501	-714
242.565	-1333
242.629	-657
242.693	725
242.757	-1183
242.822	-532
242.886	-321
242.950	470
243.014	-921
243.078	-705
243.142	-775
243.206	-869
243.271	-637
243.335	-406
243.399	430
243.463	4827
243.527	13195
243.591	2510
243.655	-704
243.719	-521
243.783	231
243.847	1012
243.911	685
243.975	-476
244.040	-1042
244.104	-330
244.168	-1088
244.232	-562
244.296	354
244.360	996
244.424	-1151
244.488	-649
244.552	-765
244.615	-973
244.679	-1080
244.743	-616
244.807	-365
244.871	-1211
244.935	-1221
244.999	-1687
245.063	-1291
245.127	487
245.191	-13
245.255	-323
245.319	80
245.383	-1800
245.446	-136
245.510	-1282
245.574	-848
245.638	-729
245.702	-1240
245.766	-1067
245.829	-89
245.893	-1532
245.957	-613
246.021	-363
246.085	-1285
246.149	-1208
246.212	-270
246.276	-1288
246.340	-789
246.404	-627
246.467	-112
246.531	-2325
246.595	-218
246.659	173
246.722	-779
246.786	-800
246.850	-1431
246.913	-759
246.977	-1326
247.041	-1364
247.104	-600
247.168	-54
247.232	-102
247.295	-563
247.359	-602
247.423	-635
247.486	-1429
247.550	312
247.614	-1339
247.677	-1058
247.741	-965
247.804	-376
247.868	-992
247.932	-1489
247.995	-179
248.059	-118
248.122	-1030
248.186	415
248.249	-816
248.313	1513
248.376	92
248.440	-658
248.503	-1775
248.567	-53
248.630	-1028
248.694	150
248.757	138
248.821	1104
248.884	874
248.948	-411
249.011	414
249.075	1124
249.138	879
249.202	-330
249.265	-624
249.328	903
249.392	-1563
249.455	333
249.519	-869
249.582	-291
249.645	-258
249.709	-488
249.772	-569
249.835	-335
249.899	-1370
249.962	238
250.025	-1230
250.089	-654
250.152	-313
250.215	-551
250.279	-1150
250.342	-30
250.405	32
250.468	-381
250.532	118
250.595	1975
250.658	13008
250.721	18281
250.785	2577
250.848	1644
250.911	-198
250.974	851
251.038	101
251.101	1312
251.164	-234
251.227	560
251.290	404
251.354	3370
251.417	19695
251.480	13783
251.543	9653
251.606	36736
251.669	18760
251.732	4900
251.795	2545
251.859	6050
251.922	20376
251.985	7356
252.048	2257
252.111	814
252.174	194
252.237	1335
252.300	1929
252.363	8853
252.426	22733
252.489	3753
252.552	1111
252.615	-190
252.678	1482
252.741	2087
252.804	9123
252.867	24168
252.930	6169
252.993	1014
253.056	1375
253.119	106
253.182	343
253.245	2009
253.308	952
253.371	-706
253.434	-267
253.497	-127
253.559	300
253.622	-119
253.685	-749
253.748	-692
253.811	-890
253.874	85
253.937	-1250
254.000	-416
254.062	-421
254.125	-885
254.188	273
254.251	-147
254.314	-842
254.376	-850
254.439	-445
254.502	-892
254.565	-1179
254.628	-317
254.690	-1622
254.753	-872
254.816	-1270
254.878	-284
254.941	-1124
255.004	-569
255.067	-298
255.129	-465
255.192	-685
255.255	-1491
255.317	-1116
255.380	-433
255.443	-1520
255.505	-1330
255.568	-1703
255.631	-623
255.693	-1121
255.756	-1730
255.819	214
255.881	-687
255.944	-703
256.006	-1381
256.069	-1118
256.132	-1018
256.194	-993
256.257	-617
256.319	-920
256.382	-1570
256.444	-288
256.507	-988
256.569	-1118
256.632	-652
256.694	-721
256.757	5631
256.819	13875
256.882	2127
256.944	422
257.007	496
257.069	-927
257.132	336
257.194	287
257.257	-385
257.319	-749
257.381	-258
257.444	2523
257.506	19524
257.569	12536
257.631	2708
257.693	626
257.756	-754
257.818	-521
257.880	-741
257.943	490
258.005	-1569
258.067	-1129
258.130	-1106
258.192	-661
258.254	-1109
258.317	-1197
258.379	-468
258.441	-758
258.503	-103
258.566	-771
258.628	-255
258.690	-1305
258.753	140
258.815	-654
258.877	-856
258.939	-1404
259.001	-248
259.064	-1220
259.126	-571
259.188	-1825
259.250	-530
259.312	-1032
259.375	-589
259.437	-1344
259.499	-457
259.561	-1162
259.623	-845
259.685	-1289
259.747	-492
259.809	-959
259.872	235
259.934	-151
259.996	-140
260.058	-1178
260.120	-1650
260.182	-747
260.244	-830
260.306	-804
260.368	-1021
260.430	-1606
260.492	-836
260.554	-1027
260.616	-1177
260.678	-909
260.740	-1567
260.802	-1522
260.864	-436
260.926	-1385
260.988	-560
261.050	-1098
261.112	-1381
261.174	-882
261.236	-1211
261.298	-1221
261.359	-1410
261.421	-243
261.483	-2290
261.545	-15
261.607	-1629
261.669	-944
261.731	-1747
261.793	-380
261.854	-1821
261.916	-812
261.978	-1568
262.040	-1337
262.102	-521
262.164	-1353
262.225	-644
262.287	-860
262.349	-1699
262.411	-1054
262.472	-359
262.534	-1290
262.596	-1898
262.658	-1652
262.719	-1751
262.781	-636
262.843	-1732
262.904	-1119
262.966	-849
263.028	-814
263.090	4683
263.151	14057
263.213	1932
263.275	-237
263.336	-23
263.398	-312
263.459	-1024
263.521	-797
263.583	-328
263.644	-813
263.706	-783
263.767	-1930
263.829	-116
263.891	-1755
263.952	-1221
264.014	-1981
264.075	-648
264.137	-1248
264.198	-1075
264.260	-1658
264.321	-96
264.383	-1346
264.444	-627
264.506	-1412
264.567	-449
264.629	-448
264.690	-1775
264.752	-1528
264.813	-1012
264.875	-1374
264.936	-239
264.998	-689
265.059	-759
265.120	-948
265.182	-750
265.243	8150
265.305	4110
265.366	759
265.427	-712
265.489	-119
265.550	-905
265.611	-1010
265.673	-1043
265.734	-1009
265.795	-820
265.857	-1362
265.918	-1498
265.979	1179
266.040	13458
266.102	6127
266.163	617
266.224	-357
266.286	230
266.347	-1363
266.408	-586
266.469	-173
266.530	-1502
266.592	-1167
266.653	-955
266.714	-1545
266.775	-1071
266.836	-1511
266.898	-1817
266.959	-1110
267.020	-1231
267.081	-298
267.142	-1379
267.203	-1891
267.264	-1976
267.326	-1061
267.387	-1535
267.448	-1063
267.509	-603
267.570	-1359
267.631	-864
267.692	-1504
267.753	-588
267.814	-1855
267.875	-498
267.936	-1089
267.997	-1135
268.058	-1045
268.119	-2073
268.180	-1610
268.241	-1999
268.302	-1387
268.363	-1997
268.424	-1391
268.485	-578
268.546	-2038
268.607	-1021
268.668	-1630
268.729	-1283
268.790	-2015
268.851	-1557
268.912	-2178
268.972	-1116
269.033	-1485
269.094	-1852
269.155	-533
269.216	-1317
269.277	-733
269.338	-959
269.398	-1341
269.459	-1507
269.520	-1421
269.581	-1597
269.642	-1242
269.702	-1832
269.763	-1114
269.824	-1148
269.885	-1965
269.945	-1111
270.006	-1060
270.067	-1392
270.128	-1518
270.188	-1890
270.249	-1843
270.310	-1952
270.370	-660
270.431	-1685
270.492	-1791
270.553	-1299
270.613	-1501
270.674	-971
270.734	-1356
270.795	-1657
270.856	-1204
270.916	-2303
270.977	-1053
271.038	-538
271.098	-789
271.159	-1953
271.219	-1803
271.280	-718
271.340	-554
271.401	-1564
271.462	-967
271.522	-1485
271.583	-985
271.643	-493
271.704	-1664
271.764	-1279
271.825	-1329
271.885	-40
271.946	-454
272.006	-1889
272.066	-313
272.127	-899
272.187	-1511
272.248	-1274
272.308	-1436
272.369	-911
272.429	-962
272.489	-755
272.550	-1699
272.610	-344
272.671	-1079
272.731	-352
272.791	-1331
272.852	-1108
272.912	-1265
272.972	-1107
273.033	-1529
273.093	-2187
273.153	-952
273.214	-1189
273.274	-1977
273.334	-1835
273.394	-1455
273.455	-1620
273.515	-326
273.575	-816
273.635	-681
273.696	-1483
273.756	-1696
273.816	-1120
273.876	-980
273.936	-1467
273.997	-536
274.057	-1454
274.117	-1115
274.177	-1018
274.237	-1677
274.297	-911
274.358	-937
274.418	-313
274.478	-1317
274.538	-1259
274.598	-2052
274.658	-720
274.718	-1314
274.778	-908
274.838	-1689
274.898	-1946
274.958	-845
275.018	-1358
275.078	-876
275.138	-1518
275.198	-2095
275.258	-1206
275.318	-1032
275.378	-1517
275.438	-1134
275.498	-897
275.558	-877
275.618	-685
275.678	-887
275.738	-1423
275.798	-1314
275.858	-1419
275.918	-1065
275.978	-1080
276.038	-1315
276.098	-1175
276.157	-2149
276.217	-1293
276.277	-1461
276.337	-1458
276.397	-1090
276.457	-1450
276.517	-1763
276.576	-649
276.636	-2588
276.696	-1265
276.756	-1276
276.815	-980
276.875	-792
276.935	-1316
276.995	-812
277.055	-1105
277.114	-1137
277.174	-975
277.234	-1138
277.293	-1647
277.353	-1786
277.413	-1181
277.472	-1387
277.532	-1737
277.592	-1402
277.651	-1502
277.711	-1671
277.771	-1490
277.830	-609
277.890	-704
277.950	-1828
278.009	-1023
278.069	-877
278.128	-769
278.188	-1287
278.248	-957
278.307	-1664
278.367	-468
278.426	-2041
278.486	-1378
278.545	-2381
278.605	-1061
278.664	-1235
278.724	-1304
278.783	-760
278.843	-1124
278.902	-941
278.962	-1482
279.021	-1646
279.081	-843
279.140	-933
279.199	-1804
279.259	-1268
279.318	-1439
279.378	-1109
279.437	-1088
279.496	964
279.556	9505
279.615	4519
279.675	866
279.734	-814
279.793	-759
279.853	-251
279.912	-1171
279.971	-1333
280.031	-1276
280.090	-1101
280.149	-1276
280.208	-513
280.268	4099
280.327	3266
280.386	-1101
280.445	-1085
280.505	-1813
280.564	-1533
280.623	-1477
280.682	-609
280.742	-851
280.801	-1411
280.860	-1937
280.919	-1621
280.978	-1459
281.037	-1979
281.097	-1079
281.156	-1023
281.215	-1544
281.274	-1640
281.333	-996
281.392	-1866
281.451	-620
281.510	-371
281.569	-1403
281.628	-1748
281.688	-1241
281.747	-926
281.806	-1760
281.865	-1362
281.924	-803
281.983	-1486
282.042	-1685
282.101	-894
282.160	-1773
282.219	-1662
282.278	-919
282.337	-1186
282.396	-1805
282.454	-1456
282.513	-2164
282.572	-849
282.631	-1196
282.690	-1700
282.749	-1709
282.808	-1407
282.867	-1994
282.926	-1386
282.985	-1237
283.043	-1549
283.102	-1177
283.161	-1415
283.220	-1156
283.279	-1102
283.338	-1372
283.396	-2239
283.455	-678
283.514	-1905
283.573	-1206
283.631	-717
283.690	-1178
283.749	-1139
283.808	-1289
283.866	-784
283.925	-2133
283.984	-932
284.043	-1651
284.101	-947
284.160	-1379
284.219	-1537
284.277	-1365
284.336	-1365
284.395	-760
284.453	-1456
284.512	-1172
284.570	-619
284.629	-864
284.688	-1563
284.746	-1255
284.805	-903
284.863	-1468
284.922	-1127
284.981	-832
285.039	-1093
285.098	-285
285.156	1286
285.215	12557
285.273	10767
285.332	2654
285.390	68
285.449	-396
285.507	-856
285.566	-1221
285.624	-1518
285.683	-488
285.741	-2029
285.799	-1260
285.858	-1229
285.916	-1537
285.975	-1445
286.033	-1355
286.091	-939
286.150	-1528
286.208	-1416
286.267	-1894
286.325	-583
286.383	-1731
286.442	-1700
286.500	-1111
286.558	-1244
286.616	-1309
286.675	-789
286.733	-466
286.791	-1302
286.850	-1280
286.908	-1526
286.966	-1037
287.024	-880
287.083	-1027
287.141	-1805
287.199	-1159
287.257	-645
287.315	-1485
287.374	-1218
287.432	-1378
287.490	-1499
287.548	-1214
287.606	-1837
287.664	-676
287.723	-1416
287.781	-1537
287.839	-933
287.897	-342
287.955	-108
288.013	1427
288.071	5441
288.129	34950
288.187	86402
288.245	28818
288.303	8560
288.361	3602
288.419	2132
288.477	1928
288.535	372
288.593	-367
288.651	-121
288.709	-742
288.767	-544
288.825	-1641
288.883	-315
288.941	-1446
288.999	-488
289.057	-755
289.115	-1153
289.173	-1239
289.231	-1411
289.289	-1261
289.346	-1499
289.404	-865
289.462	-1249
289.520	-876
289.578	-836
289.636	-787
289.694	-1274
289.751	-1305
289.809	-1278
289.867	-1436
289.925	-599
289.983	-1699
290.040	-381
290.098	-713
290.156	-1153
290.214	-1357
290.271	-1767
290.329	-2229
290.387	-1249
290.444	-1500
290.502	-1690
290.560	-1299
290.617	-1768
290.675	-1263
290.733	-1870
290.790	-1286
290.848	-1071
290.906	-1115
290.963	-1626
291.021	-738
291.078	-1109
291.136	-1189
291.194	-1818
291.251	-1218
291.309	-1793
291.366	-1281
291.424	-1182
291.481	-1597
291.539	-2234
291.596	-1293
291.654	-2552
291.711	-796
291.769	-1511
291.826	-1607
291.884	-908
291.941	-1888
291.999	-1697
292.056	-1653
292.114	-1710
292.171	-1442
292.228	-1878
292.286	-1162
292.343	-1886
292.401	-1250
292.458	-1786
292.515	-1344
292.573	-600
292.630	-1742
292.687	-1948
292.745	-1331
292.802	-1069
292.859	-646
292.917	-1265
292.974	-1187
293.031	-1046
293.089	-1286
293.146	-1430
293.203	-1702
293.260	-2020
293.318	-1688
293.375	-1200
293.432	-1682
293.489	-1955
293.546	-1201
293.604	-1436
293.661	-907
293.718	-1560
293.775	-2199
293.832	-1138
293.889	-651
293.947	-1212
294.004	-1718
294.061	-1121
294.118	-1741
294.175	-1128
294.232	-627
294.289	-998
294.346	-1192
294.403	-2037
294.460	-1657
294.517	-1886
294.574	-1987
294.631	-1482
294.688	-2029
294.745	-727
294.802	-556
294.859	-1242
294.916	-1407
294.973	-2145
295.030	-1686
295.087	-1809
295.144	-224
295.201	-1365
295.258	-1347
295.315	-1576
295.372	-1440
295.429	-1776
295.486	-1209
295.542	-1463
295.599	-1231
295.656	-1576
295.713	-1356
295.770	-1676
295.827	-2171
295.883	-1065
295.940	-1260
295.997	-1332
296.054	-2191
296.111	-1639
296.167	-1243
296.224	-1549
296.281	-1329
296.338	-1560
296.394	-1670
296.451	-973
296.508	-989
296.564	-1896
296.621	-1158
296.678	-517
296.734	-618
296.791	-685
296.848	-822
296.904	-1205
296.961	-1496
297.018	-479
297.074	-866
297.131	-1067
297.187	-1805
297.244	-703
297.301	-585
297.357	-493
297.414	-1228
297.470	-1300
297.527	-1779
297.583	-999
297.640	-1200
297.696	-1034
297.753	-1510
297.809	-1510
297.866	-2174
297.922	-1634
297.979	-1717
298.035	-2201
298.092	-1068
298.148	-1249
298.204	-380
298.261	-1969
298.317	-122
298.374	-97
298.430	-781
298.486	-1509
298.543	-1857
298.599	-1126
298.656	-668
298.712	457
298.768	6683
298.824	4649
298.881	249
298.937	-937
298.993	-992
299.050	-1336
299.106	-607
299.162	-1630
299.218	-1206
299.275	-979
299.331	-945
299.387	-1030
299.443	-382
299.500	-317
299.556	-916
299.612	-1501
299.668	-955
299.724	99
299.780	-1003
299.837	-1177
299.893	-1230
299.949	-612
300.005	-418
300.061	-897
300.117	-733
300.173	-918
300.229	-1514
300.285	-1699
300.341	-1021
300.397	-1034
300.453	-1623
300.510	-1780
300.566	-1640
300.622	-948
300.678	286
300.734	1668
300.790	-73
300.845	-1133
300.901	-389
300.957	-169
301.013	-369
301.069	-1376
301.125	-1464
301.181	-1419
301.237	-1014
301.293	-1831
301.349	-1694
301.405	-1490
301.461	-1404
301.516	-1352
301.572	-1476
301.628	-1922
301.684	-1793
301.740	-1255
301.796	-1659
301.851	-1579
301.907	-811
301.963	-1408
302.019	-50
302.074	3125
302.130	1920
302.186	-222
302.242	-1297
302.297	-1505
302.353	-546
302.409	-1226
302.464	-909
302.520	-875
302.576	-912
302.631	-962
302.687	-1480
302.743	-1186
302.798	-1723
302.854	-880
302.910	-862
302.965	-927
303.021	-778
303.076	-2024
303.132	-441
303.187	-901
303.243	-1590
303.299	-1658
303.354	-1271
303.410	-1114
303.465	-1303
303.521	-1615
303.576	-1341
303.632	-1419
303.687	-949
303.743	-733
303.798	-813
303.853	-1827
303.909	-1352
303.964	-1780
304.020	-946
304.075	-1444
304.130	-1315
304.186	-1200
304.241	-1239
304.297	-1166
304.352	-1301
304.358	-1334
304.407	-1601
304.449	-1630
304.463	-1642
304.518	-2017
304.539	-1705
304.573	-1211
304.629	-1587
304.630	-1571
304.684	-963
304.720	-645
304.739	-482
304.794	-353
304.811	-515
304.850	-907
304.902	-687
304.905	-667
304.960	-1234
304.992	-607
305.015	-229
305.071	-1281
305.083	-1315
305.126	-1319
305.173	-1205
305.181	-1192
305.236	-1307
305.264	-1174
305.292	-1020
305.347	-1476
305.354	-1413
305.402	-1065
305.445	-1047
305.457	-1032
305.512	-314
305.535	-450
305.567	-679
305.622	-914
305.626	-878
305.678	-168
305.716	374
305.733	564
305.788	485
305.807	274
305.843	-55
305.897	-231
305.898	-237
305.953	-316
305.988	-510
306.008	-519
306.063	-545
306.078	-728
306.118	-1345
306.168	-1178
306.173	-1146
306.228	-718
306.259	-910
306.283	-1088
306.338	-443
306.349	-504
306.393	-741
306.440	-575
306.448	-563
306.503	-534
306.530	-502
306.558	-336
306.613	-331
306.620	-256
306.668	45
306.711	-261
306.723	-321
306.778	-616
306.801	-583
306.833	-634
306.888	-665
306.892	-675
306.943	-649
306.982	-620
306.997	-644
307.052	-515
307.072	-569
307.107	-433
307.162	-133
307.163	-133
307.217	-213
307.253	-678
307.272	-831
307.327	-164
307.343	-195
307.381	-535
307.434	-590
307.436	-566
307.491	204
307.524	338
307.546	204
307.600	-242
307.614	-283
307.655	-262
307.704	-138
307.710	-102
307.765	-160
307.795	40
307.819	252
307.874	738
307.885	713
307.929	518
307.975	1448
307.984	1788
308.038	3939
308.065	6051
308.093	10972
308.148	25439
308.156	29548
308.202	57390
308.246	71595
308.257	69141
308.312	35038
308.336	21616
308.366	13769
308.421	6231
308.426	5803
308.475	3572
308.517	2638
308.530	2511
308.585	2195
308.607	1996
308.639	1498
308.694	1410
308.697	1384
308.748	1570
308.787	1750
308.803	1628
308.857	1100
308.877	1122
308.912	1453
308.967	1886
308.967	1896
309.021	3386
309.058	4546
309.076	5749
309.130	11566
309.148	14373
309.185	33793
309.238	72379
309.239	72825
309.293	91739
309.328	86576
309.348	72053
309.402	29592
309.418	19366
309.457	11916
309.508	6323
309.511	6113
309.566	4592
309.598	3758
309.620	3336
309.674	2762
309.688	2620
309.729	1940
309.778	966
309.783	951
309.837	1256
309.868	1472
309.892	1310
309.946	990
309.959	888
310.001	852
310.049	867
310.055	818
310.109	286
310.139	10
310.163	-120
310.218	-166
310.229	-197
310.272	56
310.319	403
310.326	412
310.381	247
310.409	173
310.435	82
310.489	-9
310.499	-34
310.543	331
310.589	619
310.598	571
310.652	316
310.679	233
310.706	297
310.760	262
310.769	267
310.814	396
310.859	354
310.868	348
310.923	445
310.948	413
310.977	276
311.031	172
311.038	138
311.085	58
311.128	-11
311.139	42
311.193	356
311.218	437
311.247	482
311.301	640
311.308	649
311.356	543
311.398	382
311.410	405
311.464	578
311.488	612
311.518	522
311.572	427
311.578	396
311.626	352
311.668	393
311.680	458
311.734	676
311.758	761
311.788	637
311.842	429
311.847	397
311.896	358
311.937	341
311.950	394
312.004	623
312.027	707
312.058	645
312.112	525
312.117	510
312.165	614
312.207	696
312.297	358
312.386	-91
312.476	-62
312.566	594
312.656	1109
312.745	283
312.835	-18
312.925	567
313.015	-77
313.104	369
313.194	662
313.284	309
313.374	133
313.463	721
313.553	512
313.643	293
313.732	-219
313.822	293
313.912	622
314.001	391
314.091	333
314.180	377
314.270	679
314.360	374
314.449	-127
314.539	657
314.628	-785
314.718	-34
314.808	91
314.897	815
314.987	375
315.076	480
315.166	200
315.255	467
315.345	455
315.434	266
315.524	596
315.613	929
315.703	5
315.792	1162
315.881	5304
315.971	1887
316.060	1043
316.150	532
316.239	835
316.328	270
316.418	293
316.507	949
316.597	484
316.686	186
316.775	-511
316.865	533
316.954	494
317.043	648
317.133	124
317.222	479
317.311	522
317.400	-123
317.490	876
317.579	813
317.668	918
317.757	969
317.847	2540
317.936	10017
318.025	3934
318.114	1249
318.203	945
318.293	930
318.382	58
318.471	385
318.560	493
318.649	558
318.738	-139
318.828	-558
318.917	85
319.006	76
319.095	-178
319.184	996
319.273	149
319.362	246
319.451	20
319.540	782
319.629	460
319.718	66
319.807	-424
319.896	-470
319.985	286
320.074	276
320.163	195
320.252	15
320.341	-338
320.430	-289
320.519	646
320.608	-1013
320.697	263
320.786	80
320.875	-436
320.964	426
321.053	13
321.142	324
321.230	584
321.319	-117
321.408	657
321.497	470
321.586	9
321.675	133
321.764	13
321.852	999
321.941	153
322.030	211
322.119	236
322.207	1364
322.296	173
322.385	213
322.474	258
322.562	608
322.651	1071
322.740	421
322.829	402
322.917	778
323.006	-18
323.095	949
323.183	581
323.272	399
323.361	-192
323.449	1711
323.538	-657
323.626	711
323.715	-62
323.804	361
323.892	-11
323.981	1235
324.069	72
324.158	266
324.246	301
324.335	734
324.424	-95
324.512	420
324.601	287
324.689	520
324.778	1103
324.866	144
324.954	-374
325.043	272
325.131	-1128
325.220	284
325.308	-388
325.397	-207
325.485	-39
325.574	-192
325.662	-262
325.750	-517
325.839	-273
325.927	-654
326.015	-144
326.104	752
326.192	39
326.280	1041
326.369	-692
326.457	-68
326.545	104
326.634	276
326.722	-320
326.810	-278
326.898	155
326.987	-324
327.075	-151
327.163	689
327.251	247
327.340	1240
327.428	388
327.516	417
327.604	-182
327.692	439
327.781	134
327.869	183
327.957	260
328.045	-26
328.133	246
328.221	-482
328.309	33
328.397	68
328.485	68
328.574	171
328.662	-447
328.750	119
328.838	-120
328.926	369
329.014	-344
329.102	-81
329.190	188
329.278	424
329.366	-274
329.454	99
329.542	-335
329.630	870
329.718	458
329.806	302
329.893	-72
329.981	-233
330.069	1514
330.157	6257
330.245	25616
330.333	16327
330.421	2165
330.509	733
330.597	408
330.684	294
330.772	174
330.860	-589
330.948	-196
331.036	-106
331.123	-130
331.211	-629
331.299	-228
331.387	618
331.475	-634
331.562	-387
331.650	-222
331.738	-6
331.825	-109
331.913	36
332.001	-3
332.089	42
332.176	-1158
332.264	4
332.352	-109
332.439	-576
332.527	-596
332.614	-230
332.702	-22
332.790	-506
332.877	-1015
332.965	605
333.052	118
333.140	-106
333.228	-663
333.315	-329
333.403	-836
333.490	1208
333.578	269
333.665	579
333.753	-519
333.840	-189
333.928	-498
334.015	262
334.103	227
334.190	658
334.278	386
334.365	601
334.452	-93
334.540	-300
334.627	-1071
334.715	-121
334.802	290
334.889	670
334.977	1373
335.064	1018
335.151	-413
335.239	394
335.326	-495
335.413	646
335.501	187
335.588	-132
335.675	388
335.762	557
335.850	-184
335.937	796
336.024	905
336.111	2089
336.199	2245
336.286	1413
336.373	778
336.460	-141
336.547	-611
336.635	1027
336.722	-621
336.809	-60
336.896	-725
336.983	-399
337.070	84
337.157	206
337.245	490
337.332	1156
337.419	-42
337.506	-250
337.593	-835
337.680	55
337.767	-79
337.854	-403
337.941	-347
338.028	94
338.115	-26
338.202	-241
338.289	-132
338.376	-277
338.463	-803
338.550	-214
338.637	-321
338.724	-30
338.811	-753
338.898	599
338.984	-659
339.071	-304
339.158	502
339.245	435
339.332	-501
339.419	305
339.506	-384
339.593	-560
339.679	-58
339.766	-53
339.853	-213
339.940	200
340.027	70
340.113	43
340.200	-803
340.287	-194
340.374	47
340.460	213
340.547	-1125
340.634	-436
340.720	74
340.807	-381
340.894	-282
340.980	76
341.067	222
341.154	-315
341.240	-870
341.327	92
341.414	-902
341.500	-318
341.587	-100
341.674	-238
341.760	-420
341.847	-45
341.933	-652
342.020	-879
342.106	-358
342.193	413
342.279	-143
342.366	-521
342.452	82
342.539	-458
342.625	-670
342.712	-563
342.798	-615
342.885	225
342.971	-886
343.058	-142
343.144	-293
343.230	707
343.317	18
343.403	-551
343.490	-653
343.576	-343
343.662	-527
343.749	460
343.835	1171
343.921	54
344.008	334
344.094	2316
344.180	645
344.267	-322
344.353	-548
344.439	422
344.525	-268
344.612	-26
344.698	-830
344.784	-480
344.870	-618
344.957	-722
345.043	-109
345.129	-752
345.215	-431
345.301	-439
345.387	-199
345.474	-256
345.560	-1461
345.646	-200
345.732	-583
345.818	-172
345.904	-927
345.990	-292
346.076	-512
346.162	-343
346.249	-147
346.335	-74
346.421	-549
346.507	71
346.593	-183
346.679	-983
346.765	-269
346.851	-39
346.937	-584
347.023	413
347.108	-138
347.194	-363
347.280	-862
347.366	398
347.452	-603
347.538	-558
347.624	764
347.710	226
347.796	32
347.882	-492
347.967	-231
348.053	99
348.139	-780
348.225	-251
348.311	-999
348.397	-323
348.482	-128
348.568	69
348.654	-1699
348.740	-441
348.825	-834
348.911	929
348.997	-358
349.083	664
349.168	-440
349.254	193
349.340	-887
349.425	63
349.511	-441
349.597	586
349.682	11
349.768	451
349.854	-126
349.939	40
350.025	-975
350.110	381
350.196	3
350.282	-1096
350.367	-482
350.453	-555
350.538	-551
350.624	-830
350.709	-794
350.795	-659
350.880	-436
350.966	-199
351.051	-316
351.137	780
351.222	-650
351.308	-438
351.393	-1063
351.479	432
351.564	-873
351.649	-95
351.735	-781
351.820	4
351.906	-1069
351.991	-298
352.076	-934
352.162	12
352.247	-420
352.332	-329
352.418	-1160
352.503	-411
352.588	-682
352.673	-369
352.759	-279
352.844	-350
352.929	-992
353.014	-851
353.100	-700
353.185	-151
353.270	-860
353.355	85
353.441	-516
353.526	41
353.611	-796
353.696	-1262
353.781	-69
353.866	-518
353.952	-305
354.037	-384
354.122	-363
354.207	-696
354.292	-145
354.377	-808
354.462	-1026
354.547	-276
354.632	-103
354.717	-219
354.802	392
354.887	-31
354.972	-535
355.057	-32
355.142	-298
355.227	-378
355.312	-356
355.397	-428
355.482	-692
355.567	-73
355.652	-309
355.737	93
355.822	10
355.907	-872
355.991	-186
356.076	-570
356.161	-1178
356.246	-450
356.331	-55
356.416	-366
356.501	508
356.585	76
356.670	-1205
356.755	993
356.840	-715
356.924	289
357.009	1892
357.094	476
357.179	159
357.263	581
357.348	-585
357.433	-148
357.517	-1288
357.602	140
357.687	-644
357.771	-4
357.856	-324
357.941	-43
358.025	-615
358.110	4563
358.195	1534
358.279	-695
358.364	-1147
358.448	-332
358.533	-102
358.617	-120
358.702	-586
358.787	163
358.871	-620
358.956	-322
359.040	-1111
359.125	-400
359.209	-810
359.294	-314
359.378	-10
359.462	-798
359.547	-275
359.631	-173
359.716	-1153
359.800	-650
359.885	-540
359.969	-1108
360.053	466
360.138	165
360.222	-995
360.306	-1055
360.391	-1150
360.475	-378
360.559	-517
360.644	216
360.728	-801
360.812	661
360.896	891
360.981	111
361.065	-943
361.149	608
361.233	-413
361.318	-265
361.402	60
361.486	318
361.570	-738
361.654	-604
361.739	-986
361.823	-282
361.907	1109
361.991	-196
362.075	-576
362.159	-250
362.243	76
362.327	74
362.411	2061
362.495	557
362.580	-106
362.664	-481
362.748	-854
362.832	-273
362.916	-855
363.000	3032
363.084	5111
363.168	2945
363.252	-291
363.336	-594
363.420	-326
363.503	295
363.587	-435
363.671	-1
363.755	-1642
363.839	87
363.923	-1225
364.007	-340
364.091	-167
364.175	-803
364.258	1514
364.342	1656
364.426	8811
364.510	4507
364.594	1240
364.677	824
364.761	-365
364.845	231
364.929	169
365.013	-313
365.096	-464
365.180	-398
365.264	158
365.347	437
365.431	-424
365.515	-792
365.598	-976
365.682	203
365.766	-1889
365.849	-603
365.933	-1125
366.017	797
366.100	-1101
366.184	-620
366.267	421
366.351	-302
366.435	-513
366.518	-370
366.602	-1159
366.685	88
366.769	-798
366.852	-313
366.936	-714
367.019	-14
367.103	-1148
367.186	-346
367.270	-779
367.353	-903
367.436	94
367.520	-178
367.603	-1312
367.687	-1016
367.770	-1095
367.853	95
367.937	-997
368.020	-326
368.104	-865
368.187	-782
368.270	-398
368.353	-526
368.437	-854
368.520	-188
368.603	-535
368.687	-1289
368.770	-849
368.853	-227
368.936	-452
369.020	95
369.103	-294
369.186	-930
369.269	-1099
369.352	-734
369.436	-1056
369.519	-519
369.602	-1456
369.685	490
369.768	-800
369.851	254
369.934	51
370.018	-886
370.101	-1229
370.184	722
370.267	-939
370.350	-503
370.433	-620
370.516	40
370.599	1188
370.682	-569
370.765	-632
370.848	149
370.931	-312
371.014	-433
371.097	-1333
371.180	-139
371.263	-401
371.346	-1263
371.429	-617
371.511	-55
371.594	-802
371.677	-483
371.760	60
371.843	-853
371.926	738
372.009	3260
372.091	1766
372.174	-941
372.257	-645
372.340	-504
372.423	-1082
372.505	-112
372.588	-1469
372.671	312
372.754	-708
372.836	-794
372.919	-1199
373.002	122
373.085	-1269
373.167	-387
373.250	-229
373.332	-267
373.415	1026
373.498	3219
373.580	1812
373.663	3438
373.746	5030
373.828	177
373.911	226
373.993	158
374.076	-1254
374.159	-133
374.241	-574
374.324	294
374.406	-70
374.489	-367
374.571	1431
374.654	316
374.736	132
374.819	451
374.901	1960
374.983	2783
375.066	-76
375.148	35
375.231	-378
375.313	259
375.395	-1070
375.478	-353
375.560	-344
375.643	-94
375.725	-273
375.807	5
375.890	1308
375.972	-712
376.054	65
376.136	269
376.219	-214
376.301	-1042
376.383	-560
376.465	-69
376.548	-116
376.630	-203
376.712	817
376.794	-238
376.877	-264
376.959	-646
377.041	-960
377.123	-190
377.205	-168
377.287	-972
377.369	-58
377.452	-221
377.534	-333
377.616	-696
377.698	-657
377.780	-1170
377.862	-893
377.944	-506
378.026	-619
378.108	-446
378.190	-1022
378.272	-22
378.354	-661
378.436	-796
378.518	-767
378.600	-677
378.682	-1126
378.764	-522
378.846	-1275
378.928	-611
379.010	-1397
379.091	141
379.173	-411
379.255	-758
379.337	-846
379.419	-1807
379.501	331
379.583	90
379.664	122
379.746	-732
379.828	50
379.910	-662
379.991	-849
380.073	-578
380.155	-334
380.237	-141
380.318	-1322
380.400	-843
380.482	-89
380.564	-438
380.645	-579
380.727	-1330
380.809	-498
380.890	-321
380.972	-1133
381.053	-628
381.135	-380
381.217	-667
381.298	-484
381.380	-145
381.461	-404
381.543	16
381.624	119
381.706	283
381.787	-204
381.869	-359
381.951	-1079
382.032	915
382.113	2689
382.195	-986
382.276	-195
382.358	-969
382.439	-533
382.521	962
382.602	1437
382.684	627
382.765	-172
382.846	217
382.928	282
383.009	-235
383.090	83
383.172	112
383.253	1256
383.334	225
383.416	697
383.497	88
383.578	-111
383.659	119
383.741	-283
383.822	2248
383.903	895
383.984	-312
384.066	1397
384.147	95
384.228	-368
384.309	-366
384.390	-555
384.471	-547
384.553	-1073
384.634	-895
384.715	-1140
384.796	-510
384.877	-1637
384.958	317
385.039	-1248
385.120	-683
385.201	-980
385.282	-855
385.363	-697
385.444	-743
385.525	-682
385.606	-562
385.687	-339
385.768	-18
385.849	-1032
385.930	1061
386.011	2581
386.092	148
386.173	-461
386.254	14
386.335	200
386.416	287
386.496	-388
386.577	-608
386.658	-231
386.739	-454
386.820	-11
386.901	-1369
386.981	-264
387.062	-626
387.143	-1125
387.224	-854
387.304	298
387.385	-26
387.466	-1689
387.547	401
387.627	-1139
387.708	-27
387.789	-512
387.869	-395
387.950	175
388.031	-392
388.111	-2181
388.192	247
388.273	-459
388.353	-447
388.434	-1123
388.514	-371
388.595	-98
388.676	431
388.756	-301
388.837	78
388.917	-781
388.998	-751
389.078	-143
389.159	-258
389.239	-1134
389.320	116
389.400	-1918
389.480	519
389.561	-1154
389.641	191
389.722	-603
389.802	-815
389.883	61
389.963	-233
390.043	-530
390.124	-1151
390.204	-607
390.284	311
390.365	-660
390.445	1903
390.525	17993
390.605	21785
390.686	2001
390.766	379
390.846	-26
390.927	-418
391.007	-1122
391.087	232
391.167	-1239
391.247	-1174
391.328	163
391.408	-188
391.488	-417
391.568	-1328
391.648	-889
391.728	-167
391.808	366
391.888	-241
391.969	-805
392.049	-684
392.129	648
392.209	-235
392.289	331
392.369	-322
392.449	-17
392.529	-803
392.609	328
392.689	890
392.769	-14
392.849	989
392.929	1918
393.009	1937
393.089	2050
393.169	6944
393.248	22530
393.328	128304
393.408	182812
393.488	43523
393.568	7695
393.648	3451
393.728	2021
393.807	1601
393.887	2484
393.967	869
394.047	1256
394.127	2165
394.206	3953
394.286	16183
394.366	98635
394.446	138154
394.525	29674
394.605	5246
394.685	2313
394.764	2292
394.844	1014
394.924	787
395.003	402
395.083	1049
395.163	1251
395.242	908
395.322	1214
395.402	190
395.481	1381
395.561	457
395.640	1310
395.720	3453
395.799	2756
395.879	2548
395.958	5671
396.038	23474
396.117	129225
396.197	179948
396.276	43338
396.356	7910
396.435	3472
396.515	3259
396.594	2649
396.673	6363
396.753	27615
396.832	128988
396.912	104627
396.991	16235
397.070	3282
397.150	590
397.229	1310
397.308	1750
397.388	2471
397.467	1701
397.546	24
397.625	-913
397.705	721
397.784	-9
397.863	-1146
397.942	-156
398.022	-921
398.101	-766
398.180	-21
398.259	-736
398.338	-30
398.417	-778
398.497	-995
398.576	-14
398.655	-1687
398.734	-51
398.813	-657
398.892	284
398.971	-560
399.050	-923
399.129	-1334
399.208	-500
399.287	85
399.366	-1101
399.445	-449
399.524	-280
399.603	-1420
399.682	-986
399.761	-1193
399.840	189
399.919	-884
399.998	-492
400.077	-2221
400.156	-1592
400.235	524
400.313	-825
400.392	-1318
400.471	-341
400.550	-1066
400.629	-1090
400.708	-1466
400.786	-1355
400.865	-1715
400.944	-1253
401.023	311
401.102	-1002
401.180	-902
401.259	-796
401.338	-1354
401.416	-448
401.495	-1206
401.574	-344
401.652	-1225
401.731	120
401.810	-1345
401.888	-579
401.967	-1877
402.046	-703
402.124	-851
402.203	-1838
402.281	-464
402.360	-1333
402.438	-590
402.517	-1092
402.596	-486
402.674	-628
402.753	-1443
402.831	-704
402.910	-448
402.988	-680
403.066	-907
403.145	-33
403.223	-235
403.302	-1053
403.380	-602
403.459	-319
403.537	-1430
403.615	-819
403.694	-1472
403.772	-189
403.850	-1061
403.929	-1266
404.007	-1538
404.085	103
404.164	-1315
404.242	-1273
404.320	-268
404.398	-189
404.477	-728
404.555	1281
404.633	369
404.711	-676
404.789	460
404.868	-424
404.946	-1512
405.024	-485
405.102	-1418
405.180	-1651
405.258	-1374
405.336	-396
405.415	-1004
405.493	-340
405.571	-553
405.649	-1433
405.727	-1920
405.805	-713
405.883	-1152
405.961	-210
406.039	-1468
406.117	-1903
406.195	-1046
406.273	-2078
406.351	-635
406.429	343
406.507	-828
406.585	-990
406.663	-965
406.740	-924
406.818	-1601
406.896	-820
406.974	-666
407.052	-1851
407.130	-100
407.208	-39
407.285	-188
407.363	-280
407.441	-1035
407.519	-1261
407.596	-600
407.674	1819
407.752	17520
407.830	18562
407.907	1415
407.985	-1227
408.063	-35
408.141	-878
408.218	-519
408.296	-1862
408.373	-1133
408.451	-159
408.529	-906
408.606	-1310
408.684	-429
408.762	-525
408.839	-1235
408.917	-1378
408.994	-878
409.072	-939
409.149	-1499
409.227	-354
409.304	-835
409.382	-731
409.459	-676
409.537	-379
409.614	-509
409.692	-1256
409.769	-866
409.846	-644
409.924	681
410.001	-1094
410.079	-2364
410.156	393
410.233	-697
410.311	-936
410.388	-1345
410.465	-514
410.543	-1626
410.620	-388
410.697	-1566
410.775	-489
410.852	-1646
410.929	81
411.006	-465
411.083	-1641
411.161	-1227
411.238	-553
411.315	-1353
411.392	-553
411.469	-1002
411.547	-852
411.624	-2482
411.701	-1425
411.778	-1457
411.855	-1167
411.932	-1322
412.009	-1405
412.086	-1655
412.163	-724
412.240	-1251
412.317	-532
412.394	-1977
412.471	160
412.548	-813
412.625	-1594
412.702	-1219
412.779	-616
412.856	-1077
412.933	-1227
413.010	-1775
413.087	-1259
413.164	-1730
413.241	-636
413.318	-1570
413.395	-340
413.471	-1488
413.548	-478
413.625	-492
413.702	-1885
413.779	-595
413.855	-1805
413.932	-1925
414.009	-1800
414.086	-1268
414.162	-1054
414.239	-1638
414.316	-994
414.393	-656
414.469	-1628
414.546	-988
414.623	-1087
414.699	-1490
414.776	-1931
414.853	-1082
414.929	-550
415.006	-1004
415.082	-1245
415.159	-919
415.236	-583
415.312	-773
415.389	-902
415.465	-1606
415.542	-758
415.618	-1789
415.695	-928
415.771	-1430
415.848	-1038
415.924	-1469
416.000	-1107
416.077	-251
416.153	-1427
416.230	-2073
416.306	-1124
416.383	-1437
416.459	-1000
416.535	-1182
416.612	-1633
416.688	-1588
416.764	-184
416.841	-1638
416.917	-1018
416.993	-971
417.069	-1400
417.146	-2216
417.222	-718
417.298	-1398
417.374	-1401
417.451	-485
417.527	-1886
417.603	-1704
417.679	-1262
417.755	-964
417.831	-1333
417.908	-815
417.984	-1136
418.060	-1901
418.136	-864
418.212	-2183
418.288	-1311
418.364	-997
418.440	-1429
418.516	-1270
418.592	-913
418.668	-1530
418.744	-1511
418.820	-1347
418.896	-1624
418.972	-2701
419.048	-1572
419.124	-350
419.200	-1753
419.276	-1448
419.352	-1938
419.428	-1369
419.504	-1420
419.579	-1424
419.655	-1537
419.731	-1339
419.807	-660
419.883	-1888
419.959	-1081
420.034	-230
420.110	-1447
420.186	-1980
420.262	-631
420.337	-1486
420.413	-1624
420.489	-1661
420.565	227
420.640	-1723
420.716	-402
420.792	-1887
420.867	-165
420.943	-1371
421.019	-1021
421.094	-1957
421.170	-581
421.245	-2383
421.321	-907
421.397	-1150
421.472	1775
421.548	10078
421.623	7885
421.699	79
421.774	-94
421.850	-2174
421.925	-208
422.001	-1530
422.076	-933
422.152	-957
422.227	-970
422.302	382
422.378	592
422.453	1163
422.529	8233
422.604	38698
422.679	106999
422.755	69091
422.830	15491
422.905	3885
422.981	1615
423.056	10
423.131	723
423.207	-408
423.282	-940
423.357	-835
423.432	-979
423.508	-646
423.583	-1314
423.658	-1127
423.733	-988
423.808	-1442
423.883	-109
423.959	-1128
424.034	-1098
424.109	-806
424.184	-744
424.259	-1701
424.334	-1263
424.409	-1527
424.484	-702
424.559	-1873
424.634	-1427
424.709	-1502
424.784	-237
424.859	-1222
424.934	-1991
425.009	-1581
425.084	-1012
425.159	-1751
425.234	-1382
425.309	-2661
425.384	-915
425.459	-2355
425.534	-1149
425.609	-1461
425.683	-1441
425.758	-1364
425.833	-1545
425.908	-1260
425.983	-1874
426.058	-892
426.132	-1308
426.207	-2011
426.282	-713
426.357	-1901
426.431	-975
426.506	-1180
426.581	-1484
426.655	-1561
426.730	-1239
426.805	-1351
426.879	-958
426.954	-2244
427.029	-1159
427.103	-1750
427.178	-1411
427.253	-1675
427.327	-959
427.402	-2134
427.476	-1531
427.551	-2016
427.625	-443
427.700	-986
427.774	-1495
427.849	-1554
427.923	-1434
427.998	-1400
428.072	-1513
428.147	-470
428.221	800
428.296	10935
428.370	8658
428.444	-520
428.519	-1724
428.593	-1760
428.667	-731
428.742	-1553
428.816	-1204
428.890	3361
428.965	11692
429.039	3020
429.113	-841
429.188	-1640
429.262	-1348
429.336	-1640
429.410	-1338
429.485	-1478
429.559	-827
429.633	-1124
429.707	-1800
429.781	-1139
429.855	2919
429.930	8577
430.004	2703
430.078	-1551
430.152	728
430.226	16265
430.300	28412
430.374	3552
430.448	191
430.522	-1161
430.596	-1360
430.670	287
430.744	5341
430.818	11363
430.892	1115
430.966	-1466
431.040	-371
431.114	-1603
431.188	-2332
431.262	-2097
431.336	-1807
431.410	-605
431.484	-2366
431.557	-1284
431.631	-2043
431.705	-1375
431.779	302
431.853	9507
431.927	11132
432.000	541
432.074	-705
432.148	-1058
432.222	-1925
432.295	-1125
432.369	-1131
432.443	-1956
432.516	-1299
432.590	-694
432.664	-563
432.737	-2031
432.811	-2367
432.885	-1831
432.958	-1205
433.032	-1940
433.106	-1678
433.179	-1858
433.253	-1193
433.326	-2082
433.400	-1429
433.473	-1113
433.547	-1480
433.620	-2028
433.694	-1921
433.767	-2129
433.841	-2089
433.914	-1691
433.988	-852
434.061	-1404
434.134	-1885
434.208	-1316
434.281	-1476
434.355	-2463
434.428	-1020
434.501	-1549
434.575	-1601
434.648	-2156
434.721	-1712
434.795	-2124
434.868	-1406
434.941	-2303
435.014	-1756
435.088	-1733
435.161	-1849
435.234	-1916
435.307	-1219
435.381	-1564
435.454	-1368
435.527	-1385
435.600	-544
435.673	-1124
435.746	-1477
435.819	-1691
435.892	-1815
435.966	-1191
436.039	-2255
436.112	-1486
436.185	-2043
436.258	-1551
436.331	-1996
436.404	-2076
436.477	-1239
436.550	-2314
436.623	-911
436.696	-1432
436.769	-1069
436.842	-1527
436.915	-1695
436.987	-2194
437.060	-1631
437.133	-1971
437.206	-1895
437.279	-1521
437.352	-1323
437.425	-1424
437.498	-2028
437.570	-1929
437.643	-1947
437.716	-1826
437.789	-1799
437.861	-1989
437.934	-1491
438.007	-1980
438.080	-1539
438.152	-1167
438.225	-1552
438.298	-1584
438.370	92
438.443	-287
438.516	-1040
438.588	-1576
438.661	-1703
438.734	-1617
438.806	-1728
438.879	-1479
438.951	-1745
439.024	-2074
439.096	-1860
439.169	-2467
439.241	-930
439.314	-2475
439.386	-1589
439.459	-1795
439.531	-2026
439.604	-1952
439.676	-1237
439.749	-1681
439.821	-1307
439.893	-1626
439.966	-1232
440.038	-2742
440.110	-1891
440.183	-2153
440.255	-1903
440.327	-1170
440.400	-1531
440.472	-1087
440.544	-1181
440.617	-1729
440.689	-740
440.761	-1725
440.833	-1717
440.905	-1734
440.978	-1817
441.050	-2764
441.122	-966
441.194	-2072
441.266	-1761
441.338	-1838
441.411	-1620
441.483	-2048
441.555	-1544
441.627	-786
441.699	-1418
441.771	-2330
441.843	-1086
441.915	-2016
441.987	-349
442.059	-1675
442.131	-1572
442.203	-1447
442.275	-836
442.347	-1057
442.419	-839
442.491	1605
442.563	15261
442.635	11140
442.706	-293
442.778	-886
442.850	-882
442.922	-1707
442.994	-767
443.066	-2206
443.137	-1295
443.209	-2325
443.281	-1345
443.353	-531
443.425	3497
443.496	25701
443.568	40710
443.640	18036
443.711	2353
443.783	-341
443.855	-1014
443.926	-1310
443.998	-1661
444.070	-1850
444.141	-1441
444.213	-1160
444.285	-821
444.356	-900
444.428	-1663
444.499	-2113
444.571	-906
444.642	-1107
444.714	-1167
444.785	-875
444.857	-1186
444.928	-1665
445.000	-1275
445.071	-1673
445.143	-932
445.214	-804
445.285	-143
445.357	794
445.428	12595
445.500	54402
445.571	49199
445.642	20613
445.714	6928
445.785	816
445.856	-1330
445.928	-1246
445.999	-1182
446.070	-2051
446.141	-1165
446.213	-1401
446.284	-1347
446.355	-1324
446.426	-1806
446.497	-2049
446.569	-1225
446.640	-2210
446.711	-1122
446.782	-1536
446.853	-1377
446.924	-983
446.995	-2000
447.066	-2034
447.138	-1354
447.209	-1009
447.280	-1677
447.351	-1556
447.422	-1552
447.493	-1447
447.564	-2089
447.635	-1840
447.706	-1178
447.777	-1926
447.847	-1333
447.918	-1380
447.989	-1854
448.060	-1883
448.131	-1618
448.202	-2107
448.273	-1446
448.344	-1470
448.414	-1530
448.485	-1970
448.556	-1251
448.627	-1278
448.698	-632
448.768	-1522
448.839	-1602
448.910	-2287
448.981	-1414
449.051	-979
449.122	-1600
449.193	-2443
449.263	-940
449.334	-1620
449.405	-1968
449.475	-1127
449.546	-1431
449.616	-1331
449.687	-1313
449.758	-1484
449.828	-1614
449.899	-2267
449.969	-1106
450.040	-1703
450.110	-1350
450.181	-1319
450.251	-1777
450.322	-1634
450.392	-1297
450.463	-1594
450.533	-1557
450.604	-1436
450.674	-1666
450.744	-1720
450.815	-1478
450.885	-1235
450.955	-1310
451.026	-2326
451.096	-1932
451.166	-1940
451.237	-1657
451.307	-726
451.377	-1300
451.447	-2105
451.518	-1505
451.588	-1632
451.658	-1416
451.728	-1444
451.799	-1383
451.869	-1327
451.939	-1299
452.009	-2460
452.079	-1308
452.149	-1228
452.219	-1741
452.289	-1948
452.360	-1007
452.430	-1568
452.500	-1095
452.570	-2151
452.640	28
452.710	-353
452.780	624
452.850	123
452.920	-1145
452.990	-1143
453.060	-984
453.129	-3101
453.199	-1472
453.269	-1822
453.339	-1387
453.409	-974
453.479	-1776
453.549	-1250
453.619	-828
453.688	-2044
453.758	-1102
453.828	-1785
453.898	-1288
453.968	-1696
454.037	-622
454.087	-1425
454.107	-1761
454.168	-1850
454.177	-1875
454.247	-1998
454.249	-1964
454.316	-1444
454.330	-1463
454.386	-1589
454.411	-1755
454.456	-2097
454.492	-1941
454.525	-1799
454.574	-1087
454.595	-794
454.655	-1813
454.665	-1987
454.734	-1202
454.736	-1216
454.804	-2475
454.817	-2154
454.873	-767
454.898	-1101
454.943	-1788
454.979	-1332
455.013	-864
455.060	-1292
455.082	-1545
455.141	-1451
455.152	-1420
455.221	-1557
455.222	-1543
455.291	-1240
455.303	-1159
455.360	-894
455.384	67
455.430	1666
455.465	1447
455.499	1270
455.546	165
455.569	-339
455.627	-726
455.638	-815
455.707	-911
455.708	-903
455.777	-1663
455.789	-1557
455.846	-1016
455.869	-1412
455.916	-2135
455.950	-1440
455.985	-821
456.031	-1169
456.054	-1344
456.112	-1084
456.124	-1060
456.193	-1797
456.193	-1808
456.262	-755
456.274	-807
456.332	-1208
456.355	-1102
456.401	-796
456.436	-1164
456.470	-1632
456.516	-1483
456.540	-1405
456.597	-1449
456.609	-1460
456.678	-1071
456.678	-1078
456.747	-1020
456.759	-999
456.817	-995
456.840	-1156
456.886	-1437
456.920	-946
456.955	-519
457.001	-1177
457.024	-1495
457.082	-1012
457.093	-884
457.162	-1334
457.163	-1322
457.232	-674
457.243	-819
457.301	-1281
457.324	-1188
457.370	-1129
457.405	-690
457.439	-270
457.485	-750
457.508	-959
457.566	-560
457.577	-508
457.646	-416
457.647	-411
457.715	-296
457.727	-220
457.784	721
457.808	1355
457.853	1807
457.889	3076
457.922	3662
457.969	2348
457.991	2390
458.050	2799
458.060	2921
458.129	4887
458.130	4977
458.198	5338
458.211	4952
458.267	3605
458.292	2510
458.336	1226
458.372	422
458.405	338
458.453	1473
458.474	2345
458.533	4800
458.543	4969
458.611	9379
458.614	9512
458.680	7352
458.694	5845
458.749	2904
458.775	1768
458.818	246
458.855	96
458.887	-91
458.936	-278
458.955	-321
459.016	-698
459.024	-727
459.093	-685
459.097	-692
459.162	-1239
459.177	-1149
459.230	-700
459.257	-573
459.299	-343
459.338	-278
459.368	-239
459.418	12
459.437	-7
459.499	-665
459.505	-684
459.574	-244
459.579	-218
459.643	-547
459.659	-665
459.711	-596
459.740	-598
459.780	-692
459.820	-502
459.849	-384
459.900	-209
459.917	-79
459.981	113
459.986	76
460.054	-110
460.061	-114
460.123	174
460.141	240
460.191	415
460.222	371
460.260	355
460.302	441
460.328	440
460.382	638
460.397	695
460.462	80
460.465	132
460.534	3014
460.543	3307
460.602	13050
460.623	16734
460.671	30312
460.703	42084
460.739	38060
460.783	33978
460.808	30426
460.864	8712
460.876	6998
460.944	877
460.945	810
461.013	306
461.024	273
461.081	213
461.104	233
461.150	275
461.184	268
461.218	317
461.264	280
461.286	195
461.345	68
461.355	91
461.423	199
461.425	207
461.491	-165
461.505	-270
461.559	-425
461.585	-509
461.628	-235
461.665	184
461.696	62
461.745	-255
461.764	-167
461.825	-78
461.832	-92
461.901	-37
461.905	-17
461.969	231
461.985	172
462.037	393
462.065	546
462.105	189
462.145	186
462.173	203
462.225	-194
462.241	-201
462.305	-234
462.310	-230
462.378	-226
462.385	-185
462.446	84
462.465	146
462.514	430
462.545	492
462.582	560
462.625	697
462.650	551
462.705	502
462.718	422
462.785	-617
462.786	-612
462.854	64
462.865	115
462.922	-72
462.945	58
462.990	307
463.025	196
463.058	-140
463.104	-183
463.126	-53
463.184	-53
463.194	69
463.262	874
463.264	904
463.330	992
463.344	1061
463.398	1431
463.424	1352
463.466	478
463.504	28
463.533	286
463.583	225
463.601	138
463.663	313
463.669	297
463.737	-36
463.743	-54
463.805	211
463.823	220
463.873	351
463.903	555
463.940	908
463.982	1115
464.008	802
464.062	287
464.076	321
464.142	254
464.144	256
464.211	458
464.221	465
464.279	450
464.301	413
464.347	52
464.381	-116
464.414	121
464.461	377
464.482	597
464.540	1227
464.550	1159
464.617	499
464.620	479
464.685	1491
464.699	1712
464.753	2724
464.779	3095
464.820	3696
464.859	4552
464.888	4052
464.938	2926
464.956	3018
465.018	3236
465.023	3212
465.091	2786
465.098	2768
465.158	2647
465.177	2532
465.226	2909
465.257	3124
465.293	2932
465.336	2782
465.361	2626
465.416	2221
465.428	2406
465.495	3390
465.496	3390
465.563	2224
465.575	2004
465.631	2403
465.654	2694
465.698	2851
465.734	2808
465.765	3027
465.813	3321
465.833	3096
465.893	2460
465.900	2547
465.968	3266
465.972	3310
466.035	3111
466.052	3038
466.102	3030
466.131	2987
466.170	3258
466.210	3595
466.237	3442
466.290	3065
466.304	3307
466.369	4342
466.372	4340
466.439	4022
466.449	3964
466.506	3812
466.528	3738
466.573	4472
466.607	5012
466.641	4958
466.687	4867
466.708	5026
466.766	5440
466.775	5425
466.842	5188
466.845	5169
466.909	5882
466.925	6031
466.977	5377
467.004	5020
467.044	4917
467.083	4804
467.111	5749
467.163	7483
467.178	7726
467.242	8660
467.245	8592
467.312	6831
467.321	6583
467.379	5473
467.400	5056
467.446	5647
467.480	6057
467.559	5345
467.638	4335
467.717	4593
467.796	4130
467.875	4563
467.955	3879
468.034	4550
468.113	4078
468.192	3820
468.271	4835
468.350	4714
468.429	4898
468.508	5396
468.588	3927
468.667	5213
468.746	6914
468.825	6752
468.904	4392
468.983	4546
469.062	3614
469.141	4635
469.220	3037
469.299	3085
469.378	4307
469.456	6896
469.535	5052
469.614	5368
469.693	3451
469.772	4238
469.851	4150
469.930	4177
470.009	3828
470.088	3952
470.166	3907
470.245	4463
470.324	3774
470.403	3803
470.482	4217
470.560	3939
470.639	3988
470.718	4024
470.797	3445
470.875	4361
470.954	4880
471.033	6243
471.111	3641
471.190	4045
471.269	3290
471.347	3161
471.426	3374
471.505	3458
471.583	5203
471.662	4576
471.740	3843
471.819	4116
471.898	3203
471.976	3593
472.055	3911
472.133	4232
472.212	4197
472.290	3169
472.369	2476
472.447	3259
472.526	2407
472.604	3551
472.683	3317
472.761	3032
472.839	2297
472.918	2917
472.996	2734
473.075	3230
473.153	3288
473.231	2960
473.310	2537
473.388	2796
473.466	3084
473.545	3147
473.623	3268
473.701	3114
473.780	4048
473.858	2751
473.936	4935
474.014	3356
474.093	3267
474.171	3460
474.249	3111
474.327	2329
474.405	2041
474.484	3193
474.562	2309
474.640	2682
474.718	2211
474.796	3165
474.874	3240
474.952	2766
475.030	2884
475.108	3464
475.187	3427
475.265	3084
475.343	2353
475.421	3650
475.499	2382
475.577	2741
475.655	2452
475.733	3294
475.811	2205
475.889	1957
475.966	2068
476.044	2324
476.122	1668
476.200	2164
476.278	2079
476.356	1893
476.434	1449
476.512	2068
476.590	1801
476.667	1877
476.745	1476
476.823	1936
476.901	1050
476.979	1670
477.056	2300
477.134	3257
477.212	3097
477.290	1938
477.367	1715
477.445	1600
477.523	1941
477.601	1937
477.678	1837
477.756	1573
477.834	1874
477.911	1390
477.989	1606
478.066	919
478.144	1112
478.222	1217
478.299	1315
478.377	2496
478.454	1933
478.532	1923
478.609	562
478.687	2212
478.764	1097
478.842	1433
478.919	1000
478.997	2102
479.074	1441
479.152	1201
479.229	2018
479.307	280
479.384	986
479.461	2174
479.539	486
479.616	813
479.694	732
479.771	727
479.848	955
479.926	-287
480.003	1257
480.080	1290
480.157	441
480.235	476
480.312	1389
480.389	1045
480.467	155
480.544	1725
480.621	493
480.698	827
480.775	1053
480.853	905
480.930	909
481.007	1375
481.084	1906
481.161	3316
481.238	1573
481.315	815
481.392	827
481.470	1771
481.547	2285
481.624	837
481.701	1427
481.778	189
481.855	867
481.932	803
482.009	334
482.086	1014
482.163	844
482.240	1660
482.317	871
482.393	2196
482.470	647
482.547	800
482.624	993
482.701	744
482.778	1504
482.855	967
482.932	823
483.009	501
483.085	986
483.162	2436
483.239	2315
483.316	1008
483.393	809
483.469	2252
483.546	933
483.623	954
483.699	362
483.776	865
483.853	1294
483.930	1896
484.006	1362
484.083	3942
484.160	10078
484.236	22671
484.313	16214
484.389	10643
484.466	9903
484.543	9082
484.619	9370
484.696	9623
484.772	8220
484.849	8325
484.925	7071
485.002	8256
485.078	8192
485.155	8369
485.231	6782
485.308	7577
485.384	7261
485.461	7444
485.537	6391
485.614	7112
485.690	7390
485.766	7014
485.843	6709
485.919	6219
485.995	6941
486.072	7019
486.148	5753
486.224	6292
486.301	5754
486.377	6420
486.453	6069
486.530	7857
486.606	10765
486.682	11890
486.758	9414
486.835	8762
486.911	8297
486.987	8627
487.063	7455
487.139	8288
487.215	8681
487.292	8159
487.368	7915
487.444	7937
487.520	8620
487.596	10015
487.672	12816
487.748	23690
487.824	34897
487.900	14109
487.976	7798
488.052	6443
488.128	6164
488.204	5755
488.280	6064
488.356	5993
488.432	5936
488.508	6247
488.584	5428
488.660	5371
488.736	4938
488.812	4911
488.888	6071
488.964	5838
489.039	5514
489.115	6454
489.191	6502
489.267	5142
489.343	5112
489.418	4914
489.494	4305
489.570	4283
489.646	5063
489.722	4814
489.797	4608
489.873	4911
489.949	4340
490.024	4461
490.100	3698
490.176	4827
490.251	3940
490.327	4491
490.403	3638
490.478	3571
490.554	3079
490.629	3964
490.705	3192
490.781	3937
490.856	3017
490.932	3486
491.007	3943
491.083	3402
491.158	2466
491.234	3541
491.309	3426
491.385	3409
491.460	2720
491.536	3722
491.611	2759
491.686	2547
491.762	2514
491.837	2759
491.913	3208
491.988	2653
492.063	3342
492.139	2249
492.214	2433
492.289	2786
492.365	2508
492.440	2240
492.515	740
492.590	3094
492.666	1887
492.741	2365
492.816	1785
492.891	1312
492.967	2857
493.042	1781
493.117	2228
493.192	1406
493.267	3519
493.342	6701
493.418	7963
493.493	2570
493.568	1488
493.643	2419
493.718	810
493.793	1679
493.868	1941
493.943	1512
494.018	2044
494.093	1247
494.168	1849
494.243	2056
494.318	1704
494.393	1099
494.468	1900
494.543	1235
494.618	1127
494.693	1778
494.768	991
494.842	1533
494.917	235
494.992	1855
495.067	620
495.142	1435
495.217	1458
495.292	1352
495.366	523
495.441	679
495.516	585
495.591	504
495.665	1394
495.740	2270
495.815	1178
495.890	1544
495.964	-116
496.039	2496
496.114	2187
496.188	2665
496.263	3251
496.338	1244
496.412	1051
496.487	1564
496.561	372
496.636	1524
496.710	1326
496.785	768
496.860	1444
496.934	2182
497.009	1245
497.083	2693
497.158	2352
497.232	2089
497.307	1666
497.381	2663
497.455	2503
497.530	3302
497.604	4023
497.679	4336
497.753	5556
497.827	7813
497.902	10074
497.976	9107
498.050	8379
498.125	7831
498.199	10169
498.273	13767
498.348	13151
498.422	10620
498.496	7389
498.570	5330
498.645	4098
498.719	3347
498.793	3229
498.867	3092
498.941	2516
499.016	2169
499.090	2549
499.164	3260
499.238	1879
499.312	1383
499.386	1747
499.460	1938
499.534	1423
499.609	925
499.683	1675
499.757	1041
499.831	1291
499.905	2680
499.979	1923
500.053	1403
500.127	823
500.201	-15
500.275	1129
500.349	1524
500.422	436
500.496	662
500.570	928
500.644	2208
500.718	1724
500.792	1286
500.866	1945
500.940	564
501.013	1126
501.087	185
501.161	885
501.235	-174
501.309	1586
501.382	928
501.456	1767
501.530	1109
501.603	735
501.677	836
501.751	-230
501.825	1504
501.898	635
501.972	379
502.046	530
502.119	169
502.193	811
502.266	886
502.340	311
502.413	1442
502.487	136
502.561	602
502.634	243
502.708	780
502.781	-518
502.855	1470
502.928	-252
503.002	1191
503.075	-314
503.149	1071
503.222	144
503.295	207
503.369	488
503.442	807
503.516	1316
503.589	1589
503.662	1041
503.736	1204
503.809	1997
503.882	1260
503.956	1539
504.029	2857
504.102	9183
504.175	15627
504.249	4134
504.322	2314
504.395	787
504.468	645
504.542	-199
504.615	499
504.688	835
504.761	-1057
504.834	904
504.907	707
504.980	422
505.053	-251
505.127	-1032
505.200	1747
505.273	45
505.346	-62
505.419	-45
505.492	419
505.565	-396
505.638	332
505.711	330
505.784	-2
505.857	-690
505.930	921
506.003	-1191
506.076	1453
506.149	-640
506.221	-780
506.294	513
506.367	188
506.440	452
506.513	692
506.586	78
506.659	227
506.731	-180
506.804	-235
506.877	-597
506.950	-442
507.022	357
507.095	-880
507.168	355
507.241	765
507.313	-100
507.386	-920
507.459	-275
507.531	491
507.604	-990
507.677	349
507.749	-690
507.822	1977
507.894	2795
507.967	5808
508.040	3069
508.112	3045
508.185	3015
508.257	1733
508.330	1963
508.402	1327
508.475	1741
508.547	1492
508.620	1217
508.692	1581
508.765	1352
508.837	462
508.909	1315
508.982	1059
509.054	1299
509.127	1391
509.199	561
509.271	1046
509.344	1062
509.416	759
509.488	643
509.560	876
509.633	943
509.705	988
509.777	1220
509.849	1960
509.922	387
509.994	1632
510.066	1679
510.138	1803
510.210	6819
510.283	5442
510.355	3823
510.427	3643
510.499	1979
510.571	2841
510.643	1982
510.715	2848
510.787	1409
510.859	3085
510.931	2358
511.003	3040
511.076	3498
511.148	2712
511.219	1995
511.291	2069
511.363	2241
511.435	1227
511.507	1974
511.579	2872
511.651	2196
511.723	1748
511.795	1704
511.867	2151
511.939	1957
512.010	2750
512.082	1990
512.154	654
512.226	1464
512.298	4063
512.369	6005
512.441	4529
512.513	3695
512.585	2647
512.656	3328
512.728	2662
512.800	2288
512.871	1941
512.943	3448
513.015	2996
513.086	2606
513.158	3199
513.230	2116
513.301	2050
513.373	2943
513.444	1541
513.516	1786
513.588	2130
513.659	2156
513.731	1857
513.802	1853
513.874	3191
513.945	2756
514.016	2355
514.088	2063
514.159	1834
514.231	2000
514.302	4751
514.374	4034
514.445	2079
514.516	4713
514.588	3026
514.659	2408
514.730	2767
514.802	3695
514.873	3674
514.944	5519
515.016	3385
515.087	2213
515.158	3045
515.229	4000
515.301	4559
515.372	7736
515.443	3611
515.514	3002
515.585	2496
515.656	2723
515.728	2828
515.799	2484
515.870	2770
515.941	2055
516.012	1439
516.083	3959
516.154	2894
516.225	3600
516.296	3250
516.367	2430
516.438	2134
516.509	2245
516.580	2506
516.651	2954
516.722	3956
516.793	3430
516.864	1094
516.935	1852
517.006	2077
517.077	1640
517.148	2622
517.219	3937
517.289	4880
517.360	2191
517.431	1989
517.502	1570
517.573	2195
517.643	1448
517.714	2159
517.785	3494
517.856	1873
517.926	2701
517.997	2162
518.068	2548
518.138	3056
518.209	1733
518.280	3289
518.350	7623
518.421	4904
518.492	1637
518.562	2439
518.633	2409
518.703	2544
518.774	6809
518.845	16988
518.915	19158
518.986	4284
519.056	2113
519.127	3518
519.197	2322
519.268	1851
519.338	2640
519.408	1387
519.479	1877
519.549	962
519.620	1204
519.690	1591
519.760	1726
519.831	1639
519.901	598
519.971	2387
520.042	491
520.112	1014
520.182	1042
520.253	223
520.323	871
520.393	571
520.463	2597
520.534	-1123
520.604	1510
520.674	2034
520.744	215
520.814	766
520.885	1187
520.955	1021
521.025	821
521.095	820
521.165	1342
521.235	258
521.305	359
521.375	973
521.445	1612
521.515	461
521.585	435
521.655	-426
521.725	968
521.795	1596
521.865	98
521.935	1825
522.005	-521
522.075	206
522.145	1128
522.215	-397
522.285	959
522.355	72
522.424	988
522.494	722
522.564	528
522.634	243
522.704	1870
522.774	357
522.843	1014
522.913	289
522.983	307
523.053	-168
523.122	509
523.192	-4
523.262	-198
523.331	317
523.401	1037
523.471	493
523.540	-20
523.610	-924
523.680	660
523.749	1144
523.819	356
523.888	-122
523.958	440
524.027	25
524.097	293
524.166	601
524.236	-367
524.305	1637
524.375	632
524.444	297
524.514	1769
524.583	164
524.653	-241
524.722	747
524.791	-603
524.861	1128
524.930	238
524.999	-621
525.069	878
525.138	-435
525.207	-820
525.277	126
525.346	-901
525.415	144
525.484	-31
525.554	-45
525.623	452
525.692	1869
525.761	375
525.830	1446
525.900	1240
525.969	2736
526.038	5271
526.107	10008
526.176	36453
526.245	31068
526.314	8164
526.383	17081
526.452	24612
526.522	41672
526.591	44059
526.660	5131
526.729	3118
526.797	5168
526.867	5089
526.935	17266
527.004	81698
527.073	60500
527.142	4143
527.211	1674
527.280	997
527.349	804
527.418	-192
527.487	723
527.555	-1412
527.624	-496
527.693	-1416
527.762	251
527.831	-781
527.899	-170
527.968	-575
528.037	-1456
528.106	-61
528.174	231
528.243	-797
528.312	241
528.380	-409
528.449	-570
528.518	1589
528.586	-1043
528.655	622
528.723	-88
528.792	-1012
528.861	-499
528.929	-1497
528.998	122
529.066	-721
529.135	-1018
529.203	-762
529.272	-1299
529.340	68
529.409	746
529.477	-1313
529.545	-1839
529.614	456
529.682	-826
529.751	-680
529.819	1292
529.887	-49
529.956	-839
530.024	3
530.092	-948
530.161	939
530.229	-399
530.297	-1562
530.365	609
530.434	-104
530.502	-626
530.570	-47
530.638	-1643
530.707	307
530.775	996
530.843	-907
530.911	88
530.979	-383
531.047	-687
531.115	-69
531.183	-235
531.252	-12
531.320	-460
531.388	-698
531.456	129
531.524	-1048
531.592	827
531.660	-47
531.728	-1150
531.796	-1151
531.864	-324
531.932	380
532.000	-508
532.067	-381
532.135	489
532.203	48
532.271	-945
532.339	603
532.407	795
532.475	-726
532.542	226
532.610	-192
532.678	-810
532.746	386
532.814	1093
532.881	-202
532.949	-51
533.017	-345
533.084	69
533.152	57
533.220	-176
533.287	-593
533.355	-531
533.423	-879
533.490	-115
533.558	-988
533.625	273
533.693	-81
533.761	-52
533.828	871
533.896	-1035
533.963	-516
534.031	733
534.098	-426
534.166	-240
534.233	-869
534.300	241
534.368	455
534.435	-637
534.503	393
534.570	587
534.637	207
534.705	281
534.772	871
534.840	2414
534.907	14904
534.974	23040
535.041	1456
535.109	2
535.176	277
535.243	598
535.310	943
535.378	-696
535.445	155
535.512	-500
535.579	288
535.646	-902
535.714	-97
535.781	2025
535.848	996
535.915	646
535.982	-85
536.049	-456
536.116	779
536.183	122
536.250	-1069
536.317	-715
536.384	390
536.451	31
536.518	69
536.585	-1706
536.652	1042
536.719	-286
536.786	-1168
536.853	87
536.920	404
536.987	-113
537.053	-1051
537.120	537
537.187	-64
537.254	-395
537.321	-1131
537.388	1181
537.454	-581
537.521	-118
537.588	-620
537.654	1303
537.721	458
537.788	840
537.855	-563
537.921	994
537.988	-603
538.055	868
538.121	-790
538.188	785
538.254	-273
538.321	197
538.388	183
538.454	-45
538.521	703
538.587	-87
538.654	-540
538.720	198
538.787	-105
538.853	545
538.920	-379
538.986	-99
539.053	-358
539.119	-640
539.185	-789
539.252	376
539.318	-399
539.385	214
539.451	160
539.517	801
539.583	319
539.650	-206
539.716	800
539.782	-189
539.849	-559
539.915	248
539.981	219
540.047	-316
540.114	-180
540.180	929
540.246	-1185
540.312	-341
540.378	-26
540.444	960
540.510	-242
540.576	485
540.643	-293
540.709	-724
540.775	-48
540.841	269
540.907	1103
540.973	1066
541.039	956
541.105	536
541.171	38
541.237	530
541.303	530
541.369	1072
541.435	629
541.500	651
541.566	-1165
541.632	316
541.698	396
541.764	1133
541.830	202
541.896	-113
541.961	464
542.027	-87
542.093	-398
542.159	484
542.224	-410
542.290	418
542.356	422
542.421	580
542.487	782
542.553	897
542.618	355
542.684	536
542.750	-675
542.815	1478
542.881	-164
542.947	191
543.012	1472
543.078	73
543.143	-912
543.209	536
543.274	-53
543.340	1311
543.405	-306
543.471	-263
543.536	70
543.602	232
543.667	-628
543.732	1254
543.798	45
543.863	974
543.928	543
543.994	-267
544.059	198
544.124	1188
544.190	493
544.255	1339
544.320	789
544.386	466
544.451	1293
544.516	355
544.581	50
544.646	752
544.712	1237
544.777	723
544.842	701
544.907	516
544.972	-110
545.037	90
545.102	1408
545.168	174
545.233	1266
545.298	376
545.363	978
545.428	888
545.493	2193
545.558	-603
545.623	1141
545.688	531
545.753	650
545.818	907
545.883	801
545.947	1090
546.012	837
546.077	1101
546.142	2303
546.207	-433
546.272	1292
546.337	565
546.401	1676
546.466	1885
546.531	625
546.596	1864
546.661	1251
546.725	2506
546.790	863
546.855	2114
546.919	1004
546.984	2363
547.049	1296
547.113	2108
547.178	1268
547.243	3466
547.307	3975
547.372	3464
547.436	3329
547.501	4074
547.565	3982
547.630	4210
547.695	3386
547.759	3066
547.823	2788
547.888	3777
547.952	3443
548.017	3888
548.081	5415
548.146	4635
548.210	3652
548.274	4199
548.339	4113
548.403	4446
548.468	3681
548.532	2494
548.596	4204
548.660	3652
548.725	4758
548.789	4276
548.853	5122
548.917	4371
548.982	3619
549.046	3473
549.110	2127
549.174	2940
549.238	3565
549.303	3469
549.367	5100
549.431	3820
549.495	3579
549.559	3632
549.623	4159
549.687	4632
549.751	4621
549.815	5162
549.879	7393
549.943	4483
550.007	6967
550.071	5891
550.135	5913
550.199	4502
550.263	5145
550.327	5105
550.391	4706
550.455	4989
550.519	5629
550.582	7289
550.646	6669
550.710	6710
550.774	6483
550.838	7575
550.901	7581
550.965	8258
551.029	7376
551.093	9273
551.156	9978
551.220	12119
551.284	13454
551.347	10566
551.411	8224
551.475	8216
551.538	7997
551.602	7153
551.666	6475
551.729	6076
551.793	5721
551.856	6214
551.920	5301
551.983	5923
552.047	5413
552.110	5929
552.174	5933
552.237	6644
552.301	5196
552.364	4577
552.428	4460
552.491	4262
552.554	5379
552.618	5887
552.681	5526
552.745	5070
552.808	5786
552.871	5468
552.934	5362
552.998	4725
553.061	4440
553.124	4597
553.187	4471
553.251	4571
553.314	4750
553.377	4776
553.440	5418
553.503	6952
553.567	8761
553.630	5487
553.693	5510
553.756	6032
553.819	5031
553.882	5626
553.945	4725
554.008	5727
554.071	3879
554.134	5701
554.197	3946
554.260	5368
554.323	6055
554.386	5061
554.449	4713
554.512	5723
554.575	4673
554.638	4525
554.701	5054
554.764	5087
554.827	4674
554.889	4292
554.952	3256
555.015	3783
555.078	4173
555.141	3593
555.203	3515
555.266	4658
555.329	3804
555.391	3222
555.454	3312
555.517	4168
555.580	3522
555.642	2689
555.705	2711
555.768	3101
555.830	3378
555.893	2840
555.955	2961
556.018	1842
556.080	2462
556.143	3048
556.206	2116
556.268	2896
556.330	2944
556.393	2275
556.455	1628
556.518	1937
556.580	3003
556.643	2125
556.705	2074
556.767	463
556.830	2549
556.892	1238
556.955	1465
557.017	2461
557.079	2000
557.142	1451
557.204	1654
557.266	3021
557.328	1529
557.391	1214
557.453	1763
557.515	1839
557.577	793
557.639	1094
557.701	2201
557.764	1467
557.826	1191
557.888	2871
557.950	2291
558.012	2523
558.074	3578
558.136	8734
558.198	26843
558.260	10446
558.322	2059
558.384	2482
558.446	4249
558.508	4568
558.570	7270
558.632	8565
558.694	12201
558.756	19548
558.818	53129
558.880	159504
558.942	53724
559.003	28523
559.065	16905
559.127	5434
559.189	6266
559.251	7548
559.312	11177
559.374	24074
559.436	88588
559.498	51739
559.559	5589
559.621	5666
559.683	6964
559.744	10983
559.806	33466
559.868	65591
559.929	11873
559.991	5450
560.052	7220
560.114	25382
560.176	19847
560.237	12175
560.299	24143
560.360	4998
560.422	1036
560.483	1188
560.545	220
560.606	341
560.667	-550
560.729	-202
560.790	157
560.852	-444
560.913	-144
560.974	-370
561.036	-176
561.097	-466
561.158	373
561.220	857
561.281	-187
561.342	-48
561.403	412
561.465	-995
561.526	644
561.587	661
561.648	-868
561.709	79
561.771	-150
561.832	-435
561.893	-493
561.954	135
562.015	-283
562.076	360
562.137	167
562.198	-144
562.259	-307
562.320	-475
562.381	-113
562.442	-464
562.503	38
562.564	-559
562.625	-826
562.686	-795
562.747	-772
562.808	836
562.869	29
562.930	317
562.991	-1254
563.051	341
563.112	-760
563.173	-323
563.234	-1001
563.294	-275
563.355	-1149
563.416	-143
563.477	147
563.537	71
563.598	-364
563.659	-50
563.720	-750
563.780	-283
563.841	-2
563.901	-186
563.962	-577
564.023	-173
564.083	-2
564.144	-336
564.204	-833
564.265	-1047
564.325	-655
564.386	62
564.446	-336
564.507	-629
564.567	-217
564.628	-741
564.688	-793
564.749	-1042
564.809	-467
564.869	-838
564.930	-1196
564.990	717
565.050	-14
565.111	-165
565.171	-447
565.231	-78
565.292	-601
565.352	-965
565.412	-223
565.472	-759
565.532	-287
565.593	-931
565.653	-426
565.713	-649
565.773	-220
565.833	-472
565.893	724
565.953	37
566.013	-391
566.074	39
566.134	-525
566.194	725
566.254	297
566.314	4
566.374	217
566.434	601
566.494	717
566.554	234
566.614	997
566.673	448
566.733	1516
566.793	976
566.853	1131
566.913	1626
566.973	942
567.033	2140
567.092	540
567.152	1140
567.212	1372
567.272	1885
567.331	1422
567.391	2447
567.451	2685
567.511	3196
567.570	2545
567.630	2291
567.690	1165
567.749	2510
567.809	2376
567.868	4003
567.928	4637
567.988	6199
568.047	8435
568.107	10861
568.166	16836
568.226	30726
568.285	47427
568.345	38005
568.404	25941
568.464	21240
568.523	18567
568.582	19841
568.642	22621
568.701	30891
568.761	46709
568.820	81244
568.879	81309
568.939	50062
568.998	32978
569.057	23967
569.116	17220
569.176	12458
569.235	9516
569.294	7971
569.353	6133
569.413	5420
569.472	4330
569.531	3839
569.590	2589
569.649	2305
569.708	2192
569.767	2435
569.827	1753
569.886	776
569.945	1554
570.004	1674
570.063	757
570.122	1119
570.181	965
570.240	689
570.299	631
570.358	118
570.417	99
570.475	362
570.534	718
570.593	587
570.652	-320
570.711	-68
570.770	82
570.829	-382
570.887	150
570.946	477
571.005	-314
571.064	62
571.122	805
571.181	-1050
571.240	40
571.299	-105
571.357	-1194
571.416	-795
571.475	-40
571.533	-210
571.592	-849
571.650	-311
571.709	93
571.768	-27
571.826	-343
571.885	274
571.943	351
572.002	-274
572.060	116
572.119	-654
572.177	-379
572.236	-415
572.294	-27
572.352	246
572.411	101
572.469	-396
572.528	-433
572.586	466
572.644	31
572.703	-185
572.761	-752
572.819	-554
572.877	-427
572.936	-821
572.994	-888
573.052	-422
573.110	-469
573.169	-547
573.227	-257
573.285	805
573.343	-285
573.401	-441
573.459	-110
573.517	-643
573.576	-350
573.634	45
573.692	-439
573.750	141
573.808	-664
573.866	351
573.924	-276
573.982	-320
574.040	-523
574.098	-361
574.155	-799
574.213	-315
574.271	-659
574.329	-119
574.387	-587
574.445	-243
574.503	-652
574.560	-162
574.618	-557
574.676	-86
574.734	-730
574.792	126
574.849	-238
574.907	-187
574.965	-59
575.022	-781
575.080	-840
575.138	-424
575.195	-786
575.253	-1020
575.311	-321
575.368	-281
575.426	-780
575.483	578
575.541	-845
575.598	-594
575.656	-831
575.713	654
575.771	342
575.828	-541
575.886	-993
575.943	-84
576.001	-251
576.058	-1173
576.115	-1005
576.173	-3
576.230	-938
576.287	-137
576.345	156
576.402	-761
576.459	2
576.517	204
576.574	-448
576.631	-527
576.688	-767
576.746	-617
576.803	-343
576.860	-744
576.917	-1146
576.974	-115
577.031	-889
577.089	-422
577.146	-1084
577.203	-86
577.260	-575
577.317	-440
577.374	-438
577.431	-276
577.488	-938
577.545	-1126
577.602	-458
577.659	-795
577.716	-848
577.773	-456
577.830	-602
577.886	-665
577.943	-576
578.000	-777
578.057	-247
578.114	-785
578.171	-456
578.227	-756
578.284	-770
578.341	-488
578.398	-720
578.454	-651
578.511	-1562
578.568	172
578.625	-1163
578.681	-473
578.738	-235
578.794	110
578.851	-485
578.908	105
578.964	-1107
579.021	268
579.077	-1082
579.134	-1
579.190	-785
579.247	-165
579.303	-693
579.360	-865
579.416	-564
579.473	-715
579.529	-548
579.586	742
579.642	-743
579.698	659
579.755	-329
579.811	-980
579.867	139
579.924	-741
579.980	-220
580.036	-203
580.093	-167
580.149	-716
580.205	-480
580.261	283
580.317	-8
580.374	-700
580.430	140
580.486	-59
580.542	-161
580.598	-472
580.619	-657
580.654	-982
580.692	-285
580.710	61
580.765	-643
580.767	-667
580.823	296
580.838	164
580.879	-205
580.911	-329
580.935	-416
580.984	-1307
580.991	-1432
581.047	69
581.057	87
581.103	142
581.130	-193
581.159	-546
581.203	-110
581.215	-3
581.270	-38
581.276	-61
581.326	-232
581.349	-188
581.382	-142
581.422	-328
581.438	-414
581.494	-67
581.494	-69
581.550	-455
581.567	-351
581.606	-137
581.640	-376
581.661	-486
581.713	431
581.717	495
581.773	-270
581.786	-252
581.829	-256
581.859	-224
581.885	-127
581.932	-424
581.940	-494
581.996	-449
582.004	-348
582.052	172
582.077	60
582.107	-65
582.150	-83
582.163	-77
582.219	-651
582.223	-584
582.274	282
582.296	183
582.330	-35
582.368	-316
582.386	-450
582.441	280
582.441	280
582.497	-52
582.514	3
582.552	81
582.587	380
582.608	555
582.659	-24
582.663	-78
582.719	705
582.732	779
582.774	1233
582.805	623
582.830	18
582.877	255
582.885	305
582.941	628
582.950	616
582.996	552
583.023	683
583.052	840
583.095	713
583.107	655
583.162	272
583.168	394
583.218	1649
583.240	1324
583.273	725
583.313	711
583.328	747
583.384	881
583.385	892
583.439	1121
583.458	966
583.494	674
583.531	1124
583.549	1412
583.603	1118
583.605	1104
583.660	1225
583.676	1264
583.715	1423
583.748	1128
583.770	858
583.820	1357
583.825	1424
583.881	1255
583.893	1079
583.936	484
583.965	914
583.991	1228
584.038	1033
584.046	1008
584.101	1003
584.110	1056
584.156	1336
584.183	1207
584.211	1100
584.255	1076
584.266	1045
584.321	1058
584.328	1074
584.376	1402
584.400	1888
584.431	2405
584.472	2124
584.486	2089
584.541	1721
584.545	1754
584.596	2006
584.617	2001
584.651	2119
584.689	1946
584.706	1943
584.761	2374
584.762	2372
584.816	1923
584.834	1984
584.871	2216
584.906	2406
584.926	2506
584.978	2214
584.980	2203
585.035	2665
585.051	2675
585.090	3143
585.123	3982
585.145	4203
585.195	3468
585.200	3469
585.254	4133
585.267	4439
585.309	5265
585.340	5834
585.364	6130
585.412	6304
585.419	6387
585.473	7638
585.484	7955
585.528	9470
585.556	10744
585.583	13079
585.628	19103
585.637	21643
585.692	43331
585.700	48288
585.747	72309
585.772	66744
585.801	46298
585.845	16725
585.856	12459
585.910	6485
585.917	6036
585.965	5973
585.989	5947
586.019	5888
586.061	5248
586.074	5150
586.128	5778
586.133	5776
586.183	5398
586.205	5548
586.237	6027
586.277	5770
586.292	5693
586.346	6062
586.349	6085
586.401	6179
586.421	6258
586.455	6691
586.493	6540
586.509	6564
586.564	7059
586.565	7070
586.618	7444
586.637	7355
586.672	7465
586.709	7961
586.727	8122
586.781	8522
586.781	8532
586.835	8859
586.853	8984
586.889	9209
586.925	9141
586.944	9080
586.996	9883
586.998	9922
587.052	9989
587.068	10216
587.106	10620
587.140	10420
587.161	10456
587.212	11783
587.215	11858
587.269	11991
587.284	12168
587.323	12509
587.356	12834
587.377	13443
587.427	15118
587.431	15197
587.485	15679
587.499	15822
587.539	16738
587.571	17320
587.593	17778
587.643	19113
587.648	19302
587.702	20849
587.715	21360
587.755	22726
587.786	23675
587.810	24839
587.858	26986
587.864	27194
587.917	29487
587.930	30069
587.971	33448
588.001	35731
588.025	37554
588.073	41274
588.079	42004
588.133	48914
588.145	50476
588.187	56020
588.217	59604
588.241	64159
588.288	74730
588.295	76286
588.348	89360
588.360	92133
588.402	105466
588.431	115738
588.456	125731
588.503	146531
588.510	150427
588.564	182364
588.575	189506
588.617	226410
588.646	254066
588.671	289042
588.718	359768
588.725	378005
588.778	527165
588.789	559585
588.832	773961
588.861	921317
588.886	1046257
588.932	1254432
588.939	1251459
588.993	1145604
589.004	1134574
589.047	1162550
589.075	1156216
589.100	1020434
589.147	726335
589.154	699860
589.207	500572
589.218	461989
589.261	409023
589.290	378956
589.314	385791
589.361	405180
589.368	419732
589.421	548472
589.433	577693
589.475	800260
589.504	957752
589.528	1050630
589.576	1183074
589.582	1173669
589.635	1067020
589.647	1036386
589.689	778593
589.718	582227
589.742	479794
589.790	286960
589.795	277570
589.849	196385
589.861	178359
589.902	146037
589.932	123506
589.955	113968
590.004	94198
590.009	92937
590.062	78925
590.075	75580
590.115	67760
590.146	61469
590.168	58647
590.218	52427
590.222	52091
590.275	46888
590.289	45544
590.328	42768
590.360	40344
590.381	38858
590.431	35118
590.435	34991
590.488	31918
590.503	31063
590.541	29825
590.574	28751
590.594	28032
590.645	26021
590.647	26014
590.700	24551
590.716	24076
590.753	23049
590.787	22033
590.806	21539
590.859	20398
590.859	20429
590.912	19905
590.930	19769
590.965	19353
591.001	18755
591.018	18469
591.071	17536
591.072	17487
591.124	17096
591.143	16870
591.177	16135
591.214	15335
591.230	15315
591.283	15169
591.285	15123
591.336	14772
591.356	14630
591.389	14450
591.427	14118
591.442	13807
591.495	12685
591.498	12557
591.547	12678
591.569	12805
591.600	12395
591.640	11657
591.653	11659
591.706	11619
591.711	11577
591.759	11306
591.782	11216
591.811	11433
591.853	11560
591.864	11458
591.917	10873
591.924	10747
591.969	10829
591.995	10900
592.022	11087
592.066	11248
592.075	11117
592.127	10146
592.137	9938
592.180	9849
592.208	9742
592.233	9999
592.279	10475
592.285	10452
592.338	9996
592.350	9874
592.390	9920
592.421	9905
592.443	9576
592.491	8799
592.495	8885
592.548	9822
592.562	10061
592.600	9556
592.633	9080
592.653	8841
592.704	8133
592.705	8196
592.775	9004
592.846	9335
592.916	8374
592.987	10008
593.058	8844
593.128	8782
593.199	8474
593.270	8834
593.341	7897
593.411	8193
593.482	7587
593.553	8669
593.623	8549
593.694	9115
593.764	8316
593.835	8653
593.906	8160
593.976	8539
594.047	8249
594.117	9154
594.188	8705
594.258	8534
594.329	8609
594.399	8498
594.470	9025
594.540	9670
594.611	8362
594.681	8722
594.751	9279
594.822	9058
594.892	9152
594.963	9667
595.033	9308
595.103	9698
595.174	9237
595.244	9428
595.314	9580
595.384	9324
595.455	10222
595.525	10251
595.595	10067
595.665	9954
595.736	9845
595.806	10085
595.876	10408
595.946	10823
596.016	10342
596.087	11611
596.157	10327
596.227	11355
596.297	10792
596.367	11236
596.437	12133
596.507	12526
596.577	11575
596.647	12524
596.717	12973
596.787	13500
596.857	12803
596.927	13831
596.997	13637
597.067	14099
597.137	14202
597.207	14144
597.277	13677
597.347	14152
597.417	12703
597.487	12410
597.557	12648
597.626	14353
597.696	12647
597.766	13527
597.836	13216
597.906	12491
597.975	11787
598.045	11470
598.115	12492
598.185	13529
598.254	15220
598.324	16119
598.394	15624
598.464	14954
598.533	15642
598.603	14922
598.672	13920
598.742	13825
598.812	14405
598.881	14460
598.951	14376
599.020	14631
599.090	15521
599.159	15928
599.229	14670
599.299	14173
599.368	15136
599.437	15230
599.507	13451
599.576	13366
599.646	12966
599.715	12018
599.785	11773
599.854	11765
599.924	12050
599.993	11964
600.062	12548
600.132	11968
600.201	11991
600.270	14731
600.340	15348
600.409	15570
600.478	15276
600.547	15260
600.617	15222
600.686	11532
600.755	10684
600.824	11238
600.894	9299
600.963	9884
601.032	8775
601.101	9904
601.170	8283
601.239	7825
601.308	8840
601.378	8587
601.447	8265
601.516	8809
601.585	8240
601.654	8606
601.723	8308
601.792	8453
601.861	9495
601.930	9665
601.999	9448
602.068	9330
602.137	9141
602.206	9570
602.275	9903
602.343	9496
602.412	9982
602.481	9870
602.550	10060
602.619	10989
602.688	10246
602.756	9898
602.825	10739
602.894	10894
602.963	11149
603.032	12619
603.100	11694
603.169	10411
603.238	10894
603.307	11601
603.375	11798
603.444	12227
603.513	12710
603.581	12487
603.650	12163
603.719	12044
603.787	12290
603.856	12913
603.924	12479
603.993	12763
604.061	13399
604.130	15803
604.198	14963
604.267	14556
604.335	15547
604.404	15834
604.472	15832
604.541	16446
604.609	16355
604.678	16992
604.746	16794
604.815	17129
604.883	17064
604.951	17597
605.020	17650
605.088	18043
605.156	17391
605.225	18224
605.293	19222
605.361	19080
605.429	18824
605.498	18853
605.566	19941
605.634	21496
605.702	21181
605.771	22613
605.839	22777
605.907	22093
605.975	21425
606.043	21311
606.111	20488
606.180	21568
606.248	19727
606.316	20376
606.384	20083
606.452	20371
606.520	20052
606.588	21701
606.656	21823
606.724	22060
606.792	20258
606.860	18923
606.928	16493
606.996	15729
607.064	16166
607.132	15530
607.200	16149
607.267	17394
607.335	17476
607.403	18842
607.471	18007
607.539	16772
607.607	17262
607.674	15869
607.742	14811
607.810	14742
607.878	14610
607.946	15580
608.013	16209
608.081	16786
608.149	15539
608.216	17058
608.284	17694
608.352	18346
608.419	17118
608.487	16359
608.555	16264
608.622	17467
608.690	17969
608.757	20084
608.825	21017
608.893	21229
608.960	18616
609.028	18556
609.095	18825
609.163	19008
609.230	16268
609.298	15106
609.365	15074
609.432	16681
609.500	17482
609.567	20562
609.635	24132
609.702	26529
609.769	25253
609.837	20913
609.904	15281
609.971	16281
610.039	19201
610.106	23777
610.173	43163
610.241	106666
610.308	81133
610.375	23116
610.442	17729
610.509	16063
610.577	18045
610.644	16798
610.711	16609
610.778	17525
610.845	18353
610.912	20061
610.980	20323
611.047	20854
611.114	21782
611.181	19663
611.248	19850
611.315	21355
611.382	21269
611.449	21594
611.516	23013
611.583	22220
611.650	22631
611.717	23463
611.784	23419
611.851	23571
611.918	26050
611.984	30686
612.051	44522
612.118	92689
612.185	243589
612.252	215644
612.319	42954
612.386	30362
612.452	28259
612.519	25647
612.586	25226
612.653	25570
612.719	27261
612.786	26043
612.853	24059
612.919	22436
612.986	24249
613.053	21609
613.120	21094
613.186	20166
613.253	20626
613.319	19804
613.386	19858
613.453	21643
613.519	20594
613.586	20575
613.652	19600
613.719	19954
613.785	21006
613.852	21735
613.918	20180
613.985	21561
614.051	22427
614.118	23789
614.184	23399
614.250	20605
614.317	21548
614.383	21093
614.449	21209
614.516	21740
614.582	21641
614.648	21409
614.715	20582
614.781	20708
614.847	20105
614.914	20323
614.980	19377
615.046	20063
615.112	19932
615.179	21428
615.245	22324
615.311	26347
615.377	36849
615.443	44301
615.509	26217
615.575	24097
615.642	22421
615.708	23000
615.774	25284
615.840	26520
615.906	30981
615.972	45322
616.038	86807
616.104	153918
616.170	314645
616.236	373155
616.302	70279
616.368	39635
616.434	28416
616.500	25572
616.565	27038
616.631	34057
616.697	28132
616.763	27763
616.829	38946
616.895	72121
616.961	79159
617.026	34448
617.092	22115
617.158	20591
617.224	20200
617.289	18589
617.355	18272
617.421	16744
617.487	17286
617.552	17501
617.618	16766
617.684	16242
617.749	17802
617.815	15710
617.880	15714
617.946	16037
618.012	15924
618.077	15413
618.143	15117
618.208	15339
618.274	17212
618.339	17859
618.405	13937
618.470	14094
618.536	13749
618.601	14056
618.667	13131
618.732	12426
618.798	11804
618.863	11864
618.928	11892
618.994	11703
619.059	10841
619.124	11480
619.190	11582
619.255	11388
619.320	11447
619.386	11659
619.451	11149
619.516	10783
619.581	11967
619.647	11991
619.712	12004
619.777	11362
619.842	10785
619.907	11198
619.972	11229
620.038	11169
620.103	11224
620.168	10125
620.233	11319
620.298	11643
620.363	11017
620.428	11901
620.493	12154
620.558	12770
620.623	12412
620.688	12295
620.753	12136
620.818	12571
620.883	11960
620.948	12848
621.013	12333
621.078	12362
621.143	10542
621.207	13093
621.272	12565
621.337	11924
621.402	11578
621.467	10930
621.532	11017
621.596	11878
621.661	11401
621.726	11557
621.791	11127
621.855	12068
621.920	10464
621.985	10815
622.049	11200
622.114	11757
622.179	11269
622.243	11747
622.308	11256
622.373	13060
622.437	12549
622.502	11666
622.566	11153
622.631	10778
622.695	12592
622.760	12544
622.824	11714
622.889	12159
622.953	10960
623.018	12874
623.082	12338
623.147	12424
623.211	12222
623.276	12615
623.340	12306
623.404	11834
623.469	11307
623.533	11463
623.597	10815
623.662	11383
623.726	10000
623.790	8943
623.854	9089
623.919	9502
623.983	8756
624.047	10369
624.111	10009
624.176	10179
624.240	9143
624.304	10687
624.368	9799
624.432	10364
624.496	9962
624.560	11046
624.625	10629
624.689	11457
624.753	10611
624.817	11916
624.881	10103
624.945	9593
625.009	8852
625.073	8904
625.137	8052
625.201	10516
625.265	9517
625.329	9842
625.393	9180
625.456	10132
625.520	9716
625.584	10363
625.648	11091
625.712	11140
625.776	10645
625.839	10987
625.903	7784
625.967	7337
626.031	8804
626.095	9883
626.158	10100
626.222	6975
626.286	6331
626.349	6604
626.413	5579
626.477	7083
626.540	6176
626.604	6222
626.668	6288
626.731	6324
626.795	5589
626.858	5115
626.922	5717
626.986	5637
627.049	5174
627.113	5660
627.176	6795
627.240	5682
627.303	5973
627.366	5406
627.430	5812
627.493	5011
627.557	5142
627.620	5565
627.684	5203
627.747	6166
627.810	4679
627.874	4922
627.937	3925
628.000	5563
628.064	4110
628.127	3458
628.190	4262
628.253	4195
628.317	3206
628.380	3542
628.443	2984
628.506	3517
628.569	2899
628.632	3130
628.696	3204
628.759	3007
628.822	2513
628.885	2764
628.948	2453
629.011	2313
629.074	2353
629.137	2784
629.200	1567
629.263	2955
629.326	1808
629.389	2426
629.452	2309
629.515	1935
629.578	1496
629.641	2243
629.704	1761
629.767	2316
629.830	2132
629.892	2591
629.955	1470
630.018	3058
630.081	1624
630.144	2268
630.207	1222
630.269	2700
630.332	1671
630.395	2394
630.458	1842
630.520	843
630.583	1867
630.646	2168
630.708	1849
630.771	1377
630.834	2005
630.896	1915
630.959	1683
631.021	2228
631.084	1449
631.146	2114
631.209	2564
631.272	2396
631.334	1913
631.397	1630
631.459	1258
631.522	1694
631.584	2387
631.646	2578
631.709	2190
631.771	1828
631.834	1961
631.896	3308
631.958	1888
632.021	1940
632.083	637
632.145	1932
632.208	1062
632.270	2628
632.332	555
632.395	1103
632.457	1699
632.519	1745
632.581	1883
632.643	843
632.706	1072
632.768	1698
632.830	1851
632.892	2313
632.954	1452
633.016	2940
633.078	467
633.141	2351
633.203	1742
633.265	1974
633.327	1497
633.389	1867
633.451	1808
633.513	1526
633.575	1657
633.637	1063
633.698	1694
633.760	2461
633.822	1956
633.884	2666
633.946	1893
634.008	1372
634.070	2250
634.132	1981
634.193	2527
634.255	3907
634.317	2855
634.379	3201
634.441	2065
634.502	1841
634.564	1535
634.626	1607
634.687	2065
634.749	2073
634.811	1821
634.873	907
634.934	1767
634.996	2397
635.057	1377
635.119	1332
635.181	1922
635.242	1832
635.304	-111
635.365	3042
635.427	933
635.488	1714
635.550	1260
635.611	1579
635.673	177
635.734	2250
635.796	1757
635.857	1968
635.918	1695
635.980	3410
636.041	2135
636.102	3380
636.164	2401
636.225	4842
636.286	1071
636.348	3036
636.409	1797
636.470	1519
636.531	1706
636.593	1357
636.654	1270
636.715	1334
636.776	1342
636.838	875
636.899	1477
636.960	1296
637.021	1548
637.082	748
637.143	1185
637.204	1327
637.265	446
637.326	1717
637.387	752
637.448	227
637.509	1162
637.570	1149
637.631	1428
637.692	799
637.753	630
637.814	322
637.875	743
637.936	1884
637.997	782
638.058	1162
638.119	998
638.179	987
638.240	706
638.301	1104
638.362	320
638.423	861
638.483	766
638.544	509
638.605	1359
638.666	1038
638.726	880
638.787	1315
638.848	732
638.908	1023
638.969	614
639.030	979
639.090	972
639.151	746
639.211	809
639.272	1230
639.332	599
639.393	1385
639.453	357
639.514	1071
639.574	741
639.635	950
639.695	1166
639.756	483
639.816	883
639.877	267
639.937	447
639.997	168
640.058	560
640.118	398
640.178	1271
640.239	939
640.299	-166
640.359	415
640.420	890
640.480	1358
640.540	1347
640.600	2122
640.661	1164
640.721	758
640.781	2598
640.841	2836
640.901	1803
640.961	1223
641.021	818
641.082	410
641.142	552
641.202	797
641.262	-185
641.322	1103
641.382	-218
641.442	799
641.502	254
641.562	931
641.622	255
641.682	560
641.742	1126
641.802	1098
641.861	879
641.921	814
641.981	305
642.041	609
642.101	-305
642.161	-252
642.221	170
642.280	-69
642.340	577
642.400	143
642.460	516
642.519	749
642.579	526
642.639	809
642.698	-1066
642.758	1612
642.818	164
642.877	625
642.937	365
642.997	-284
643.056	1094
643.116	-447
643.175	1722
643.235	88
643.294	988
643.354	1056
643.414	1276
643.473	2593
643.532	2386
643.592	3476
643.651	7312
643.711	17039
643.770	33734
643.830	76756
643.889	229872
643.948	88115
644.008	8106
644.067	3874
644.126	2388
644.186	1609
644.245	1424
644.304	118
644.363	1866
644.423	766
644.482	725
644.541	788
644.600	-410
644.659	2100
644.719	641
644.778	2721
644.837	5815
644.896	13498
644.955	37996
645.014	20141
645.073	2217
645.132	264
645.191	1032
645.250	799
645.309	977
645.368	470
645.427	1724
645.486	2075
645.545	7071
645.604	1844
645.663	758
645.722	418
645.781	1320
645.840	1652
645.898	1589
645.957	4073
646.016	5876
646.075	14433
646.134	28506
646.192	73797
646.251	169108
646.310	34832
646.369	4090
646.427	3280
646.486	980
646.545	2026
646.603	1114
646.662	976
646.721	54
646.779	254
646.838	-626
646.896	930
646.955	1580
647.014	4179
647.072	6303
647.131	21010
647.189	16468
647.248	1363
647.306	1433
647.365	900
647.423	-1258
647.481	689
647.540	-1258
647.598	518
647.657	-194
647.715	266
647.773	-977
647.832	388
647.890	-825
647.948	-914
648.007	633
648.065	-324
648.123	-1019
648.181	454
648.240	-645
648.298	-243
648.356	-962
648.414	36
648.472	228
648.531	-242
648.589	-378
648.647	-326
648.705	-922
648.763	-358
648.821	-437
648.879	-442
648.937	174
648.995	804
649.053	94
649.111	1866
649.169	4062
649.227	10003
649.285	19142
649.343	70137
649.401	56344
649.459	4981
649.516	1566
649.574	-732
649.632	1005
649.690	1457
649.748	1072
649.806	1050
649.863	4345
649.921	13152
649.979	14837
650.037	1178
650.094	-1674
650.152	200
650.210	-913
650.268	695
650.325	-291
650.383	1364
650.440	-889
650.498	-93
650.556	-403
650.613	-95
650.671	-368
650.728	-415
650.786	-518
650.843	-518
650.901	-1519
650.958	-843
651.016	-457
651.073	-867
651.131	-681
651.188	-2280
651.246	-8
651.303	-1073
651.360	-827
651.418	-813
651.475	-856
651.532	-845
651.590	-48
651.647	-1817
651.704	-1147
651.762	-988
651.819	-1150
651.876	-1056
651.933	-1080
651.990	-84
652.048	-2096
652.105	-614
652.162	-643
652.219	-1015
652.276	-80
652.333	-252
652.390	-1669
652.448	-547
652.505	-1308
652.562	-204
652.619	-1226
652.676	-905
652.733	88
652.790	-1208
652.847	-1904
652.904	-589
652.961	-1923
653.017	-1544
653.074	-348
653.131	-1087
653.188	-1941
653.245	-1344
653.302	-643
653.359	-962
653.415	-854
653.472	-1611
653.529	-641
653.586	-1317
653.642	-683
653.699	-311
653.756	-2303
653.813	-985
653.869	-1236
653.926	-1847
653.983	-1487
654.039	-540
654.096	-1190
654.152	969
654.209	-1484
654.266	-352
654.322	-1970
654.379	-260
654.435	-1692
654.492	-1434
654.548	-1053
654.605	-1007
654.661	-373
654.717	-1580
654.774	-978
654.830	-863
654.887	-751
654.943	-322
655.000	-931
655.056	-732
655.112	-1338
655.168	-1032
655.225	-1149
655.281	-452
655.337	-1252
655.394	-2056
655.450	-1035
655.506	-770
655.562	-2216
655.618	186
655.675	-2305
655.731	-438
655.787	-1510
655.843	-755
655.899	-1774
655.955	-195
656.011	-746
656.067	-1074
656.123	-254
656.179	-252
656.235	-691
656.291	-2209
656.347	-569
656.403	-1759
656.459	-1384
656.515	-1030
656.571	-801
656.627	-997
656.683	-1572
656.739	482
656.795	-1393
656.850	-495
656.906	-1386
656.962	-612
657.018	-1023
657.074	-1608
657.129	-585
657.185	-165
657.241	104
657.297	-444
657.352	-1080
657.408	-1058
657.464	76
657.519	-907
657.575	-1792
657.630	-646
657.686	-332
657.742	-1285
657.797	-1319
657.853	-2119
657.908	-359
657.964	-2007
658.019	-833
658.075	-299
658.130	-367
658.186	-1313
658.241	-1081
658.297	-1744
658.352	-2244
658.407	-64
658.463	-1291
658.518	-1179
658.573	-1682
658.629	-730
658.684	-1077
658.739	-775
658.795	-1735
658.850	-460
658.905	-2306
658.960	-649
659.016	-612
659.071	-1393
659.126	-1303
659.181	-1448
659.236	-397
659.291	-1024
659.346	-2213
659.401	-1944
659.457	-961
659.512	-867
659.567	-528
659.622	-483
659.677	-1424
659.732	-2209
659.787	-1009
659.842	-1403
659.897	-1505
659.952	-835
660.007	-1554
660.061	-867
660.116	-2042
660.171	-1494
660.226	-1199
660.281	-653
660.336	-1449
660.391	-974
660.445	-1245
660.500	-997
660.555	-1018
660.610	-2039
660.664	-386
660.719	-1190
660.774	-1189
660.828	-1026
660.883	-898
660.938	-1513
660.992	-2625
661.047	-617
661.101	-1109
661.156	-1480
661.211	-1838
661.265	-1102
661.320	-1914
661.374	-1250
661.429	-1089
661.483	-1455
661.538	-1462
661.592	-1107
661.647	-1421
661.701	-852
661.755	-1143
661.810	-848
661.864	-2442
661.919	-1324
661.973	-853
662.027	-1412
662.081	-1413
662.136	-1464
662.190	-838
662.244	-741
662.299	-2365
662.353	-1301
662.407	-1752
662.461	-1213
662.515	-1177
662.569	-1646
662.624	-812
662.678	-1371
662.732	-1259
662.786	-1972
662.840	-1155
662.894	-536
662.948	-2415
663.002	-943
663.056	-1429
663.110	-2533
663.164	-2140
663.218	-1714
663.272	-954
663.326	-491
663.380	-1565
663.434	-1492
663.488	-1594
663.542	-971
663.595	-1254
663.649	-2154
663.703	-213
663.757	-1058
663.811	-1672
663.864	-1008
663.918	-1018
663.972	-2144
664.026	-1939
664.079	-2001
664.133	-1350
664.187	-1916
664.240	-1536
664.294	-1422
664.348	-1256
664.401	-623
664.455	-940
664.508	-1713
664.562	-1498
664.615	-936
664.669	-2182
664.722	-938
664.776	-1761
664.829	-714
664.883	-1601
664.936	-1876
664.990	-1619
665.043	-1071
665.097	-2309
665.150	-930
665.203	-2302
665.257	-1675
665.310	-1285
665.363	-1517
665.417	-1564
665.470	-1656
665.523	-1639
665.576	-1113
665.630	-1047
665.683	-1259
665.736	-2086
665.789	-1010
665.842	-2564
665.895	-2108
665.949	-1474
666.002	-1240
666.055	-2058
666.108	-1363
666.161	-1768
666.214	-1382
666.267	-2264
666.320	-1421
666.373	-1358
666.426	-1736
666.479	-1812
666.532	-1341
666.585	-2036
666.638	-559
666.691	-2625
666.744	-1795
666.796	-2270
666.849	-1446
666.902	-1518
666.955	-1189
667.008	-2172
667.060	-1682
667.113	-1859
667.166	-1184
667.219	-2069
667.271	-1429
667.324	-1361
667.377	-838
667.430	-1816
667.482	-927
667.535	-1265
667.587	-1284
667.640	-1222
667.693	-2243
667.745	-1513
667.798	-1435
667.850	-1331
667.903	-1459
667.955	-1334
668.008	-1485
668.060	-1474
668.113	-2315
668.165	-1979
668.218	-1724
668.270	-1955
668.322	-1332
668.375	-2068
668.427	-762
668.479	-2194
668.532	-1495
668.584	-1650
668.636	-1504
668.689	-1794
668.741	-1770
668.793	-1040
668.845	-1196
668.898	-1330
668.950	-1473
669.002	-727
669.054	-1836
669.106	-1950
669.158	-1452
669.211	-1660
669.263	-859
669.315	-907
669.367	-882
669.419	-1977
669.471	-351
669.523	-717
669.575	379
669.627	-1075
669.679	-1467
669.731	-1547
669.783	-888
669.835	-900
669.886	-1254
669.938	-1817
669.990	-912
670.042	-2155
670.094	-1163
670.146	-1858
670.197	-1748
670.249	-820
670.301	-1995
670.353	-1399
670.404	-1075
670.456	-1120
670.508	-622
670.560	-419
670.611	900
670.663	1926
670.715	8682
670.766	21301
670.818	7660
670.869	-479
670.921	-1743
670.972	-1382
671.024	-1657
671.075	-1270
671.127	-1378
671.178	-1610
671.230	-1310
671.281	-1637
671.333	-919
671.384	-1966
671.436	-1227
671.487	-766
671.538	-589
671.590	-56
671.641	743
671.692	2439
671.744	8950
671.795	7257
671.846	291
671.897	-1378
671.949	-1160
672.000	-2188
672.051	-1320
672.102	-1615
672.153	-1442
672.204	-1686
672.256	-1466
672.307	-1436
672.358	-1578
672.409	-1744
672.460	-1455
672.511	-2391
672.562	-2176
672.613	-2008
672.664	-1805
672.715	-2078
672.766	-1001
672.817	-1405
672.868	-1524
672.919	-1197
672.970	-1202
673.021	-1781
673.071	-1037
673.122	-2058
673.173	-1916
673.224	-1034
673.275	-1770
673.326	-2055
673.376	-1341
673.427	-1761
673.478	-1530
673.528	-1137
673.579	-1447
673.630	-2358
673.680	-862
673.731	-2458
673.782	-1778
673.832	-2243
673.883	-1631
673.934	-2303
673.984	-1462
674.035	-2115
674.085	-1421
674.136	-1916
674.186	-1802
674.237	-1567
674.287	-1893
674.338	-1080
674.388	-1730
674.438	-2378
674.489	-1341
674.539	-1696
674.589	-1365
674.640	-1343
674.690	-1196
674.740	-2381
674.791	-1807
674.841	-2422
674.891	-1832
674.942	-1398
674.992	-1831
675.042	-2150
675.092	-1203
675.142	-1733
675.193	-2258
675.243	-2003
675.293	-1189
675.343	-2573
675.393	-1791
675.443	-1637
675.493	-2225
675.543	-2922
675.593	-2111
675.643	-1897
675.693	-1889
675.743	-1277
675.793	-864
675.843	-2001
675.893	-1468
675.943	-1709
675.993	-1903
676.043	-1872
676.093	-1361
676.142	-2137
676.192	-1581
676.242	-2117
676.292	-2486
676.341	-2187
676.391	-1966
676.441	-1944
676.491	-1882
676.540	-2377
676.590	-1442
676.640	-1352
676.689	-1762
676.739	-2295
676.789	-1729
676.838	-1907
676.888	-1575
676.937	-2157
676.987	-2741
677.037	-2082
677.086	-2832
677.136	-2079
677.185	-2518
677.235	-1499
677.284	-1645
677.333	-2197
677.383	-1515
677.432	-2297
677.482	-1703
677.531	-2009
677.580	-1617
677.630	-2534
677.679	-1806
677.728	-2623
677.778	-1801
677.827	-2894
677.876	-2047
677.925	-2304
677.975	-1338
678.024	-2135
678.073	-1996
678.122	-1634
678.171	-1861
678.220	-2805
678.269	-774
678.319	-2446
678.368	-2238
678.417	-1838
678.466	-1466
678.515	-1481
678.564	-1980
678.613	-2127
678.662	-1878
678.711	-2546
678.760	-1837
678.809	-1965
678.857	-1869
678.906	-2277
678.955	-2172
679.004	-1652
679.053	-1366
679.102	-2383
679.151	-2008
679.199	-2827
679.248	-1598
679.297	-1828
679.346	-1422
679.394	-2256
679.443	-1927
679.492	-2069
679.540	-1850
679.589	-2426
679.638	-1670
679.686	-1460
679.735	-2297
679.784	-2525
679.832	-2270
679.881	-1598
679.929	-2403
679.978	-2527
680.026	-2137
680.075	-1696
680.123	-2395
680.172	-2128
680.220	-1882
680.268	-2644
680.317	-1701
680.365	-2399
680.414	-2343
680.462	-2017
680.510	-2023
680.559	-2572
680.607	-2474
680.655	-1622
680.703	-1799
680.752	-1385
680.800	-1797
680.848	-2484
680.896	-2544
680.945	-2244
680.993	-2944
681.041	-2482
681.089	-2091
681.137	-2242
681.185	-2862
681.233	-2088
681.258	-1756
681.281	-1449
681.329	-1668
681.377	-2662
681.380	-2628
681.425	-2163
681.473	-2057
681.502	-1806
681.521	-1648
681.569	-1880
681.617	-1835
681.624	-1828
681.665	-1833
681.713	-1877
681.745	-2147
681.761	-2288
681.809	-2176
681.857	-1569
681.867	-1650
681.904	-1957
681.952	-1762
681.989	-2208
682.000	-2353
682.048	-1836
682.096	-1920
682.111	-2030
682.143	-2292
682.191	-2247
682.233	-2113
682.239	-2104
682.286	-2124
682.334	-1354
682.354	-1523
682.382	-1762
682.430	-1733
682.476	-2218
682.477	-2236
682.525	-1747
682.572	-2058
682.598	-1653
682.620	-1300
682.667	-2087
682.715	-1409
682.720	-1371
682.763	-1100
682.810	-1655
682.841	-1971
682.857	-2140
682.905	-1484
682.952	-1037
682.963	-988
683.000	-903
683.047	-2048
683.085	-1492
683.095	-1335
683.142	-1793
683.190	-1430
683.206	-1464
683.237	-1571
683.284	-1736
683.328	-1815
683.332	-1824
683.379	-1099
683.426	-1336
683.449	-1246
683.473	-1174
683.521	-1254
683.568	-1087
683.571	-1089
683.615	-1227
683.662	-1019
683.693	-1101
683.709	-1170
683.757	-1772
683.804	-1157
683.814	-1199
683.851	-1270
683.898	-1304
683.936	-867
683.945	-779
683.992	-596
684.039	-1501
684.057	-1315
684.086	-1006
684.133	-464
684.179	-1088
684.180	-1115
684.227	-719
684.274	-790
684.300	-1100
684.321	-1351
684.368	-1377
684.415	-866
684.422	-921
684.462	-1322
684.509	-934
684.543	-813
684.556	-750
684.603	-614
684.649	-647
684.665	-669
684.696	-755
684.743	-915
684.786	-754
684.790	-745
684.837	-954
684.883	-1271
684.908	-1216
684.930	-1163
684.977	-175
685.023	-962
685.029	-941
685.070	-852
685.117	-827
685.150	-573
685.164	-470
685.210	-628
685.257	39
685.272	-83
685.303	-403
685.350	-518
685.393	-825
685.396	-848
685.443	-1163
685.490	-1037
685.514	-1015
685.536	-985
685.583	-855
685.629	-614
685.636	-620
685.675	-690
685.722	-643
685.757	-931
685.768	-1029
685.815	-725
685.861	-758
685.878	-704
685.908	-633
685.954	-1047
686.000	-1269
686.000	-1273
686.047	-1247
686.093	-559
686.121	-542
686.139	-546
686.185	-463
686.232	-669
686.242	-673
686.278	-655
686.324	-191
686.363	184
686.370	243
686.416	-254
686.463	-240
686.484	-327
686.509	-503
686.555	-729
686.601	-549
686.606	-533
686.647	-208
686.693	-750
686.727	-207
686.739	3
686.785	-200
686.831	-229
686.848	-278
686.877	-518
686.923	-157
686.969	-677
686.969	-679
687.015	-227
687.061	-122
687.090	113
687.107	210
687.153	-163
687.199	-105
687.211	-150
687.245	-245
687.291	26
687.332	-522
687.336	-575
687.382	523
687.428	80
687.453	303
687.474	487
687.520	445
687.565	190
687.574	205
687.611	353
687.657	515
687.695	758
687.702	889
687.748	1832
687.794	3156
687.816	3291
687.839	2971
687.885	1517
687.931	2008
687.937	2027
687.976	1674
688.022	751
688.058	-31
688.067	-62
688.113	-168
688.158	439
688.179	310
688.204	155
688.249	582
688.295	596
688.300	560
688.340	414
688.386	712
688.421	668
688.431	565
688.477	349
688.522	-118
688.542	-113
688.567	139
688.613	454
688.658	534
688.663	513
688.703	283
688.749	766
688.784	537
688.794	444
688.839	663
688.884	618
688.905	637
688.930	666
688.975	268
689.020	319
689.026	331
689.065	589
689.110	289
689.146	309
689.155	338
689.201	484
689.246	963
689.267	1282
689.291	1498
689.336	1193
689.381	948
689.388	896
689.426	638
689.471	857
689.509	543
689.516	500
689.561	638
689.606	421
689.630	692
689.651	926
689.696	740
689.741	898
689.750	851
689.785	665
689.830	240
689.871	276
689.875	292
689.920	491
689.965	648
689.992	431
690.010	415
690.054	811
690.099	1431
690.112	1470
690.144	1189
690.189	836
690.233	276
690.233	279
690.278	867
690.323	967
690.354	1033
690.367	1056
690.412	1367
690.457	966
690.474	978
690.501	991
690.546	856
690.590	1006
690.595	1006
690.635	1150
690.680	997
690.716	943
690.724	887
690.769	1122
690.813	1141
690.836	932
690.857	1016
690.902	1516
690.946	1278
690.957	1516
690.991	2239
691.035	1910
691.077	2902
691.080	2965
691.124	2782
691.168	3173
691.198	3227
691.213	2997
691.257	2826
691.301	1981
691.318	1855
691.346	1871
691.390	1531
691.434	1672
691.439	1602
691.478	1174
691.522	1144
691.559	1139
691.567	1187
691.611	1466
691.655	1241
691.680	1385
691.699	1406
691.743	1192
691.787	1069
691.800	1051
691.831	1190
691.875	1304
691.919	1279
691.921	1282
691.964	1573
692.008	1765
692.041	1695
692.052	1650
692.096	1480
692.139	1814
692.162	1610
692.183	1378
692.227	1492
692.271	1262
692.282	1264
692.315	1492
692.359	1229
692.402	1693
692.403	1703
692.447	1204
692.490	1638
692.523	1643
692.534	1625
692.578	1583
692.622	1103
692.643	1223
692.666	1419
692.709	1443
692.753	1304
692.763	1355
692.797	1501
692.840	1491
692.884	1372
692.884	1380
692.928	1463
692.971	1476
693.004	1656
693.015	1710
693.059	1606
693.102	1563
693.124	1531
693.146	1631
693.189	1800
693.233	1892
693.245	2020
693.276	2081
693.320	1958
693.363	1510
693.365	1493
693.407	1775
693.450	2053
693.485	2184
693.493	2177
693.537	2372
693.580	2256
693.605	2304
693.624	2392
693.667	2676
693.710	2854
693.725	2875
693.753	3544
693.797	4385
693.840	5943
693.845	6036
693.883	6500
693.926	7175
693.966	7769
693.970	7648
694.013	6288
694.056	4791
694.086	3633
694.099	3375
694.142	2777
694.185	1907
694.206	1689
694.229	1889
694.272	1826
694.315	2106
694.326	2149
694.358	2219
694.401	2024
694.444	1971
694.446	1971
694.487	2332
694.530	2400
694.566	2565
694.573	2565
694.616	2255
694.659	2114
694.686	2020
694.702	1990
694.745	2060
694.787	1649
694.806	1645
694.830	1766
694.873	1941
694.916	1997
694.926	1956
694.959	1918
695.002	2177
695.044	2335
695.046	2335
695.087	2496
695.130	2192
695.166	2356
695.172	2407
695.215	2412
695.258	2672
695.286	2569
695.301	2476
695.343	2483
695.386	2446
695.406	2358
695.428	2275
695.471	2165
695.514	2112
695.526	2028
695.556	2196
695.599	2679
695.641	2893
695.646	2939
695.684	3034
695.726	2834
695.766	2833
695.769	2850
695.811	2755
695.854	2673
695.886	2680
695.896	2661
695.938	2445
695.981	2238
696.005	2188
696.023	2340
696.065	2483
696.108	2750
696.125	2831
696.150	2936
696.192	3207
696.235	3282
696.245	3288
696.277	3291
696.319	3417
696.361	3433
696.365	3422
696.404	3470
696.446	3563
696.485	3553
696.488	3556
696.530	3538
696.572	3334
696.604	3305
696.614	3347
696.656	3351
696.698	3501
696.724	3412
696.740	3387
696.783	3468
696.825	3600
696.844	3542
696.867	3472
696.909	3518
696.951	3599
696.964	3570
696.992	3501
697.034	3367
697.076	3264
697.083	3241
697.118	3452
697.160	3580
697.202	3816
697.203	3806
697.244	3605
697.286	3448
697.323	3186
697.327	3216
697.369	3466
697.411	3522
697.442	3667
697.453	3685
697.494	3659
697.536	3646
697.562	3640
697.578	3709
697.620	3818
697.661	3828
697.682	3878
697.703	3851
697.744	3779
697.786	3702
697.801	3623
697.828	3699
697.869	3875
697.911	4034
697.921	4055
697.952	4003
697.994	3904
698.035	3823
698.040	3792
698.077	3744
698.118	3716
698.160	3668
698.160	3652
698.201	3792
698.243	3913
698.279	4029
698.284	4052
698.325	4104
698.367	4123
698.399	4146
698.408	4124
698.449	3924
698.491	3744
698.518	3605
698.532	3690
698.573	3876
698.614	4094
698.638	4204
698.656	4170
698.697	4049
698.738	3920
698.757	3852
698.779	3848
698.820	3789
698.862	3753
698.877	3720
698.903	3773
698.944	3842
698.985	3910
698.996	3916
699.026	4102
699.067	4340
699.116	4611
699.235	4116
699.354	4772
699.474	4397
699.593	4353
699.713	5125
699.832	4383
699.951	4303
700.070	3473
700.190	4749
700.309	4246
700.428	3764
700.547	5237
700.667	3684
700.786	4169
700.905	4363
701.024	3987
701.143	3056
701.262	3554
701.381	3714
701.500	4282
701.619	3600
701.738	3920
701.857	3831
701.976	3514
702.095	3076
702.214	3699
702.333	4059
702.452	3726
702.571	4426
702.690	4288
702.809	3644
702.928	4241
703.047	3063
703.165	3480
703.284	3804
703.403	3329
703.522	3748
703.640	3567
703.759	3325
703.878	3781
703.997	3531
704.115	3830
704.234	3498
704.353	4350
704.471	2771
704.590	3210
704.708	3418
704.827	3258
704.946	3207
705.064	3630
705.183	3787
705.301	3073
705.420	3522
705.538	3615
705.656	3189
705.775	3500
705.893	4101
706.012	4774
706.130	3216
706.249	4079
706.367	3152
706.485	3387
706.604	3110
706.722	3135
706.840	4511
706.958	9919
707.077	9547
707.195	3556
707.313	3114
707.431	3573
707.549	2765
707.668	3088
707.786	3065
707.904	2714
708.022	3132
708.140	3210
708.258	3382
708.376	3564
708.494	2524
708.612	3137
708.730	3028
708.848	3840
708.966	3190
709.084	3169
709.202	3565
709.320	3241
709.438	2696
709.556	3721
709.674	3064
709.791	4471
709.909	1885
710.027	3028
710.145	3027
710.263	4344
710.380	3962
710.498	3047
710.616	2420
710.733	2271
710.851	3058
710.969	2686
711.086	2774
711.204	3141
711.322	2836
711.439	3114
711.557	2307
711.674	3521
711.792	2867
711.909	3585
712.027	2507
712.144	2744
712.262	2171
712.379	2579
712.497	2050
712.614	2858
712.732	2482
712.849	2545
712.966	2494
713.084	3020
713.201	2324
713.318	2879
713.436	2789
713.553	2172
713.670	3649
713.787	2917
713.905	2762
714.022	2790
714.139	2424
714.256	3869
714.373	6479
714.490	11044
714.608	24754
714.725	122469
714.842	293448
714.959	25012
715.076	5242
715.193	4771
715.310	3823
715.427	4055
715.544	2182
715.661	2448
715.778	3395
715.895	2939
716.011	2809
716.128	2424
716.245	2534
716.362	2284
716.479	2572
716.596	2947
716.713	2607
716.829	2849
716.946	3257
717.063	2790
717.180	1989
717.296	1870
717.413	1948
717.530	1690
717.646	2153
717.763	2307
717.880	1591
717.996	1295
718.113	1627
718.229	2033
718.346	2128
718.462	2065
718.579	1787
718.695	2257
718.812	1719
718.928	2341
719.045	2426
719.161	1943
719.277	1907
719.394	2431
719.510	2442
719.626	2499
719.743	2952
719.859	4343
719.975	8666
720.092	29365
720.208	119785
720.324	31569
720.440	3385
720.557	2628
720.673	2280
720.789	2388
720.905	1705
721.021	2546
721.137	2122
721.253	1659
721.369	1456
721.486	1138
721.602	1805
721.718	2266
721.834	1256
721.950	1699
722.066	695
722.181	1394
722.297	1405
722.413	1959
722.529	1991
722.645	2559
722.761	2946
722.877	1893
722.993	2052
723.108	2563
723.224	2589
723.340	1909
723.456	1845
723.571	1712
723.687	1750
723.803	1576
723.918	1710
724.034	1714
724.150	996
724.265	1356
724.381	1736
724.497	1616
724.612	1751
724.728	1832
724.843	1644
724.959	1784
725.074	2117
725.190	2432
725.305	1583
725.421	1748
725.536	1045
725.651	1799
725.767	1818
725.882	1725
725.997	1044
726.113	2177
726.228	1373
726.343	1347
726.459	1458
726.574	1970
726.689	1476
726.804	1610
726.920	1854
727.035	1828
727.150	1537
727.265	1556
727.380	1608
727.495	2637
727.610	1703
727.725	1932
727.841	1685
727.956	1887
728.071	2275
728.186	1530
728.301	954
728.416	1568
728.531	1339
728.645	1389
728.760	2134
728.875	2565
728.990	1869
729.105	2041
729.220	1791
729.335	2292
729.449	1488
729.564	1252
729.679	1075
729.794	952
729.908	2112
730.023	2232
730.138	1775
730.253	1578
730.367	1292
730.482	1284
730.596	635
730.711	2105
730.826	2253
730.940	4743
731.055	1641
731.169	2015
731.284	1288
731.398	1268
731.513	2074
731.627	1473
731.742	1474
731.856	1571
731.970	1785
732.085	1847
732.199	3333
732.313	5054
732.428	12232
732.542	41953
732.656	53343
732.771	7932
732.885	3504
732.999	3247
733.113	2315
733.227	2219
733.342	1797
733.456	2140
733.570	1600
733.684	1458
733.798	1307
733.912	1833
734.026	1255
734.140	1957
734.254	1680
734.368	2585
734.482	2788
734.596	1773
734.710	1918
734.824	1673
734.938	1803
735.052	1432
735.166	1727
735.280	1640
735.393	2021
735.507	2086
735.621	1405
735.735	1789
735.849	2038
735.962	1945
736.076	1575
736.190	2075
736.303	1439
736.417	1701
736.531	2181
736.644	1410
736.758	1547
736.872	1566
736.985	1469
737.099	2303
737.212	1403
737.326	1895
737.439	1864
737.553	2246
737.666	2014
737.780	1763
737.893	1215
738.007	1057
738.120	1351
738.233	1550
738.347	1610
738.460	1524
738.573	1586
738.687	1861
738.800	2246
738.913	1784
739.026	1138
739.140	1365
739.253	1310
739.366	1109
739.479	955
739.592	1948
739.705	1393
739.818	1280
739.932	1525
740.045	1087
740.158	1501
740.271	1477
740.384	667
740.497	2079
740.610	2382
740.723	2079
740.836	1869
740.949	1955
741.062	1566
741.174	2311
741.287	1430
741.400	1760
741.513	2031
741.626	2945
741.739	2476
741.851	2063
741.964	1458
742.077	1664
742.189	1450
742.302	2815
742.415	2169
742.527	1650
742.640	1473
742.753	846
742.865	1866
742.978	932
743.090	455
743.203	986
743.316	422
743.428	575
743.541	1735
743.653	594
743.766	635
743.878	926
743.990	418
744.103	1495
744.215	1336
744.327	1328
744.440	1557
744.552	1030
744.664	797
744.777	705
744.889	1013
745.001	1902
745.113	824
745.226	781
745.338	1040
745.450	1047
745.562	1095
745.674	878
745.786	566
745.898	1354
746.010	233
746.122	770
746.234	1448
746.347	881
746.459	1230
746.570	1268
746.682	1216
746.794	1046
746.906	1220
747.018	1168
747.130	919
747.242	284
747.354	1669
747.466	953
747.577	1079
747.689	690
747.801	548
747.913	1077
748.024	596
748.136	484
748.248	115
748.359	1005
748.471	513
748.583	702
748.694	662
748.806	1490
748.918	1128
749.029	1606
749.141	1371
749.252	1240
749.364	620
749.475	916
749.587	589
749.698	786
749.809	767
749.921	644
750.032	761
750.144	283
750.255	995
750.366	720
750.478	306
750.589	554
750.700	788
750.811	751
750.923	883
751.034	33
751.145	945
751.256	955
751.367	1052
751.479	1282
751.590	1025
751.701	1384
751.812	874
751.923	1023
752.034	409
752.145	888
752.256	519
752.367	525
752.478	165
752.589	814
752.700	431
752.811	511
752.922	1181
753.032	49
753.143	378
753.254	157
753.365	651
753.476	1255
753.586	468
753.697	444
753.808	409
753.919	1099
754.029	374
754.140	1312
754.251	228
754.361	762
754.472	433
754.582	502
754.693	-194
754.804	1292
754.914	141
755.025	991
755.135	-88
755.246	376
755.356	377
755.466	1040
755.577	1475
755.687	-12
755.798	406
755.908	1019
756.018	67
756.129	421
756.239	478
756.349	1283
756.460	1324
756.570	603
756.680	-165
756.790	784
756.900	653
757.011	1052
757.121	688
757.231	497
757.341	371
757.451	-159
757.561	168
757.671	683
757.781	-454
757.891	258
758.001	-161
758.111	621
758.221	530
758.331	362
758.441	267
758.551	1025
758.661	569
758.771	692
758.880	363
758.990	425
759.100	1086
759.210	-296
759.320	988
759.429	757
759.539	18
759.649	632
759.758	1333
759.868	1019
759.978	149
760.087	1124
760.197	1085
760.307	740
760.416	898
760.526	805
760.635	596
760.745	1233
760.854	1586
760.964	727
761.073	1351
761.182	1197
761.292	684
761.401	64
761.511	-52
761.620	881
761.729	741
761.839	47
761.948	698
762.057	862
762.166	214
762.276	531
762.385	399
762.494	325
762.603	288
762.712	671
762.822	80
762.931	562
763.040	298
763.149	545
763.258	501
763.367	815
763.476	450
763.585	803
763.694	379
763.803	-141
763.912	755
764.021	1057
764.130	423
764.238	1313
764.347	833
764.456	977
764.565	667
764.674	705
764.783	675
764.891	485
765.000	1627
765.109	844
765.217	445
765.326	1976
765.435	1779
765.543	2219
765.652	2459
765.761	2549
765.869	4335
765.978	7576
766.086	12598
766.195	26377
766.303	66254
766.412	210460
766.520	299956
766.629	101976
766.737	26078
766.846	13232
766.954	7644
767.062	6288
767.171	3294
767.279	3382
767.387	2468
767.496	2221
767.604	1482
767.712	1911
767.820	1187
767.928	952
768.037	377
768.145	1268
768.253	584
768.361	563
768.469	1463
768.577	490
768.685	1102
768.793	1598
768.901	603
769.009	1904
769.117	1048
769.225	1774
769.333	2996
769.441	5390
769.549	10434
769.657	21096
769.765	69916
769.873	222615
769.981	144692
770.088	23935
770.196	7960
770.304	4854
770.412	3810
770.519	2753
770.627	1474
770.735	746
770.842	1047
770.950	1168
771.058	891
771.165	929
771.273	949
771.380	1308
771.488	648
771.595	793
771.703	1132
771.810	484
771.918	152
772.025	400
772.133	544
772.240	903
772.348	270
772.455	1201
772.562	33
772.670	926
772.777	913
772.884	267
772.991	708
773.099	1234
773.206	14
773.313	898
773.420	765
773.528	478
773.635	25
773.742	1121
773.849	589
773.956	656
774.063	924
774.170	476
774.277	725
774.384	264
774.491	176
774.598	739
774.705	424
774.812	253
774.919	952
775.026	348
775.133	10
775.239	-114
775.346	456
775.453	-5
775.560	565
775.667	-60
775.773	671
775.880	838
775.987	289
776.093	1112
776.200	853
776.307	-341
776.413	711
776.520	-267
776.627	405
776.733	334
776.840	-202
776.946	1450
777.053	222
777.159	1637
777.266	571
777.372	1408
777.478	599
777.585	220
777.691	814
777.798	729
777.904	1121
778.010	482
778.117	880
778.223	623
778.329	293
778.435	-295
778.542	791
778.648	-74
778.754	-177
778.860	418
778.966	-34
779.072	323
779.178	-285
779.284	551
779.391	382
779.497	-575
779.603	1215
779.708	-484
779.815	490
779.920	1459
780.026	3808
780.132	1380
780.238	-189
780.344	228
780.450	349
780.556	542
780.661	-925
780.767	219
780.873	52
780.979	393
781.085	-86
781.190	401
781.296	132
781.402	66
781.507	-65
781.613	409
781.719	-43
781.824	192
781.930	166
782.035	-66
782.141	-431
782.246	-152
782.352	128
782.457	-628
782.563	422
782.668	290
782.773	105
782.879	181
782.984	-493
783.090	-326
783.195	276
783.300	474
783.405	565
783.511	-107
783.616	233
783.721	546
783.826	-136
783.932	129
784.037	421
784.142	417
784.247	-153
784.352	187
784.457	685
784.562	200
784.667	86
784.772	275
784.877	594
784.982	278
785.087	-621
785.192	-1
785.297	157
785.402	135
785.507	-493
785.611	-103
785.716	-407
785.821	285
785.926	-261
786.031	145
786.135	-331
786.240	-556
786.345	-1349
786.450	581
786.554	-342
786.659	364
786.763	-506
786.868	-347
786.973	229
787.077	-372
787.182	-206
787.286	-244
787.391	-102
787.495	-385
787.600	-269
787.704	-782
787.809	-340
787.913	-600
788.017	452
788.122	446
788.226	6
788.330	-366
788.435	-992
788.539	-477
788.643	-748
788.747	-358
788.852	86
788.956	-409
789.060	213
789.164	-327
789.268	-589
789.372	350
789.476	-1009
789.580	541
789.684	-6
789.788	-349
789.892	-685
789.996	146
790.100	-751
790.204	-69
790.308	-656
790.412	-332
790.516	-1096
790.620	-592
790.724	166
790.828	159
790.931	-1036
791.035	186
791.139	-245
791.242	-591
791.346	181
791.450	-725
791.554	-14
791.657	-233
791.761	-324
791.864	1142
791.968	-420
792.072	488
792.175	-642
792.279	-1286
792.382	-980
792.486	-158
792.589	-614
792.693	415
792.796	-637
792.899	-384
793.003	-728
793.106	-1687
793.209	-888
793.313	166
793.416	-790
793.519	27
793.623	-375
793.726	-304
793.829	-105
793.932	-356
794.035	-801
794.138	-50
794.242	-383
794.345	-436
794.448	-18
794.551	-654
794.654	536
794.757	1546
794.860	182
794.963	147
795.066	-1207
795.169	-176
795.272	-1097
795.375	-216
795.477	-1010
795.580	-376
795.683	-1847
795.786	-579
795.889	-1229
795.991	-226
796.094	-420
796.197	-1463
796.300	-193
796.402	-813
796.505	-659
796.608	-933
796.710	-386
796.813	-159
796.915	-498
797.018	-102
797.120	-112
797.223	-1075
797.326	-263
797.428	-412
797.530	-1044
797.633	-243
797.735	-418
797.838	-877
797.940	-419
798.042	-615
798.145	-739
798.247	-529
798.349	-1029
798.452	262
798.554	-1047
798.656	-359
798.758	-200
798.860	-578
798.962	-1067
799.065	60
799.167	-1249
799.269	276
799.371	-679
799.473	-99
799.575	-791
799.677	-550
799.779	-703
799.881	-912
799.983	586
800.085	-449
800.187	-608
800.289	-1205
800.390	-1088
800.492	280
800.594	366
800.696	-1425
800.798	264
800.899	-38
801.001	-334
801.103	-163
801.205	-336
801.306	-194
801.408	-371
801.509	-647
801.611	-423
801.713	-642
801.814	-953
801.916	-1009
802.017	-518
802.119	-947
802.220	-872
802.322	-1520
802.423	340
802.525	-1213
802.626	-257
802.727	-1338
802.829	-207
802.930	-2235
803.031	406
803.133	-534
803.234	-1013
803.335	-1009
803.436	-1252
803.538	338
803.639	-1244
803.740	79
803.841	-1229
803.942	-117
804.043	-852
804.144	-914
804.245	-1086
804.346	-1460
804.447	-1537
804.548	-450
804.649	-193
804.750	-271
804.851	-1127
804.952	-1098
805.053	-156
805.154	-814
805.255	-692
805.355	-637
805.456	-1058
805.557	-765
805.658	-1652
805.758	143
805.859	-537
805.960	-1167
806.061	-497
806.161	115
806.262	-837
806.362	-1037
806.463	-763
806.564	-6
806.664	-85
806.765	-862
806.865	-381
806.966	-578
807.066	-797
807.166	-189
807.267	-427
807.367	-859
807.468	148
807.568	-1303
807.668	-404
807.769	-107
807.869	-645
807.969	-1059
808.069	-1238
808.170	-897
808.270	-542
808.370	-584
808.470	-1670
808.570	-1532
808.670	-226
808.770	-1595
808.870	-1228
808.970	-101
809.070	-1133
809.170	-1615
809.271	-773
809.370	-1042
809.470	-231
809.570	-1454
809.670	-1807
809.770	-778
809.870	-179
809.970	-1177
810.070	-366
810.169	-427
810.269	-2161
810.369	264
810.469	-595
810.568	-490
810.668	-917
810.768	-1478
810.867	-682
810.967	-53
811.066	-1130
811.166	-1099
811.265	-76
811.365	-1545
811.464	-1454
811.564	-325
811.663	-78
811.763	-923
811.862	-675
811.962	-779
812.061	-875
812.160	-1728
812.260	-1090
812.359	-944
812.458	-308
812.557	-896
812.657	-892
812.756	-253
812.855	-1067
812.954	-767
813.053	-728
813.153	-684
813.252	-1084
813.351	-423
813.450	-439
813.549	-961
813.648	-1143
813.747	-677
813.846	-629
813.945	-991
814.044	-1128
814.143	-997
814.242	-2
814.341	-503
814.439	183
814.538	-573
814.637	-506
814.736	150
814.835	-360
814.933	63
815.032	221
815.131	-1237
815.229	-531
815.328	-249
815.427	-1423
815.525	479
815.624	467
815.722	-751
815.821	-310
815.919	470
816.018	-876
816.116	1210
816.215	-363
816.313	246
816.412	579
816.510	683
816.609	1536
816.707	1113
816.805	535
816.904	1129
817.002	687
817.100	1849
817.198	1425
817.296	2493
817.395	2130
817.493	3486
817.591	3890
817.689	5198
817.787	7790
817.885	12630
817.983	23277
818.081	47117
818.179	112455
818.277	277212
818.375	408039
818.473	151722
818.571	45963
818.669	24178
818.767	18684
818.865	18088
818.963	20994
819.061	27881
819.158	46976
819.256	90424
819.354	199556
819.452	444990
819.549	486453
819.647	184173
819.745	64641
819.842	33314
819.940	20330
820.038	14192
820.135	11055
820.233	8405
820.330	6427
820.428	4049
820.525	4686
820.623	4065
820.720	2191
820.818	2853
820.915	2370
821.012	2619
821.110	1200
821.207	1531
821.304	592
821.402	996
821.499	1225
821.596	598
821.693	663
821.791	215
821.888	393
821.985	117
822.082	387
822.179	427
822.276	-15
822.373	495
822.470	-743
822.567	66
822.664	-713
822.761	-214
822.858	-878
822.955	289
823.052	-81
823.149	64
823.246	-365
823.343	-203
823.440	-407
823.536	-1068
823.633	-80
823.730	-888
823.827	-567
823.923	-400
824.020	603
824.117	-366
824.213	-762
824.310	152
824.407	50
824.503	-1100
824.600	-464
824.696	-323
824.793	454
824.889	-425
824.986	-942
825.082	-460
825.179	-385
825.275	-982
825.371	-1030
825.468	-342
825.564	-1609
825.660	-461
825.757	-995
825.853	259
825.949	-1563
826.045	-882
826.142	-721
826.238	-1141
826.334	-638
826.430	-713
826.526	-370
826.622	-1098
826.718	-694
826.814	-545
826.910	-128
827.006	-739
827.102	-1087
827.198	-356
827.294	-1248
827.390	-718
827.486	-1010
827.582	-1233
827.678	-1775
827.774	-349
827.869	-1263
827.965	-84
828.061	-994
828.157	-535
828.252	-998
828.348	-1750
828.444	-732
828.539	-1612
828.635	-1151
828.731	-360
828.826	-1247
828.922	-241
829.017	-832
829.113	143
829.208	-1566
829.304	-768
829.399	-239
829.495	-1683
829.590	402
829.685	-765
829.781	-1015
829.876	-749
829.971	-1308
830.066	-871
830.162	-1379
830.257	-1346
830.352	-1098
830.447	262
830.543	-1535
830.638	-772
830.733	3
830.828	-1010
830.923	-1223
831.018	-542
831.113	-1468
831.208	-1310
831.303	-791
831.398	-374
831.493	-1008
831.588	317
831.683	-1630
831.778	-472
831.873	-1320
831.967	-473
832.062	-1423
832.157	-2060
832.252	-442
832.346	-1080
832.441	-583
832.536	-653
832.631	-603
832.725	-922
832.820	-565
832.914	-919
833.009	-1605
833.104	-1639
833.198	-688
833.293	-1233
833.387	-943
833.482	-1212
833.576	-998
833.670	44
833.765	-684
833.859	-850
833.954	-875
834.048	-857
834.142	-645
834.237	-662
834.331	-1673
834.425	-1297
834.519	-1949
834.613	-1113
834.708	-1461
834.802	-955
834.896	-1518
834.990	-1150
835.084	-279
835.178	-1170
835.272	-851
835.366	-716
835.460	-858
835.554	-1570
835.648	-907
835.742	-1241
835.836	-1208
835.930	-1614
836.024	-1095
836.117	-51
836.211	-841
836.305	-695
836.399	-724
836.493	-1582
836.586	-721
836.680	-1552
836.774	-1728
836.867	-1164
836.961	-1583
837.055	-287
837.148	-1322
837.242	-894
837.335	-1589
837.429	-717
837.522	-2012
837.616	-827
837.709	-637
837.803	-1581
837.896	-1614
837.989	-1497
838.083	-1596
838.176	-1821
838.269	-1487
838.363	-1150
838.456	-2367
838.549	-1339
838.642	-1970
838.735	-1344
838.829	-1086
838.922	-1161
839.015	-691
839.108	-1201
839.201	-774
839.294	-599
839.387	-1204
839.480	-2115
839.573	-1574
839.666	-1460
839.759	-716
839.852	-2515
839.945	-675
840.038	-1164
840.131	-1719
840.223	-1197
840.316	-184
840.409	-658
840.502	-2000
840.594	-544
840.687	-1526
840.780	-1125
840.873	-1449
840.965	-697
841.058	-1209
841.150	-1741
841.243	-1499
841.336	-844
841.428	-1471
841.521	-2079
841.613	-1517
841.706	-680
841.798	-1487
841.890	-669
841.983	-1551
842.075	-414
842.167	-1258
842.260	-1378
842.352	-1142
842.444	-1705
842.537	-1741
842.629	-1584
842.721	-1222
842.813	-1233
842.905	-1415
842.997	-1269
843.090	-1206
843.182	-808
843.274	-1388
843.366	-1275
843.458	-1578
843.550	-712
843.642	-1617
843.734	-801
843.826	-984
843.918	-400
844.009	-1017
844.101	-2311
844.193	-1681
844.285	-1195
844.377	-504
844.469	-1037
844.560	-1717
844.652	-1090
844.744	-1449
844.835	-1000
844.927	-1255
845.019	-1203
845.110	-2027
845.202	-1049
845.293	-1117
845.385	-1283
845.476	-1030
845.568	-100
845.659	-1354
845.751	-1175
845.842	-1086
845.934	-1313
846.025	-1818
846.116	-1253
846.208	-1319
846.299	-1446
846.390	-1497
846.482	-938
846.573	-1746
846.664	-1362
846.755	-2226
846.846	-1407
846.937	-2505
847.029	-1070
847.120	-1835
847.211	-1400
847.302	-786
847.393	-1766
847.484	-1263
847.575	-1457
847.666	-1985
847.757	-1305
847.847	-1704
847.938	-529
848.029	-1493
848.120	-1151
848.211	-1500
848.302	-1776
848.392	-1816
848.483	-785
848.574	-1666
848.664	-1833
848.755	-1530
848.846	-1773
848.936	-2041
849.027	-1704
849.118	-2088
849.208	-1435
849.299	-1106
849.389	-677
849.480	789
849.570	1789
849.661	5029
849.751	14212
849.841	10235
849.932	-146
850.022	-2092
850.112	-1009
850.203	-539
850.293	-1451
850.383	-1419
850.474	-2055
850.564	-872
850.654	-1727
850.744	-1285
850.834	-1577
850.924	-928
851.014	-740
851.104	-1365
851.194	-1708
851.284	-1172
851.374	-1001
851.464	-1536
851.554	-925
851.644	-1928
851.734	-1299
851.824	-1438
851.914	-1267
852.004	-956
852.094	-1490
852.183	-1247
852.273	-683
852.363	-1548
852.452	-1734
852.542	-1673
852.632	-2180
852.721	-1428
852.811	-1089
852.901	-795
852.990	-901
853.080	-1842
853.169	-1230
853.259	-828
853.348	-1430
853.438	-1500
853.527	59
853.617	-645
853.706	1543
853.795	3855
853.885	10729
853.974	25309
854.063	44948
854.152	98700
854.242	69451
854.331	9168
854.420	1355
854.509	-114
854.598	372
854.687	-372
854.777	-830
854.866	-1215
854.955	-745
855.044	-1337
855.133	-1109
855.222	-1675
855.311	-612
855.400	-1202
855.488	-1137
855.577	-863
855.666	-829
855.755	-1574
855.844	-1128
855.933	-1556
856.021	-925
856.110	-1359
856.199	-2190
856.288	-2048
856.376	-1465
856.465	-1161
856.554	-1774
856.642	-1055
856.731	-1206
856.819	-1687
856.908	-1343
856.996	-1825
857.085	-1450
857.173	-1274
857.262	-1303
857.350	-1475
857.438	-1256
857.527	-1113
857.615	-1569
857.703	-859
857.792	-1121
857.880	-2673
857.968	-2155
858.056	-2091
858.145	-1338
858.233	-1467
858.321	-2140
858.409	-1513
858.497	-1804
858.585	-1866
858.673	-1521
858.761	-1539
858.849	-2128
858.937	-1683
859.025	-1259
859.113	-2033
859.201	-2004
859.289	-1033
859.377	-1908
859.465	-1884
859.552	-2060
859.640	-2227
859.728	-1396
859.816	-1666
859.903	-970
859.991	-1632
860.079	-1145
860.166	-1498
860.254	-1499
860.342	-771
860.429	-1563
860.517	-1762
860.604	-1502
860.692	-1017
860.779	-1428
860.867	-2374
860.954	-1730
861.042	-1055
861.129	-1155
861.216	-1392
861.304	-1485
861.391	-1694
861.478	-1337
861.565	-1563
861.653	-1108
861.740	-1594
861.827	-1553
861.914	-1192
862.001	-1391
862.089	-1876
862.176	-1317
862.263	-1864
862.350	-1591
862.437	-1521
862.524	-1249
862.611	-1548
862.698	-1570
862.785	-1308
862.871	-1125
862.958	-871
863.045	-1743
863.132	-1804
863.219	-1430
863.306	-2013
863.392	-1589
863.479	-1426
863.566	-1314
863.652	-1161
863.739	-1270
863.826	-1070
863.912	-1155
863.999	-1811
864.086	-1197
864.172	-2227
864.259	-1239
864.345	-998
864.432	-1241
864.518	-1185
864.604	-2149
864.691	-2077
864.777	-1477
864.863	-1815
864.950	-1519
865.036	-1257
865.122	-933
865.209	-934
865.295	-1571
865.381	-1110
865.467	-809
865.553	-52
865.639	34
865.726	736
865.812	4166
865.898	10915
865.984	19069
866.070	29808
866.156	58706
866.242	25327
866.328	2550
866.414	-710
866.499	-101
866.585	-938
866.671	-670
866.757	-1692
866.843	-396
866.928	-1842
867.014	-1516
867.100	-797
867.186	-2206
867.271	-1017
867.357	-885
867.442	-1825
867.528	-1658
867.614	-1253
867.699	-1886
867.785	-1375
867.870	-1177
867.956	-2028
868.041	-161
868.127	-1256
868.212	-1384
868.297	-1068
868.383	-506
868.468	-1014
868.553	-1232
868.639	-1617
868.724	-1538
868.809	-1446
868.894	-924
868.979	-1433
869.065	-726
869.150	-2039
869.235	-1550
869.320	-2059
869.405	-1719
869.490	-1418
869.575	-829
869.660	-1175
869.745	-1630
869.830	-2262
869.915	-2092
870.000	-2155
870.085	-1888
870.169	-1293
870.254	-1478
870.339	-1976
870.424	-2124
870.509	-1705
870.593	-1488
870.678	-1688
870.763	-1641
870.847	-1173
870.932	-2016
871.016	-1165
871.101	-939
871.186	-1781
871.270	-1164
871.355	-1212
871.439	-308
871.523	-2134
871.608	-1650
871.692	-777
871.777	-919
871.861	-1107
871.945	-1486
872.030	-683
872.114	-1381
872.198	-1002
872.282	-1331
872.367	-1451
872.451	-1010
872.535	-1384
872.619	-1586
872.703	-1809
872.787	-1896
872.871	-1838
872.955	-812
873.039	-1289
873.123	-2121
873.207	-301
873.291	-1511
873.375	-1906
873.459	-1238
873.543	-1325
873.627	-1319
873.711	-949
873.794	-1695
873.878	-1906
873.962	-2116
874.045	-1736
874.129	-1160
874.137	-1188
874.213	-1464
874.245	-1547
874.296	-1683
874.352	-826
874.380	-409
874.460	-796
874.464	-812
874.547	-939
874.568	-1109
874.631	-1623
874.676	-1247
874.714	-938
874.784	-821
874.798	-794
874.881	-42
874.892	-228
874.965	-1521
874.999	-1342
875.048	-1100
875.107	-1192
875.131	-1220
875.215	-1154
875.215	-1154
875.298	-1451
875.323	-1442
875.381	-1351
875.430	-1287
875.465	-1266
875.538	-1141
875.548	-1121
875.631	-840
875.646	-950
875.714	-1539
875.753	-1274
875.798	-947
875.861	-1533
875.881	-1682
875.964	-802
875.968	-833
876.047	-1570
876.076	-1417
876.130	-1089
876.183	-1407
876.213	-1600
876.291	-1186
876.296	-1155
876.379	-1672
876.398	-1613
876.462	-1423
876.506	-1268
876.545	-1112
876.613	-656
876.628	-577
876.711	-1017
876.721	-1021
876.794	-959
876.828	-1128
876.877	-1386
876.935	-1067
876.960	-916
877.043	-105
877.043	-108
877.125	-616
877.150	-402
877.208	48
877.258	-422
877.291	-707
877.365	-187
877.374	-117
877.456	57
877.472	23
877.539	-360
877.579	-328
877.622	-212
877.687	-388
877.704	-421
877.787	-613
877.794	-584
877.869	-379
877.901	-473
877.952	-651
878.008	-1069
878.034	-1150
878.115	-986
878.117	-990
878.199	-1566
878.222	-1452
878.282	-980
878.329	-1096
878.364	-1162
878.437	-576
878.447	-496
878.529	-1247
878.544	-1067
878.611	-415
878.651	-876
878.694	-1284
878.758	-1136
878.776	-1076
878.858	-1227
878.865	-1228
878.941	-1289
878.972	-1156
879.023	-937
879.078	-981
879.105	-1006
879.185	-858
879.187	-855
879.269	-754
879.292	-895
879.351	-1188
879.399	-978
879.433	-761
879.506	-497
879.516	-481
879.598	-955
879.613	-1061
879.680	-1499
879.720	-1296
879.762	-1151
879.827	-1290
879.844	-1297
879.926	-1511
879.933	-1471
880.007	-713
880.040	-471
880.089	-440
880.147	-1092
880.171	-1256
880.253	-496
880.254	-499
880.335	-827
880.360	-913
880.417	-1133
880.467	-781
880.499	-623
880.574	-1135
880.580	-1152
880.662	-971
880.680	-1007
880.744	-1293
880.787	-1230
880.825	-1253
880.893	-1263
880.907	-1207
880.989	-756
881.000	-780
881.070	-727
881.106	-642
881.152	-719
881.213	-517
881.233	-439
881.315	-512
881.319	-507
881.396	-605
881.426	-851
881.478	-1163
881.532	-1168
881.559	-986
881.639	-537
881.641	-537
881.722	-573
881.745	-732
881.803	-1005
881.852	-908
881.885	-786
881.958	-659
881.966	-659
882.047	-672
882.064	-697
882.129	-1015
882.171	-1206
882.210	-1007
882.277	-617
882.291	-624
882.372	-827
882.383	-832
882.454	-796
882.489	-936
882.535	-849
882.596	-274
882.616	-290
882.697	-1001
882.702	-1024
882.778	-781
882.808	-697
882.859	-676
882.914	-881
882.940	-938
883.020	-586
883.021	-581
883.102	-535
883.127	-564
883.183	-700
883.233	-720
883.264	-875
883.339	-845
883.345	-790
883.426	-447
883.445	-358
883.507	-762
883.551	-1290
883.587	-1364
883.657	-626
883.668	-507
883.749	-700
883.763	-651
883.830	-469
883.869	-345
883.910	-236
883.975	-38
883.991	21
884.072	74
884.081	40
884.152	-417
884.187	-589
884.233	-690
884.292	-296
884.314	-202
884.394	-632
884.398	-645
884.475	-509
884.504	-459
884.555	-754
884.610	-1003
884.636	-960
884.716	-860
884.716	-858
884.797	-1185
884.821	-1142
884.877	-724
884.927	-813
884.958	-1008
885.033	-821
885.038	-773
885.118	-450
885.139	-357
885.199	-719
885.244	-897
885.279	-780
885.350	-647
885.359	-622
885.439	-287
885.456	-294
885.520	-248
885.561	-81
885.600	-301
885.667	-829
885.680	-697
885.760	292
885.773	421
885.840	-183
885.878	-577
885.920	-565
885.984	-560
886.000	-604
886.080	-585
886.089	-612
886.160	-758
886.195	-770
886.240	-434
886.300	-177
886.320	-280
886.400	-444
886.406	-462
886.480	-526
886.511	-596
886.560	-449
886.616	-238
886.640	-214
886.720	-231
886.722	-237
886.800	-362
886.827	-378
886.879	-500
886.932	-572
886.959	-301
887.038	226
887.039	219
887.119	-808
887.143	-1078
887.198	-796
887.248	-645
887.278	-483
887.354	-183
887.358	-195
887.437	-450
887.459	-495
887.517	-181
887.564	-96
887.596	-208
887.669	-264
887.676	-286
887.755	-726
887.774	-842
887.835	-589
887.880	-396
887.914	-375
887.985	-331
887.994	-294
888.073	-59
888.090	11
888.153	-99
888.195	-287
888.232	-329
888.300	-262
888.311	-219
888.391	-90
888.405	-41
888.470	-127
888.510	-282
888.549	-155
888.615	219
888.628	169
888.708	-336
888.720	-420
888.787	-583
888.825	-618
888.866	-395
888.930	-59
888.945	33
889.024	427
889.035	485
889.103	326
889.140	189
889.182	-128
889.245	-531
889.261	-464
889.340	-172
889.349	-142
889.419	-390
889.454	-521
889.498	-593
889.559	-670
889.577	-671
889.656	-686
889.664	-687
889.735	-488
889.768	-389
889.814	-405
889.873	-425
889.978	424
890.083	-287
890.187	-726
890.292	-310
890.397	109
890.501	-155
890.606	-146
890.710	-91
890.815	118
890.919	-121
891.024	-902
891.128	250
891.233	-297
891.337	120
891.442	-149
891.546	-970
891.650	-213
891.755	-730
891.859	852
891.963	-63
892.068	-149
892.172	16
892.276	65
892.380	-1062
892.484	-641
892.589	121
892.693	-56
892.797	-460
892.901	-752
893.005	85
893.109	-183
893.213	188
893.317	183
893.421	-5
893.525	-16
893.629	-111
893.733	-33
893.837	-704
893.941	561
894.045	-364
894.148	18
894.252	45
894.356	501
894.460	-71
894.564	-108
894.667	-714
894.771	301
894.875	-853
894.978	-250
895.082	-412
895.186	257
895.289	-592
895.393	641
895.496	-191
895.600	-222
895.703	-117
895.807	-572
895.910	-327
896.014	176
896.117	-705
896.221	826
896.324	-122
896.427	506
896.531	-289
896.634	163
896.737	-672
896.840	301
896.944	144
897.047	-170
897.150	-724
897.253	-706
897.356	-378
897.460	-660
897.563	-821
897.666	177
897.769	-289
897.872	-1084
897.975	-407
898.078	-595
898.181	-896
898.284	509
898.387	-180
898.490	-387
898.593	-143
898.695	253
898.798	-492
898.901	-43
899.004	-289
899.107	-274
899.209	-502
899.312	-174
899.415	228
899.518	-354
899.620	51
899.723	-348
899.826	-538
899.928	289
900.031	-142
900.133	-699
900.236	-415
900.338	-764
900.441	-305
900.543	-156
900.646	-438
900.748	-401
900.851	-179
900.953	-1015
901.055	-1426
901.158	-556
901.260	397
901.362	-162
901.465	-140
901.567	99
901.669	-19
901.771	880
901.873	-224
901.976	-276
902.078	-555
902.180	-1290
902.282	-447
902.384	-587
902.486	-207
902.588	36
902.690	-403
902.792	-631
902.894	-657
902.996	-14
903.098	-1254
903.200	-525
903.302	-374
903.404	157
903.505	-531
903.607	-240
903.709	-269
903.811	-334
903.913	-124
904.014	-186
904.116	-758
904.218	-261
904.319	-448
904.421	-182
904.523	-536
904.624	-740
904.726	-664
904.827	163
904.929	-423
905.030	-482
905.132	-234
905.233	-463
905.335	-830
905.436	-634
905.537	-637
905.639	545
905.740	-445
905.841	-50
905.943	513
906.044	-229
906.145	-1145
906.247	-311
906.348	-869
906.449	-189
906.550	285
906.651	254
906.752	-784
906.854	-294
906.955	-89
907.056	-343
907.157	-460
907.258	1018
907.359	-1206
907.460	-368
907.561	-1089
907.662	-718
907.762	-687
907.863	-447
907.964	-328
908.065	-267
908.166	-631
908.267	-1134
908.367	-214
908.468	-502
908.569	-771
908.670	-226
908.770	-215
908.871	-957
908.971	108
909.072	273
909.173	232
909.273	-999
909.374	-885
909.474	-943
909.575	-144
909.675	354
909.776	-636
909.876	148
909.977	-692
910.077	-4
910.177	-429
910.278	-1026
910.378	-883
910.478	2
910.579	-1218
910.679	-1133
910.779	-230
910.879	-88
910.980	-1046
911.080	120
911.180	-697
911.280	-636
911.380	-642
911.480	-525
911.580	-381
911.680	253
911.780	-234
911.880	-435
911.980	-692
912.080	-432
912.180	-803
912.280	70
912.380	-1202
912.480	-620
912.580	-644
912.679	-611
912.779	-493
912.879	-854
912.979	-1053
913.078	-764
913.178	318
913.278	-222
913.377	-582
913.477	-384
913.577	-1093
913.676	2
913.776	-1038
913.875	73
913.975	-438
914.074	-1284
914.174	-964
914.273	-524
914.373	-331
914.472	-562
914.572	-37
914.671	-1025
914.770	-1009
914.870	-79
914.969	-364
915.068	-368
915.167	-625
915.267	-689
915.366	-187
915.465	-481
915.564	-399
915.663	106
915.763	-692
915.862	-774
915.961	-695
916.060	58
916.159	-773
916.258	-68
916.357	-616
916.456	-708
916.555	-692
916.654	-1006
916.752	-1204
916.851	-352
916.950	-1006
917.049	20
917.148	-584
917.247	-627
917.345	-687
917.444	-1623
917.543	-1036
917.642	-518
917.740	-757
917.839	145
917.937	-734
918.036	15
918.135	-1536
918.233	-950
918.332	-726
918.430	-45
918.529	-289
918.627	-555
918.726	-339
918.824	-882
918.923	-633
919.021	-1232
919.119	-871
919.218	-446
919.316	-287
919.414	-545
919.512	-694
919.611	-437
919.709	-1300
919.807	-959
919.905	-421
920.003	-473
920.102	-1011
920.200	272
920.298	-514
920.396	162
920.494	-782
920.592	-889
920.690	-830
920.788	-417
920.886	-111
920.984	117
921.082	-923
921.180	-153
921.277	-492
921.375	-119
921.473	-846
921.571	20
921.669	-1173
921.766	-322
921.864	-502
921.962	105
922.060	-693
922.157	11
922.255	-85
922.352	-155
922.450	-1156
922.548	-159
922.645	135
922.743	-1065
922.840	-369
922.938	-159
923.035	-21
923.133	-321
923.230	-425
923.327	-74
923.425	-464
923.522	-404
923.619	-952
923.717	-140
923.814	-459
923.911	-418
924.008	-57
924.106	-544
924.203	-312
924.300	-413
924.397	-509
924.494	158
924.591	-722
924.688	-140
924.786	-391
924.883	45
924.979	-447
925.077	-130
925.173	-1431
925.270	-282
925.367	-803
925.464	-279
925.561	-140
925.658	-563
925.755	-865
925.852	-102
925.948	-70
926.045	-872
926.142	-36
926.239	-263
926.335	-619
926.432	80
926.529	-10
926.625	-544
926.722	16
926.818	427
926.915	-550
927.011	-393
927.108	-452
927.204	-11
927.301	-203
927.397	-281
927.494	-602
927.590	114
927.687	93
927.783	-474
927.879	-1311
927.976	-928
928.072	306
928.168	-831
928.264	-467
928.361	53
928.457	-324
928.553	-870
928.649	-1308
928.745	185
928.841	-633
928.937	-17
929.033	-445
929.129	-305
929.225	-708
929.321	-147
929.417	-711
929.513	243
929.609	84
929.705	-551
929.801	-549
929.897	-116
929.993	-816
930.089	-697
930.184	-225
930.280	-20
930.376	-308
930.471	115
930.567	-944
930.663	-303
930.758	-784
930.854	-595
930.950	-736
931.045	-499
931.141	-707
931.236	-678
931.332	-270
931.427	-504
931.523	-631
931.618	-349
931.714	-796
931.809	22
931.905	-437
932.000	0
932.095	-316
932.191	-348
932.286	-370
932.381	-880
932.476	-594
932.572	-688
932.667	-237
932.762	-905
932.857	-572
932.952	-423
933.047	-556
933.142	-619
933.237	-1421
933.332	-356
933.427	-498
933.522	-261
933.617	-298
933.712	-733
933.807	-1361
933.902	-709
933.997	263
934.092	-1016
934.187	-429
934.282	-673
934.376	-457
934.471	-644
934.566	-759
934.661	-6
934.755	-634
934.850	443
934.945	235
935.039	-796
935.134	112
935.228	-637
935.323	-685
935.417	-436
935.512	-462
935.606	-414
935.701	-605
935.795	115
935.890	-621
935.984	289
936.079	-1211
936.173	-533
936.267	-693
936.362	-224
936.456	-1282
936.550	-765
936.644	-55
936.738	-587
936.833	-531
936.927	-578
937.021	-840
937.115	-228
937.209	-786
937.303	52
937.397	-1056
937.491	-712
937.585	-114
937.679	-571
937.773	-300
937.867	-527
937.961	-560
938.055	-768
938.149	-575
938.243	-38
938.337	-975
938.430	-827
938.524	-352
938.618	-970
938.712	-488
938.805	-511
938.899	129
938.993	-69
939.086	-26
939.180	-655
939.274	-483
939.367	-1198
939.461	-909
939.554	-868
939.648	-1641
939.741	-881
939.835	-539
939.928	-315
940.022	-322
940.115	-714
940.208	-913
940.302	-362
940.395	-494
940.488	-862
940.582	-785
940.675	-595
940.768	-244
940.861	-867
940.954	-584
941.048	-419
941.141	-900
941.234	-346
941.327	155
941.420	276
941.513	-239
941.606	-565
941.699	-268
941.792	-184
941.885	-366
941.978	168
942.071	-1200
942.164	-765
942.257	-323
942.349	-598
942.442	-483
942.535	-835
942.628	-160
942.721	-509
942.813	-557
942.906	176
942.999	-486
943.091	-497
943.184	-524
943.277	-624
943.369	-839
943.462	-1088
943.554	-726
943.647	-18
943.739	-401
943.832	99
943.924	-756
944.017	392
944.109	-905
944.201	-89
944.294	-582
944.386	-1126
944.478	-523
944.571	-396
944.663	-687
944.755	-104
944.847	-485
944.940	-378
945.032	-712
945.124	-114
945.216	-519
945.308	-472
945.400	35
945.492	-982
945.584	-1019
945.676	-765
945.768	-958
945.860	109
945.952	-849
946.044	-63
946.136	-763
946.228	-131
946.320	-957
946.412	-137
946.503	-795
946.595	-72
946.687	-668
946.779	-1267
946.870	-184
946.962	-539
947.054	-695
947.145	-515
947.237	-298
947.329	-480
947.420	-748
947.512	-951
947.603	-1612
947.695	-240
947.786	-1301
947.878	-596
947.969	-795
948.061	-929
948.152	-929
948.243	-368
948.335	-625
948.426	-992
948.517	-1019
948.609	-719
948.700	-774
948.791	164
948.882	-961
948.973	-1187
949.065	-277
949.156	-219
949.247	-644
949.338	-919
949.429	-562
949.520	-707
949.611	-959
949.702	-754
949.793	-1091
949.884	-1162
949.975	-766
950.066	-680
950.157	-436
950.247	-813
950.338	-1065
950.429	-1235
950.520	-788
950.611	-830
950.701	-957
950.792	-729
950.883	-1175
950.973	-661
951.064	-796
951.155	-630
951.245	-968
951.336	-1322
951.427	-1148
951.517	-457
951.608	-157
951.698	-1622
951.788	-1255
951.879	-1405
951.969	-745
952.060	-645
952.150	-975
952.240	-227
952.331	-1816
952.421	-853
952.511	-798
952.602	-449
952.692	-837
952.782	-1261
952.872	-1132
952.962	-1182
953.052	-922
953.143	-1257
953.233	-412
953.323	68
953.413	-1113
953.503	-1537
953.593	-1380
953.683	-634
953.773	-689
953.863	-1166
953.953	-924
954.042	-1118
954.132	-995
954.222	-776
954.312	-762
954.402	-368
954.492	-1002
954.581	-1157
954.671	-1523
954.761	-839
954.850	-628
954.940	-1265
955.030	-564
955.119	-909
955.209	-1215
955.298	-704
955.388	-937
955.477	-243
955.567	-195
955.656	-533
955.746	-643
955.835	-734
955.925	-437
956.014	-657
956.103	-1644
956.193	-434
956.282	-863
956.371	-543
956.461	-783
956.550	-1729
956.639	-776
956.728	-1421
956.817	-916
956.906	-1198
956.995	-1146
957.085	-921
957.174	-417
957.263	-1096
957.352	-1371
957.441	-1814
957.530	-1584
957.619	-772
957.708	-679
957.796	-1119
957.885	-1209
957.974	-1038
958.063	-1975
958.152	-357
958.241	-1205
958.329	-893
958.418	-970
958.507	-1252
958.596	-476
958.684	-1230
958.773	-16
958.861	-1012
958.950	-1194
959.039	-1135
959.127	-934
959.216	-1978
959.304	-1937
959.393	-539
959.481	-787
959.570	-1379
959.658	-1114
959.746	-599
959.835	-1184
959.923	-1623
960.011	-899
960.100	-1374
960.188	-2088
960.276	-1436
960.365	-1402
960.453	-983
960.541	-1802
960.629	-1624
960.717	-1449
960.805	-1136
960.893	-955
960.981	-885
961.069	-783
961.158	-1590
961.245	-751
961.333	-789
961.421	-2892
961.509	-1616
961.597	-660
961.685	-604
961.773	-1986
961.861	-1143
961.949	-1081
962.036	-842
962.124	-1354
962.212	-1685
962.299	-1471
962.387	-973
962.475	-1649
962.562	-1834
962.650	-1863
962.738	-1962
962.825	-1624
962.913	-594
963.000	-900
963.088	-1315
963.175	-1035
963.263	-1554
963.350	-341
963.438	-1277
963.525	-1096
963.612	-928
963.700	-1187
963.787	-1019
963.874	-1642
963.962	-256
964.049	-1280
964.136	-1004
964.223	-1548
964.310	-1425
964.398	-1125
964.485	-817
964.572	-1445
964.659	-1293
964.746	-979
964.833	-551
964.920	-963
965.007	-1039
965.094	-1612
965.181	-678
965.268	-1421
965.355	-252
965.441	-1103
965.528	-1489
965.615	-1263
965.702	-1549
965.789	-1159
965.875	-1415
965.962	-1392
966.049	-1490
966.136	-1209
966.222	-707
966.309	-1266
966.395	-1043
966.482	-1593
966.569	-1778
966.655	-685
966.742	-380
966.828	-1173
966.915	-1370
967.001	-1098
967.087	-1631
967.174	-1481
967.260	-1166
967.347	-1442
967.433	-1574
967.519	-864
967.605	-952
967.692	-795
967.778	-1400
967.864	-1468
967.950	-1649
968.036	-1585
968.123	-539
968.209	-863
968.295	-1244
968.381	-929
968.467	-584
968.553	-1839
968.639	-1443
968.725	-1852
968.811	-987
968.897	-1381
968.983	-1270
969.069	-1864
969.154	-344
969.240	-1308
969.326	-861
969.412	-1129
969.497	-1502
969.583	-1460
969.669	-920
969.755	-795
969.840	-1090
969.926	-776
970.012	-1359
970.097	-743
970.183	-285
970.268	-1439
970.354	-1353
970.439	-1962
970.525	-948
970.610	-1831
970.696	348
970.781	-1051
970.866	-1958
970.952	-1068
971.037	-1361
971.122	-1461
971.208	-761
971.293	-650
971.378	-1908
971.463	-1418
971.549	-1159
971.634	-1312
971.719	-802
971.804	-1605
971.889	-846
971.974	-1920
972.059	-2037
972.144	-1419
972.229	-746
972.314	-2188
972.399	-771
972.484	-1683
972.569	-990
972.654	-1936
972.739	-1345
972.824	-1311
972.908	-1158
972.993	-1012
973.078	-581
973.163	-1438
973.247	-951
973.332	-1902
973.417	-423
973.501	-1365
973.586	-366
973.671	-1875
973.755	-1114
973.840	-1369
973.924	-1488
974.009	-1666
974.093	-1578
974.178	-1404
974.262	-1136
974.346	-1554
974.431	-1092
974.515	-1268
974.600	-1790
974.684	-1796
974.768	-1334
974.852	-988
974.937	-1414
975.021	-1567
975.105	-1193
975.189	-796
975.273	-1643
975.358	-1233
975.442	-1786
975.526	-1375
975.610	-2461
975.694	-1530
975.778	-395
975.862	-1119
975.946	-2025
976.030	-1127
976.114	-1232
976.198	-1429
976.281	-1638
976.365	-1861
976.449	-1292
976.533	-1963
976.617	-2318
976.700	-1635
976.784	-1688
976.868	-1356
976.951	-1321
977.035	-1453
977.119	-1354
977.202	-1515
977.286	-980
977.369	-971
977.453	-1316
977.536	-1617
977.620	-1168
977.703	-1183
977.787	-2349
977.870	-1655
977.953	-1069
978.037	-2383
978.120	-1605
978.203	-1556
978.287	-577
978.370	-1112
978.453	-1525
978.536	-1896
978.620	-597
978.703	-1679
978.786	-1276
978.869	-1532
978.952	-1078
979.035	-955
979.118	-1441
979.201	-2044
979.284	-935
979.367	-2254
979.450	-701
979.533	-1326
979.616	-1824
979.699	-1742
979.782	-1108
979.865	-1069
979.948	-1708
980.030	-1398
980.113	-2548
980.196	-1526
980.279	-635
980.361	-1820
980.444	-2107
980.526	-1381
980.609	-864
980.692	-1102
980.774	-1081
980.857	-2114
980.939	-1225
981.022	-1123
981.104	-1510
981.187	-2194
981.269	-1339
981.352	-2176
981.434	-2210
981.516	-2412
981.599	-1062
981.681	-1634
981.763	-1384
981.846	-1741
981.928	-1683
982.010	-2005
982.092	-2011
982.174	-1349
982.256	-1913
982.339	-1851
982.421	-2272
982.503	-1226
982.585	-2072
982.667	-1235
982.749	-1723
982.831	-2105
982.913	-1752
982.995	-1184
983.077	-2032
983.158	-1401
983.240	-2060
983.322	-1188
983.404	-1690
983.486	-1593
983.568	-1820
983.649	-1708
983.731	-1575
983.813	-2180
983.894	-1134
983.976	-2247
984.058	-1530
984.139	-1859
984.221	-2575
984.302	-914
984.384	-1527
984.465	-1788
984.547	-1251
984.628	-1724
984.710	-589
984.791	-2022
984.872	-1713
984.954	-1344
985.035	-1116
985.116	-2533
985.198	-1827
985.279	-1662
985.360	-1684
985.441	-2257
985.522	-1056
985.604	-2113
985.685	-2072
985.766	-1057
985.847	-1750
985.928	-1844
986.009	-1218
986.090	-1447
986.171	-1204
986.252	-2192
986.333	-1799
986.414	-2622
986.495	-1361
986.576	-2230
986.656	-1377
986.737	-1568
986.818	-1168
986.899	-1677
986.980	-1945
987.060	-2367
987.141	-2063
987.222	-1363
987.302	-1020
987.383	-2196
987.464	-1545
987.544	-1350
987.625	-1891
987.705	-1597
987.786	-2035
987.866	-2434
987.947	-1876
988.027	-2081
988.108	-1332
988.188	-1601
988.268	-1497
988.349	-2212
988.429	-1949
988.509	-1138
988.589	-1458
988.670	-2197
988.750	-301
988.830	-1968
988.910	-1400
988.990	-2223
989.070	-1899
989.151	-1510
989.231	-2088
989.311	-2119
989.391	-1405
989.471	-2153
989.551	-1827
989.631	-3012
989.711	-1615
989.791	-1755
989.870	-2190
989.950	-818
990.030	-1406
990.110	-1835
990.190	-1170
990.269	-1718
990.349	-1508
990.429	-2143
990.509	-1077
990.588	-1687
990.668	-1823
990.747	-1215
990.827	-513
990.907	-631
990.986	-1763
991.066	-723
991.145	-2127
991.225	-862
991.304	-2444
991.383	-1016
991.463	-1988
991.542	-1299
991.622	-1656
991.701	-1626
991.780	-2099
991.859	-1932
991.939	-1640
992.018	-2175
992.097	-1091
992.176	-2408
992.256	-2347
992.335	-1620
992.414	-1074
992.493	-2455
992.572	-1544
992.651	-1613
992.730	-1602
992.809	-1665
992.888	-1958
992.967	-1466
993.046	-1919
993.125	-2042
993.203	-988
993.282	-1544
993.361	-1820
993.440	-1143
993.519	-2548
993.597	-1377
993.676	-1922
993.755	-1507
993.834	-1341
993.912	-1905
993.991	-714
994.069	-2308
994.148	-1730
994.226	-1519
994.305	-1556
994.384	-2348
994.462	-939
994.540	-1462
994.619	-2063
994.697	-1381
994.776	-2128
994.854	-2029
994.932	-2100
995.011	-1234
995.089	-1614
995.167	-1604
995.245	-1864
995.324	-1586
995.402	-1311
995.480	-1446
995.558	-2032
995.636	-1966
995.714	-1981
995.792	-1086
995.870	-1495
995.948	-2008
996.026	-1566
996.104	-1813
996.182	-1488
996.260	-1827
996.338	-2145
996.416	-2359
996.494	-2016
996.572	-1223
996.649	-1715
996.727	-2249
996.805	-1129
996.883	-1697
996.960	-1290
997.038	-1607
997.116	-1967
997.193	-1243
997.271	-716
997.348	-1568
997.426	-1909
997.504	-2183
997.581	-987
997.658	-1144
997.736	-1664
997.813	-2017
997.891	-746
997.968	-1888
998.046	-1730
998.123	-2538
998.200	-1197
998.277	-2243
998.355	-1142
998.432	-2782
998.509	-1046
998.586	-1755
998.663	-1449
998.741	-2109
998.818	-2144
998.895	-1916
998.972	-1413
999.049	-1364
999.126	-2134
999.203	-1406
999.280	-1713
999.357	-2292
999.434	-1525
999.511	-1943
999.587	-1766
999.664	-1681
999.741	-1421
999.818	-1311
999.895	-1531
999.971	-2666
1000.048	-1908
1000.125	-1362
1000.202	-1817
1000.278	-1886
1000.355	-1141
1000.431	-2894
1000.508	-1709
1000.584	-1448
1000.661	-1484
1000.738	-2227
1000.814	-1948
1000.890	-1740
1000.967	-2617
1001.043	-2409
1001.120	-1909
1001.196	-1693
1001.272	-1800
1001.349	-2439
1001.425	-1816
1001.501	-1428
1001.577	-2168
1001.654	-1896
1001.730	-1095
1001.806	-1728
1001.882	-2511
1001.958	-1099
1002.034	-1713
1002.110	-1738
1002.186	-1863
1002.262	-2726
1002.338	-2002
1002.414	-1619
1002.490	-1322
1002.566	-1815
1002.642	-2308
1002.718	-2072
1002.794	-1613
1002.870	-1743
1002.945	-2141
1003.021	-2105
1003.097	-1765
1003.173	-1687
1003.248	-2285
1003.324	-2123
1003.400	-1541
1003.475	-1891
1003.551	-2019
1003.626	-1401
1003.702	-1827
1003.777	-1832
1003.853	-2070
1003.928	-2408
1004.004	-1510
1004.079	-1229
1004.155	-1670
1004.230	-2222
1004.305	-1213
1004.381	-2409
1004.456	-2256
1004.531	-2202
1004.607	-1753
1004.682	-1851
1004.757	-1998
1004.832	-2351
1004.907	-2184
1004.982	-2391
1005.057	-1990
1005.133	-2153
1005.208	-1360
1005.283	-1517
1005.358	-1668
1005.433	-2444
1005.508	-1917
1005.583	-2420
1005.657	-1466
1005.732	-1186
1005.807	-1702
1005.882	-2309
1005.957	-1720
1006.032	-1934
1006.106	-2238
1006.181	-2318
1006.256	-1728
1006.331	-1768
1006.405	-1932
1006.480	-3023
1006.554	-2713
1006.629	-1870
1006.704	-2097
1006.778	-2108
1006.853	-1327
1006.927	-2626
1007.002	-2027
1007.076	-2115
1007.150	-1908
1007.225	-1819
1007.299	-1474
1007.373	-2282
1007.448	-1048
1007.522	-788
1007.596	-1112
1007.671	-2557
1007.745	-1089
1007.819	-1899
1007.893	-2020
1007.967	-1723
1008.041	-2338
1008.115	-1340
1008.190	-1783
1008.264	-1437
1008.338	-2012
1008.412	-2158
1008.486	-1367
1008.560	-1692
1008.633	-1905
1008.707	-1951
1008.781	-810
1008.855	-1847
1008.929	-2401
1009.003	-2665
1009.076	-2421
1009.150	-2155
1009.224	-1280
1009.298	-1192
1009.371	-1497
1009.445	-932
1009.519	-2147
1009.592	-2473
1009.666	-1285
1009.739	-2149
1009.813	-2622
1009.886	-1306
1009.960	-3070
1010.033	-1806
1010.107	-1606
1010.180	-2075
1010.253	-2881
1010.327	-2203
1010.400	-1736
1010.473	-2057
1010.547	-1866
1010.620	-3024
1010.693	-1750
1010.766	-2349
1010.840	-1485
1010.913	-2150
1010.986	-2662
1011.059	-2493
1011.132	-2391
1011.205	-1339
1011.278	-1633
1011.351	-2171
1011.424	-1105
1011.497	-2374
1011.570	-1861
1011.643	-2379
1011.716	-2586
1011.789	-1542
1011.862	-1645
1011.934	-1740
1012.007	-2265
1012.080	-2053
1012.153	-2143
1012.225	-905
1012.298	-1655
1012.371	-2498
1012.443	-1247
1012.516	-2591
1012.588	-1955
1012.661	-1473
1012.733	-2475
1012.806	-1318
1012.879	-2772
1012.951	-1869
1013.023	-2346
1013.096	-1788
1013.168	-1894
1013.241	-1249
1013.313	-2070
1013.385	-2728
1013.458	-1544
1013.530	-1697
1013.602	-1563
1013.674	-2341
1013.746	-2093
1013.819	-2549
1013.891	-1838
1013.963	-2720
1014.035	-1876
1014.107	-1843
1014.179	-1477
1014.251	-2439
1014.323	-2466
1014.395	-2332
1014.467	-1621
1014.539	-1507
1014.611	-2272
1014.683	-1599
1014.754	-1479
1014.826	-2116
1014.898	-1640
1014.970	-3083
1015.042	-1729
1015.113	-1246
1015.185	-2569
1015.257	-2974
1015.328	-1560
1015.400	-1969
1015.471	-2229
1015.543	-1962
1015.615	-1471
1015.686	-2726
1015.757	-1737
1015.829	-2488
1015.901	-2031
1015.972	-1652
1016.043	-2808
1016.115	-2250
1016.186	-1450
1016.257	-2905
1016.328	-1874
1016.400	-1893
1016.471	-1895
1016.542	-2235
1016.613	-2493
1016.685	-2017
1016.756	-1708
1016.827	-2304
1016.898	-2126
1016.969	-1229
1017.040	-2563
1017.111	-2453
1017.182	-1766
1017.253	-1540
1017.324	-2633
1017.395	-1902
1017.466	-1755
1017.537	-2388
1017.608	-2184
1017.678	-1898
1017.749	-2228
1017.820	-1222
1017.891	-2688
1017.961	-2420
1018.032	-2186
1018.103	-1648
1018.173	-1696
1018.244	-2057
1018.315	-2319
1018.385	-1946
1018.456	-1355
1018.526	-2808
1018.597	-2179
1018.667	-2198
1018.738	-2283
1018.808	-2152
1018.878	-1522
1018.949	-2445
1019.019	-1549
1019.089	-2512
1019.160	-2120
1019.230	-1638
1019.300	-1276
1019.371	-2059
1019.441	-1180
1019.511	-2071
1019.581	-1470
1019.651	-1855
1019.721	-2082
1019.791	-2746
1019.861	-2229
1019.931	-1525
1020.001	-2072
1020.071	-2404
1020.141	-2299
1020.211	-2016
1020.281	-2095
1020.351	-2358
1020.421	-1476
1020.491	-1311
1020.560	-1721
1020.630	-1837
1020.700	-1695
1020.770	-2410
1020.839	-2186
1020.909	-2564
1020.979	-2076
1021.048	-1754
1021.118	-2095
1021.187	-2296
1021.257	-2231
1021.326	-1597
1021.396	-1846
1021.465	-2246
1021.535	-2920
1021.604	-1804
1021.674	-1740
1021.743	-2033
1021.812	-1759
1021.882	-1684
1021.951	-2918
1022.020	-2541
1022.089	-1415
1022.159	-2998
1022.228	-1190
1022.297	-1832
1022.366	-2125
1022.435	-2460
1022.504	-1858
1022.573	-2473
1022.642	-1963
1022.711	-2305
1022.781	-1991
1022.849	-1141
1022.918	-2052
1022.987	-2258
1023.056	-2565
1023.125	-2227
1023.194	-1802
1023.263	-2594
1023.331	-2199
1023.400	-1995
1023.469	-2313
1023.538	-1809
1023.606	-2125
1023.675	-1831
1023.744	-1759
1023.812	-2770
1023.881	-1831
1023.949	-2935
1024.018	-2160
1024.086	-2763
1024.155	-1719
1024.223	-2120
1024.292	-2016
1024.360	-2077
1024.429	-1791
1024.497	-2570
1024.565	-1586
1024.634	-3464
1024.702	-3118
1024.770	-2442
1024.838	-2722
1024.907	-2454
1024.975	-1945
1025.043	-2147
1025.111	-2238
1025.179	-2247
1025.247	-2520
1025.315	-1562
1025.383	-1830
1025.451	-2893
1025.519	-1932
1025.587	-2439
1025.655	-1152
1025.723	-2353
1025.791	-2069
1025.859	-2549
1025.927	-1479
1025.995	-1793
1026.062	-1773
1026.130	-2022
1026.198	-1636
1026.266	-2353
1026.333	-2196
1026.401	-2011
1026.469	-1501
1026.536	-2034
1026.604	-1450
1026.671	-2217
1026.739	-2841
1026.806	-2187
1026.874	-2363
1026.941	-1842
1027.009	-1860
1027.076	-2844
1027.144	-1735
1027.211	-2340
1027.278	-2294
1027.345	-2262
1027.413	-1706
1027.480	-1769
1027.547	-2534
1027.614	-2128
1027.682	-1277
1027.749	-2571
1027.816	-1972
1027.883	-2156
1027.950	-1652
1028.017	-2509
1028.084	-1513
1028.151	-3367
1028.218	-1611
1028.285	-2054
1028.352	-2556
1028.419	-1284
1028.486	-1985
1028.553	-2414
1028.619	-2413
1028.686	-2105
1028.753	-2094
1028.820	-2242
1028.886	-2100
1028.953	-1806
1029.020	-1678
1029.086	-1287
1029.153	-1738
1029.220	-2802
1029.286	-2012
1029.353	-1814
1029.419	-2215
1029.486	-2204
1029.552	-1889
1029.619	-2662
1029.685	-1796
1029.751	-2518
1029.818	-1565
1029.884	-2434
1029.951	-1853
1030.017	-1803
1030.083	-1925
1030.149	-2209
1030.216	-2614
1030.282	-2178
1030.348	-2167
1030.414	-2807
1030.480	-2892
1030.546	-2814
1030.612	-1732
1030.678	-1867
1030.744	-2515
1030.810	-2249
1030.876	-2439
1030.942	-1773
1031.008	-2579
1031.074	-1732
1031.140	-2154
1031.206	-1726
1031.272	-2613
1031.337	-1717
1031.403	-2163
1031.469	-2733
1031.534	-2459
1031.600	-2669
1031.666	-2053
1031.731	-2616
1031.797	-1966
1031.863	-2750
1031.928	-2064
1031.994	-2658
1032.059	-2619
1032.125	-2602
1032.190	-2225
1032.256	-2110
1032.321	-2320
1032.386	-2207
1032.452	-1840
1032.517	-2302
1032.582	-2709
1032.647	-1558
1032.713	-2703
1032.778	-2620
1032.843	-1981
1032.908	-2825
1032.974	-2254
1033.039	-2639
1033.104	-1612
1033.169	-2282
1033.234	-2075
1033.299	-1134
1033.364	-2094
1033.429	-3643
1033.494	-1731
1033.559	-2411
1033.624	-2565
1033.688	-2388
1033.753	-2368
1033.818	-2013
1033.883	-1878
1033.948	-2673
1034.013	-1766
1034.077	-2635
1034.142	-1667
1034.207	-2608
1034.271	-2443
1034.336	-2475
1034.400	-2096
1034.465	-2333
1034.530	-2303
1034.594	-2221
1034.658	-2082
1034.723	-2057
1034.787	-2250
1034.852	-1367
1034.916	-2245
1034.981	-2930
1035.045	-1270
1035.109	-2102
1035.173	-2433
1035.238	-2573
1035.302	-2280
1035.366	-2778
1035.430	-2029
1035.495	-2618
1035.559	-1800
1035.623	-2049
1035.687	-2948
1035.751	-2103
1035.815	-1998
1035.879	-1819
1035.943	-2600
1036.007	-2106
1036.071	-2259
1036.135	-2515
1036.198	-1935
1036.262	-2534
1036.326	-1492
1036.390	-2329
1036.454	-2445
1036.517	-2458
1036.581	-2283
1036.645	-1776
1036.709	-1770
1036.772	-2444
1036.836	-1650
1036.900	-1921
1036.963	-2124
1037.026	-2857
1037.090	-2270
1037.154	-2610
1037.217	-2137
1037.280	-2600
1037.344	-2455
1037.407	-2747
1037.471	-2300
1037.534	-2894
1037.597	-1921
1037.661	-2486
1037.724	-1749
1037.787	-3109
1037.850	-2795
1037.913	-3191
1037.977	-1746
1038.040	-2718
1038.103	-2368
1038.166	-2804
1038.229	-2748
1038.292	-2124
1038.355	-2354
1038.418	-1584
1038.481	-2169
1038.544	-2285
1038.607	-2156
1038.670	-1955
1038.732	-2473
1038.795	-2481
1038.858	-2590
1038.921	-2418
1038.984	-1606
1039.046	-2431
1039.109	-2303
1039.172	-2363
1039.234	-2409
1039.297	-2681
1039.360	-2255
1039.422	-2918
1039.485	-2771
1039.547	-3047
1039.610	-1586
1039.672	-2387
1039.734	-2260
1039.797	-2429
1039.859	-2411
1039.922	-2752
1039.984	-1882
1040.046	-2645
1040.109	-2248
1040.171	-2846
1040.233	-2211
1040.295	-3108
1040.358	-2261
1040.420	-2552
1040.482	-1815
1040.544	-2994
1040.606	-2336
1040.668	-2679
1040.730	-1872
1040.792	-2452
1040.854	-1548
1040.916	-2165
1040.978	-2184
1041.040	-1891
1041.102	-2645
1041.164	-1634
1041.225	-2206
1041.287	-2477
1041.349	-2407
1041.411	-2177
1041.472	-2238
1041.534	-1891
1041.596	-2286
1041.657	-2425
1041.719	-2217
1041.781	-2158
1041.842	-2017
1041.904	-2484
1041.965	-2790
1042.027	-2755
1042.088	-2990
1042.150	-1819
1042.211	-2601
1042.272	-2050
1042.334	-2270
1042.395	-1656
1042.456	-2098
1042.518	-2429
1042.579	-1451
1042.640	-2833
1042.701	-1535
1042.763	-2796
1042.824	-2731
1042.885	-2281
1042.946	-2153
1043.007	-2238
1043.068	-2036
1043.129	-2327
1043.190	-2428
1043.251	-2046
1043.312	-2116
1043.373	-2365
1043.434	-1936
1043.495	-1964
1043.556	-982
1043.616	-2535
1043.677	-2131
1043.738	-2500
1043.799	-2014
1043.859	-1894
1043.920	-2379
1043.981	-2048
1044.041	-2932
1044.102	-1916
1044.162	-2960
1044.223	-3101
1044.284	-1729
1044.344	-2316
1044.405	-2191
1044.465	-2193
1044.525	-2008
1044.586	-2347
1044.646	-2353
1044.707	-2550
1044.767	-1850
1044.827	-2629
1044.887	-2041
1044.948	-1802
1045.008	-1715
1045.068	-2305
1045.128	-2223
1045.188	-2630
1045.249	-2317
1045.309	-2195
1045.369	-1948
1045.429	-2458
1045.489	-1904
1045.549	-2444
1045.609	-1831
1045.669	-1957
1045.729	-1800
1045.789	-2571
1045.848	-2198
1045.908	-1427
1045.968	-1878
1046.028	-2767
1046.088	-2551
1046.147	-1455
1046.207	-1743
1046.267	-2387
1046.326	-1460
1046.386	-1631
1046.446	-2161
1046.505	-1502
1046.565	-1266
1046.624	-1665
1046.684	-1250
1046.743	-1408
1046.803	-359
1046.862	-1525
1046.922	0
