'Start Wavelength	183.833
'End Wavelength	1047.133
'Gate Delay	5.000
'Gate Width (ms)	1.050
'Laser Output Level	0.000
'X Position	0.000
'Y Position	0.000
'Z Position	0.000
'Grid Point Number	1.000
'Shot Number	100.000
183.833	-213.000
183.903	214.000
183.973	-361
184.042	231
184.112	443
184.182	-14
184.252	73
184.321	641
184.391	-423
184.461	-187
184.531	-504
184.600	480
184.670	-636
184.740	278
184.809	-111
184.879	-576
184.949	-160
185.018	65
185.088	-472
185.158	410
185.228	-109
185.297	776
185.367	-416
185.436	-642
185.506	-434
185.576	333
185.645	-97
185.715	84
185.785	-512
185.854	-75
185.924	-479
185.993	-65
186.063	-931
186.133	180
186.202	131
186.272	521
186.341	-153
186.411	-361
186.481	114
186.550	-63
186.620	-156
186.689	155
186.759	150
186.828	125
186.898	-614
186.967	854
187.037	180
187.106	-44
187.176	-187
187.246	-87
187.315	-663
187.385	-27
187.454	367
187.524	46
187.593	-114
187.662	460
187.732	2
187.801	683
187.871	125
187.940	-45
188.010	-307
188.079	-365
188.149	-351
188.218	-60
188.288	-51
188.357	670
188.426	-223
188.496	-89
188.565	-769
188.635	-327
188.704	-25
188.773	-198
188.843	273
188.912	11
188.981	442
189.051	196
189.120	229
189.190	146
189.259	-42
189.328	-146
189.398	295
189.467	-122
189.536	440
189.606	499
189.675	326
189.744	1098
189.813	-344
189.883	190
189.952	-163
190.021	859
190.091	923
190.160	229
190.229	-842
190.298	-264
190.368	-404
190.437	-85
190.506	98
190.575	478
190.645	402
190.714	489
190.783	446
190.852	250
190.922	677
190.991	273
191.060	-226
191.129	119
191.198	-482
191.268	235
191.337	-681
191.406	203
191.475	-681
191.544	-248
191.613	-515
191.683	301
191.752	-121
191.821	502
191.890	-171
191.959	-152
192.028	-302
192.097	245
192.166	-235
192.236	420
192.305	-240
192.374	-649
192.443	-308
192.512	-350
192.581	194
192.650	27
192.719	-807
192.788	844
192.857	-650
192.926	-36
192.995	-960
193.064	-300
193.133	-316
193.202	-59
193.271	289
193.340	226
193.409	-692
193.478	-178
193.547	208
193.616	465
193.685	451
193.754	607
193.823	-757
193.892	365
193.961	-542
194.030	23
194.099	241
194.168	212
194.237	-111
194.306	385
194.375	-7
194.444	-174
194.513	6
194.582	-97
194.651	246
194.720	472
194.788	-789
194.857	359
194.926	-131
194.995	210
195.064	230
195.133	-44
195.202	185
195.270	-36
195.339	98
195.408	-79
195.477	-49
195.546	-437
195.615	-372
195.683	421
195.752	-378
195.821	667
195.890	195
195.959	-304
196.027	-55
196.096	-449
196.165	-196
196.234	-335
196.303	32
196.371	188
196.440	-685
196.509	-498
196.578	-369
196.646	62
196.715	-693
196.784	601
196.853	-218
196.921	-297
196.990	-439
197.059	-48
197.127	-233
197.196	-191
197.265	-467
197.333	-590
197.402	-862
197.471	-499
197.539	-812
197.608	639
197.677	310
197.745	719
197.814	9
197.883	37
197.951	-296
198.020	-427
198.088	-487
198.157	-116
198.226	-81
198.294	-19
198.363	38
198.431	-81
198.500	-422
198.569	417
198.637	-14
198.706	1041
198.774	113
198.843	356
198.911	169
198.980	-201
199.048	-352
199.117	478
199.185	-543
199.254	-212
199.322	-436
199.391	-550
199.459	-313
199.528	81
199.596	-662
199.665	277
199.733	-72
199.802	-1
199.870	-304
199.939	477
200.007	-167
200.076	44
200.144	-71
200.213	42
200.281	-234
200.349	495
200.418	-70
200.486	15
200.555	-1028
200.623	-104
200.691	674
200.760	-169
200.828	-1006
200.897	68
200.965	-161
201.033	168
201.102	-300
201.170	677
201.238	-311
201.307	28
201.375	-879
201.443	172
201.512	-296
201.580	-23
201.648	-72
201.716	10
201.785	-264
201.853	1
201.921	-594
201.990	426
202.058	-237
202.126	459
202.194	-655
202.263	26
202.331	-516
202.399	-405
202.467	-122
202.536	1129
202.604	-204
202.672	309
202.740	-325
202.808	223
202.877	-88
202.945	-286
203.013	214
203.081	-271
203.149	-354
203.218	265
203.286	-521
203.354	-444
203.422	-662
203.490	241
203.558	-770
203.626	-152
203.695	-451
203.763	-810
203.831	-451
203.899	301
203.967	-708
204.035	748
204.103	-737
204.171	494
204.239	-164
204.307	150
204.375	-121
204.443	-248
204.512	-617
204.580	56
204.648	-152
204.716	-272
204.784	222
204.852	-465
204.920	193
204.988	179
205.056	-304
205.124	-9
205.192	-114
205.260	-311
205.328	-395
205.396	105
205.464	-254
205.532	-552
205.600	-796
205.667	-547
205.735	-780
205.803	1218
205.871	-317
205.939	-29
206.007	-521
206.075	-684
206.143	522
206.211	-658
206.279	-454
206.347	4
206.414	405
206.482	46
206.550	-307
206.618	-467
206.686	-261
206.754	262
206.822	-476
206.889	-714
206.957	-415
207.025	-114
207.093	-605
207.161	-90
207.229	-514
207.296	-15
207.364	72
207.432	52
207.500	-235
207.567	-308
207.635	-339
207.703	-236
207.771	-750
207.839	41
207.906	-411
207.974	-673
208.042	-419
208.109	101
208.177	-595
208.245	572
208.313	-123
208.380	-260
208.448	-393
208.516	-261
208.583	-589
208.651	22
208.719	-756
208.786	-57
208.854	-134
208.922	-239
208.989	-1392
209.057	-59
209.125	-731
209.192	-812
209.260	-398
209.327	-63
209.395	1
209.463	-486
209.530	126
209.598	-583
209.665	-308
209.733	592
209.801	-968
209.868	-416
209.936	325
210.003	-53
210.071	-29
210.138	-548
210.206	319
210.273	-83
210.341	-776
210.408	168
210.476	125
210.543	-256
210.611	-546
210.678	439
210.746	-149
210.813	-469
210.881	375
210.948	-33
211.016	357
211.083	-7
211.151	-172
211.218	-65
211.285	155
211.353	-375
211.420	-261
211.488	-206
211.555	-667
211.622	-702
211.690	-494
211.757	49
211.825	590
211.892	-286
211.959	-116
212.027	109
212.094	-338
212.161	-167
212.229	77
212.296	720
212.363	3438
212.431	891
212.498	-126
212.565	-237
212.633	163
212.700	-163
212.767	-922
212.835	54
212.902	-430
212.969	-472
213.036	224
213.104	-78
213.171	396
213.238	335
213.305	-550
213.373	-99
213.440	-161
213.507	-594
213.574	-194
213.641	-382
213.709	-150
213.776	-713
213.843	-323
213.910	209
213.977	-942
214.045	-132
214.112	-236
214.179	-254
214.246	-259
214.313	398
214.380	-227
214.447	-181
214.515	-72
214.582	-883
214.649	-242
214.716	-76
214.783	-828
214.850	-34
214.917	-402
214.984	213
215.051	155
215.118	-190
215.185	-448
215.253	-542
215.320	-527
215.387	68
215.454	-179
215.521	-402
215.588	-295
215.655	301
215.722	73
215.789	-421
215.856	-205
215.923	243
215.990	-186
216.057	-365
216.124	-113
216.191	-317
216.258	-181
216.325	491
216.391	-494
216.458	-284
216.525	-267
216.592	815
216.659	475
216.726	-264
216.793	-69
216.860	-571
216.927	295
216.994	562
217.061	-583
217.127	-145
217.194	95
217.261	841
217.328	434
217.395	465
217.462	223
217.529	11
217.595	-186
217.662	148
217.729	400
217.796	607
217.863	441
217.929	266
217.996	-70
218.063	-332
218.130	359
218.196	-546
218.263	-1008
218.330	-647
218.397	-233
218.463	-378
218.530	236
218.597	643
218.664	491
218.730	283
218.797	539
218.864	-1
218.930	-220
218.997	-288
219.064	79
219.131	956
219.197	429
219.264	-566
219.331	-579
219.397	-257
219.464	53
219.530	776
219.597	-157
219.664	-239
219.730	-256
219.797	-91
219.864	179
219.930	-319
219.997	1105
220.063	991
220.130	377
220.196	334
220.263	900
220.330	221
220.396	123
220.463	998
220.529	-348
220.596	-307
220.662	-551
220.729	2566
220.795	301
220.862	875
220.928	1649
220.995	2758
221.061	1718
221.128	1259
221.194	738
221.261	613
221.327	-230
221.394	-132
221.460	-66
221.526	571
221.593	2072
221.659	880
221.726	1495
221.792	1301
221.859	-305
221.925	583
221.991	-323
222.058	-75
222.124	313
222.190	-53
222.257	-1002
222.323	-127
222.390	85
222.456	406
222.522	-377
222.589	-129
222.655	246
222.721	242
222.788	-737
222.854	-269
222.920	-299
222.986	48
223.053	-714
223.119	129
223.185	-278
223.251	-382
223.318	-121
223.384	141
223.450	-376
223.516	-231
223.583	-972
223.649	-489
223.715	33
223.781	-227
223.848	-608
223.914	-125
223.980	-978
224.046	7
224.112	-274
224.178	-88
224.245	-1038
224.311	76
224.377	-35
224.443	-544
224.509	99
224.575	527
224.641	-180
224.708	471
224.774	90
224.840	372
224.906	132
224.972	-277
225.038	-449
225.104	62
225.170	366
225.236	-112
225.302	-133
225.368	-537
225.434	-379
225.500	74
225.566	-809
225.632	-41
225.699	-565
225.765	-279
225.831	-729
225.897	521
225.963	279
226.028	49
226.094	200
226.160	689
226.226	959
226.292	3373
226.358	643
226.424	910
226.490	-63
226.556	299
226.622	97
226.688	886
226.754	517
226.820	4304
226.886	2651
226.951	904
227.017	522
227.083	-31
227.149	537
227.215	653
227.281	-36
227.347	349
227.412	-768
227.478	1163
227.544	871
227.610	341
227.676	-1038
227.742	-400
227.807	-394
227.873	512
227.939	-190
228.005	-129
228.070	-569
228.136	306
228.202	-704
228.268	-328
228.333	-223
228.399	-228
228.465	-506
228.531	-37
228.596	-515
228.662	484
228.728	307
228.793	391
228.859	-727
228.925	874
228.990	-412
229.056	-422
229.122	255
229.187	622
229.253	-191
229.319	-285
229.384	-300
229.450	-646
229.516	-1127
229.581	345
229.647	-379
229.712	436
229.778	439
229.844	989
229.909	130
229.975	539
230.040	-437
230.106	-177
230.171	-288
230.237	393
230.302	129
230.368	56
230.433	525
230.499	1062
230.564	-121
230.630	-739
230.695	-19
230.761	-133
230.826	192
230.892	-490
230.957	-970
231.023	-62
231.088	-339
231.154	196
231.219	-452
231.285	567
231.350	-18
231.415	-323
231.481	-332
231.546	-94
231.612	-313
231.677	185
231.742	-164
231.808	-295
231.873	-696
231.938	540
232.004	-187
232.069	-211
232.135	-1171
232.200	3
232.265	-799
232.330	-878
232.396	29
232.461	-687
232.526	43
232.592	-405
232.657	54
232.722	261
232.788	-64
232.853	246
232.918	-59
232.983	35
233.048	142
233.114	918
233.179	1420
233.244	655
233.309	-217
233.375	-83
233.440	-336
233.505	26
233.570	-361
233.635	229
233.700	672
233.766	796
233.831	-310
233.896	251
233.961	-11
234.026	81
234.091	-535
234.156	11
234.222	679
234.287	2613
234.352	1928
234.417	1718
234.482	772
234.547	362
234.612	-253
234.677	738
234.742	2199
234.807	298
234.872	827
234.937	912
235.002	866
235.067	442
235.132	162
235.197	204
235.262	-627
235.327	734
235.392	679
235.457	1184
235.522	-242
235.587	319
235.652	-208
235.717	773
235.782	721
235.847	1496
235.912	1277
235.977	1371
236.042	377
236.107	497
236.172	-73
236.236	-84
236.301	219
236.366	1288
236.431	1576
236.496	976
236.561	2010
236.626	6921
236.691	2969
236.755	1883
236.820	1163
236.885	1148
236.950	368
237.015	1035
237.079	788
237.144	1712
237.209	6360
237.274	11207
237.339	3090
237.403	1849
237.468	1375
237.533	1453
237.598	1446
237.662	-202
237.727	200
237.792	2070
237.856	1860
237.921	716
237.986	1378
238.050	1164
238.115	4695
238.180	3146
238.245	1096
238.309	1556
238.374	71
238.438	1651
238.503	-244
238.568	1099
238.632	619
238.697	-392
238.762	1554
238.826	2242
238.891	1234
238.955	760
239.020	729
239.085	284
239.149	255
239.214	935
239.278	148
239.343	413
239.407	68
239.472	5493
239.536	1955
239.601	1167
239.665	406
239.730	382
239.794	1125
239.859	3410
239.923	1024
239.988	665
240.052	348
240.117	335
240.181	341
240.246	1016
240.310	158
240.374	2811
240.439	2771
240.503	1103
240.568	1783
240.632	2311
240.696	816
240.761	299
240.825	-153
240.890	124
240.954	1422
241.018	4148
241.083	1829
241.147	288
241.211	896
241.276	1421
241.340	726
241.404	-107
241.469	690
241.533	1664
241.597	-6
241.661	-9
241.726	229
241.790	561
241.854	281
241.919	196
241.983	446
242.047	47
242.111	271
242.175	-229
242.240	404
242.304	377
242.368	61
242.432	534
242.496	399
242.561	575
242.625	678
242.689	-399
242.753	300
242.817	1450
242.881	379
242.946	563
243.010	-7
243.074	-64
243.138	-155
243.202	274
243.266	220
243.330	1040
243.394	3729
243.458	10041
243.522	2003
243.586	1128
243.651	297
243.715	1051
243.779	882
243.843	1803
243.907	1584
243.971	337
244.035	1430
244.099	527
244.163	605
244.227	1923
244.291	1022
244.355	772
244.419	641
244.483	904
244.546	-38
244.610	1188
244.674	904
244.738	-60
244.802	275
244.866	642
244.930	15
244.994	500
245.058	1178
245.122	1157
245.186	712
245.249	251
245.313	-493
245.377	1068
245.441	109
245.505	1308
245.569	874
245.632	794
245.696	1715
245.760	1778
245.824	888
245.888	411
245.951	1178
246.015	638
246.079	824
246.143	3239
246.207	4245
246.270	2203
246.334	1131
246.398	1462
246.461	920
246.525	1763
246.589	1210
246.653	1126
246.716	1246
246.780	2269
246.844	1458
246.907	476
246.971	1822
247.035	1552
247.098	1531
247.162	3109
247.226	6874
247.289	2951
247.353	1288
247.416	1769
247.480	943
247.544	1450
247.607	1851
247.671	1546
247.734	1154
247.798	1532
247.861	3081
247.925	6973
247.989	2194
248.052	1261
248.116	2657
248.179	3158
248.243	10676
248.306	9729
248.370	6345
248.433	2625
248.497	2887
248.560	3166
248.624	3700
248.687	5509
248.751	10031
248.814	7224
248.877	6320
248.941	9143
249.004	13544
249.068	10900
249.131	4154
249.194	2996
249.258	4671
249.321	3046
249.385	2642
249.448	2247
249.511	2576
249.575	3593
249.638	3217
249.701	2585
249.765	2961
249.828	3724
249.891	2734
249.955	2786
250.018	5455
250.081	6855
250.145	3391
250.208	3865
250.271	3375
250.334	3059
250.398	2548
250.461	3931
250.524	4889
250.587	14163
250.651	18729
250.714	6569
250.777	4846
250.840	4391
250.903	3744
250.967	5100
251.030	8540
251.093	4554
251.156	5088
251.219	4132
251.282	5195
251.345	19166
251.409	15415
251.472	11326
251.535	33001
251.598	19861
251.661	8110
251.724	10675
251.787	10441
251.850	21963
251.913	10840
251.976	6404
252.039	4828
252.103	4533
252.166	7421
252.229	14237
252.292	13459
252.355	27701
252.418	10549
252.481	7557
252.544	5072
252.607	6637
252.670	11737
252.733	13263
252.796	25541
252.858	15662
252.921	8727
252.984	6435
253.047	5250
253.110	4727
253.173	4760
253.236	4822
253.299	3971
253.362	4812
253.425	4265
253.488	8410
253.550	4213
253.613	5646
253.676	4518
253.739	3045
253.802	3810
253.865	3987
253.928	3153
253.990	5111
254.053	6738
254.116	5636
254.179	4002
254.242	2718
254.304	3976
254.367	4759
254.430	3568
254.493	4605
254.555	7359
254.618	3739
254.681	1520
254.743	1917
254.806	2395
254.869	6200
254.932	4603
254.994	2096
255.057	1982
255.120	1751
255.182	462
255.245	1024
255.308	1074
255.370	1044
255.433	485
255.496	444
255.558	91
255.621	1491
255.683	192
255.746	1024
255.809	820
255.871	416
255.934	464
255.996	598
256.059	449
256.121	1251
256.184	3316
256.246	2621
256.309	1674
256.371	1502
256.434	800
256.496	1217
256.559	764
256.621	1337
256.684	3909
256.746	8913
256.809	2397
256.871	841
256.934	1831
256.996	857
257.059	1234
257.121	1552
257.183	305
257.246	225
257.308	420
257.371	3279
257.433	11421
257.495	9670
257.558	5828
257.620	3153
257.683	1715
257.745	1471
257.807	779
257.870	1818
257.932	1132
257.994	916
258.056	986
258.119	1256
258.181	2038
258.243	1615
258.306	1414
258.368	2955
258.430	2525
258.492	4314
258.555	4504
258.617	1466
258.679	2090
258.741	1653
258.803	1000
258.866	699
258.928	501
258.990	1269
259.052	981
259.114	2248
259.177	990
259.239	1608
259.301	2907
259.363	1828
259.425	1042
259.487	689
259.549	108
259.611	1274
259.674	1092
259.736	5240
259.798	7158
259.860	11109
259.922	8587
259.984	2458
260.046	868
260.108	1256
260.170	372
260.232	1010
260.294	1582
260.356	408
260.418	1378
260.480	4338
260.542	1785
260.604	6566
260.666	7513
260.728	2093
260.790	1740
260.852	949
260.914	1710
260.976	1287
261.038	2223
261.100	8279
261.161	5902
261.223	2714
261.285	3249
261.347	5031
261.409	1255
261.471	1746
261.533	1178
261.595	1729
261.656	2204
261.718	5943
261.780	1224
261.842	2241
261.904	137
261.966	1431
262.027	2023
262.089	1743
262.151	1826
262.213	1685
262.274	2485
262.336	2534
262.398	1110
262.460	2986
262.521	4781
262.583	2032
262.645	176
262.706	1926
262.768	4201
262.830	2654
262.892	2003
262.953	1249
263.015	9088
263.077	19890
263.138	4887
263.200	2000
263.261	1434
263.323	1446
263.385	128
263.446	951
263.508	2473
263.569	1155
263.631	144
263.693	227
263.754	289
263.816	-2
263.877	95
263.939	-371
264.000	40
264.062	2258
264.123	377
264.185	439
264.246	115
264.308	1141
264.369	2544
264.431	634
264.492	-110
264.554	1465
264.615	670
264.677	252
264.738	36
264.800	-6
264.861	569
264.922	-714
264.984	-679
265.045	-357
265.107	-278
265.168	3867
265.229	2306
265.291	531
265.352	-538
265.413	-744
265.475	-1228
265.536	-330
265.597	-969
265.659	51
265.720	-157
265.781	-282
265.843	-885
265.904	706
265.965	7150
266.026	4315
266.088	813
266.149	461
266.210	475
266.271	129
266.333	-207
266.394	329
266.455	-190
266.516	-93
266.577	-111
266.639	1894
266.700	-39
266.761	-759
266.822	-229
266.883	261
266.944	-685
267.005	852
267.067	-685
267.128	58
267.189	-652
267.250	422
267.311	-914
267.372	-1117
267.433	-447
267.494	-490
267.555	-1186
267.616	-803
267.677	-308
267.738	-571
267.799	607
267.860	2365
267.921	778
267.982	359
268.043	-576
268.104	-331
268.165	-875
268.226	235
268.287	-702
268.348	486
268.409	102
268.470	-244
268.531	-840
268.592	-422
268.653	-866
268.714	26
268.775	-273
268.836	1167
268.896	2217
268.957	147
269.018	-1254
269.079	448
269.140	-796
269.201	-48
269.262	-247
269.322	831
269.383	-609
269.444	492
269.505	600
269.565	1386
269.626	-691
269.687	418
269.748	-867
269.809	263
269.869	764
269.930	-61
269.991	-478
270.051	115
270.112	63
270.173	184
270.234	-393
270.294	791
270.355	399
270.416	-98
270.476	93
270.537	925
270.598	4181
270.658	1468
270.719	103
270.779	1232
270.840	35
270.901	554
270.961	1779
271.022	699
271.082	729
271.143	1699
271.203	980
271.264	467
271.325	69
271.385	4790
271.446	2104
271.506	1217
271.567	1242
271.627	1025
271.688	957
271.748	2326
271.809	14834
271.869	22755
271.930	5457
271.990	10096
272.050	20030
272.111	5492
272.171	2247
272.232	2922
272.292	12387
272.352	6827
272.413	4597
272.473	3829
272.534	3767
272.594	3399
272.654	3872
272.715	6993
272.775	2209
272.835	2751
272.896	696
272.956	2074
273.016	3478
273.077	2809
273.137	2279
273.197	2137
273.257	7875
273.318	18551
273.378	5705
273.438	6756
273.498	13423
273.559	6337
273.619	9861
273.679	22139
273.739	7231
273.799	3989
273.860	10414
273.920	21401
273.980	5223
274.040	3739
274.100	4618
274.160	22882
274.221	22447
274.281	17698
274.341	16547
274.401	11798
274.461	5193
274.521	4708
274.581	17986
274.641	24409
274.701	9502
274.761	4452
274.821	9188
274.882	36337
274.942	27893
275.002	17689
275.062	5846
275.122	4363
275.182	2397
275.242	4425
275.302	5852
275.362	6298
275.421	3853
275.481	13292
275.541	30210
275.601	16449
275.661	7917
275.721	5782
275.781	3825
275.841	2958
275.901	3162
275.961	2985
276.021	2106
276.081	4111
276.140	11985
276.200	5786
276.260	3143
276.320	2290
276.380	2881
276.440	2375
276.499	1748
276.559	1716
276.619	2189
276.679	8534
276.738	5860
276.798	3373
276.858	4174
276.918	2919
276.978	1875
277.037	2311
277.097	2914
277.157	10930
277.216	5316
277.276	2291
277.336	3172
277.395	2488
277.455	1920
277.515	3177
277.574	10614
277.634	23742
277.694	6921
277.753	25223
277.813	21050
277.873	16256
277.932	54388
277.992	19605
278.051	16632
278.111	23649
278.171	10154
278.230	26148
278.290	19138
278.349	7674
278.409	4745
278.468	3306
278.528	3087
278.587	2974
278.647	4022
278.706	10611
278.766	30283
278.825	9252
278.885	5342
278.944	6391
279.004	12434
279.063	12444
279.122	6888
279.182	6888
279.241	6723
279.301	9548
279.360	14888
279.419	51166
279.479	159805
279.538	145009
279.598	41815
279.657	22335
279.716	30913
279.776	48227
279.835	19119
279.894	12036
279.953	9334
280.013	13967
280.072	22721
280.131	24015
280.191	110721
280.250	130887
280.309	34946
280.368	19791
280.428	16261
280.487	10703
280.546	8061
280.605	10761
280.664	14418
280.724	5724
280.783	4307
280.842	3986
280.901	3437
280.960	3843
281.019	2864
281.079	3839
281.138	2882
281.197	3808
281.256	18315
281.315	15427
281.374	4277
281.433	3496
281.492	2540
281.551	2961
281.611	2517
281.670	3143
281.729	2272
281.788	2504
281.847	1414
281.906	2401
281.965	1567
282.024	1420
282.083	1202
282.142	1573
282.201	1449
282.260	8009
282.319	5942
282.378	2733
282.436	2525
282.495	12315
282.554	7906
282.613	1990
282.672	1213
282.731	3322
282.790	3275
282.849	2181
282.908	1567
282.967	1348
283.025	2681
283.084	2636
283.143	7485
283.202	17836
283.261	5213
283.319	2895
283.378	1843
283.437	3233
283.496	4467
283.555	3954
283.613	2595
283.672	2955
283.731	4630
283.790	7560
283.848	2321
283.907	3614
283.966	3450
284.024	5195
284.083	2797
284.142	5921
284.201	3173
284.259	5646
284.318	19590
284.376	19080
284.435	6251
284.494	8104
284.552	7175
284.611	6597
284.670	7075
284.728	7289
284.787	10342
284.845	12446
284.904	13472
284.962	18661
285.021	35312
285.079	101246
285.138	304824
285.197	307321
285.255	126552
285.314	58905
285.372	35045
285.431	25840
285.489	21156
285.547	16890
285.606	12577
285.664	10282
285.723	7727
285.781	7887
285.840	4827
285.898	4627
285.957	3537
286.015	3743
286.073	4215
286.132	3894
286.190	4243
286.248	3410
286.307	5542
286.365	4637
286.423	3017
286.482	2662
286.540	1994
286.598	2974
286.657	2472
286.715	2465
286.773	3313
286.832	4876
286.890	7309
286.948	4023
287.006	2825
287.064	2501
287.123	2579
287.181	4105
287.239	3038
287.297	3913
287.356	8348
287.414	5710
287.472	4412
287.530	3450
287.588	2704
287.646	4263
287.704	6221
287.763	4151
287.821	3881
287.879	4306
287.937	6968
287.995	20514
288.053	94071
288.111	279243
288.169	134076
288.227	41219
288.285	19919
288.343	15135
288.401	12210
288.459	10091
288.517	6593
288.575	5587
288.633	3501
288.691	3701
288.749	2703
288.807	3037
288.865	2522
288.923	1880
288.981	1835
289.039	1842
289.097	2088
289.155	2584
289.213	1077
289.271	2080
289.329	1953
289.386	4350
289.444	5172
289.502	2441
289.560	478
289.618	506
289.676	659
289.734	1507
289.791	1008
289.849	2838
289.907	2568
289.965	1509
290.022	478
290.080	1583
290.138	1555
290.196	2100
290.253	348
290.311	709
290.369	492
290.427	276
290.484	-67
290.542	773
290.600	915
290.657	602
290.715	1900
290.773	789
290.830	1018
290.888	1527
290.946	1350
291.003	826
291.061	800
291.118	7226
291.176	15975
291.234	5552
291.291	808
291.349	618
291.406	1378
291.464	1967
291.521	1569
291.579	1393
291.636	884
291.694	1669
291.751	4782
291.809	3808
291.866	693
291.924	1330
291.981	1391
292.039	2695
292.096	770
292.154	872
292.211	1479
292.268	5919
292.326	6239
292.383	4745
292.441	2411
292.498	3741
292.555	2914
292.613	4446
292.670	2874
292.727	3316
292.785	9883
292.842	24466
292.899	14575
292.957	4871
293.014	1977
293.071	2137
293.129	1310
293.186	1021
293.243	2899
293.300	3585
293.358	1224
293.415	2246
293.472	1136
293.529	5070
293.586	23075
293.644	54593
293.701	27238
293.758	10953
293.815	6561
293.872	7698
293.929	5899
293.987	5137
294.044	9109
294.101	18155
294.158	18545
294.215	8571
294.272	3595
294.329	4289
294.386	5505
294.443	4283
294.500	2134
294.558	2078
294.615	3623
294.672	13430
294.729	53235
294.786	47197
294.843	19797
294.900	11528
294.957	8390
295.014	6367
295.070	4672
295.127	4395
295.184	3516
295.241	5375
295.298	21049
295.355	42927
295.412	19600
295.469	8263
295.526	12476
295.583	20447
295.640	20404
295.696	33411
295.753	14567
295.810	6312
295.867	4678
295.924	9027
295.981	8725
296.037	4785
296.094	2263
296.151	2296
296.208	2207
296.265	1509
296.321	2442
296.378	4720
296.435	15047
296.492	27196
296.548	20960
296.605	48428
296.662	72355
296.718	29219
296.775	10787
296.832	10258
296.888	20753
296.945	42594
297.002	34480
297.058	13315
297.115	7943
297.172	12377
297.228	51941
297.285	93848
297.341	42626
297.398	14396
297.454	6756
297.511	5531
297.568	5336
297.624	5470
297.681	3720
297.737	3077
297.794	1290
297.850	2250
297.907	1915
297.963	3370
298.020	7449
298.076	23520
298.133	22640
298.189	11500
298.245	21326
298.302	61759
298.358	42859
298.415	22260
298.471	14442
298.527	9570
298.584	8527
298.640	14462
298.697	32532
298.753	28454
298.809	10444
298.866	5529
298.922	4165
298.978	5474
299.035	5122
299.091	3547
299.147	4734
299.203	3739
299.260	4163
299.316	13938
299.372	53418
299.428	57328
299.485	23266
299.541	8748
299.597	5645
299.653	5053
299.710	5745
299.766	5338
299.822	10517
299.878	34031
299.934	43382
299.990	41528
300.046	69844
300.103	40752
300.159	16889
300.215	15835
300.271	15631
300.327	9613
300.383	6606
300.439	4886
300.495	4216
300.551	5165
300.607	10819
300.663	25376
300.719	37880
300.775	52955
300.831	33471
300.887	32546
300.943	27427
300.999	12916
301.055	8236
301.111	8075
301.167	6502
301.223	4270
301.279	3045
301.335	3227
301.391	2867
301.447	2596
301.503	3875
301.559	8625
301.614	8439
301.670	14592
301.726	22645
301.782	17786
301.838	23899
301.894	29221
301.949	61493
302.005	170753
302.061	179317
302.117	87919
302.173	31708
302.228	15938
302.284	15634
302.340	27297
302.396	25728
302.451	24081
302.507	52360
302.563	62384
302.618	36501
302.674	15878
302.730	7150
302.785	5643
302.841	5385
302.897	7816
302.952	12826
303.008	13920
303.064	15187
303.119	18743
303.175	9921
303.230	5027
303.286	3548
303.341	3335
303.397	2313
303.453	3482
303.508	3607
303.564	6214
303.619	16804
303.675	53560
303.730	47723
303.786	22437
303.841	7620
303.897	5389
303.952	8294
304.008	12337
304.063	12341
304.118	20647
304.174	23225
304.229	18140
304.285	9723
304.340	5118
304.372	4482
304.395	4045
304.451	4542
304.463	4462
304.506	4248
304.554	5825
304.562	6122
304.617	11694
304.644	26085
304.672	41121
304.728	63626
304.735	60083
304.783	37664
304.825	19712
304.838	14372
304.894	6815
304.916	5911
304.949	4750
305.004	5160
305.006	5093
305.059	4072
305.097	3721
305.115	3567
305.170	2724
305.188	2837
305.225	3111
305.278	3385
305.280	3412
305.336	3691
305.369	4052
305.391	4300
305.446	6068
305.459	5920
305.501	5530
305.550	6411
305.556	6552
305.612	13152
305.640	26831
305.667	39861
305.722	50914
305.731	48847
305.777	38175
305.821	45031
305.832	47089
305.887	51655
305.912	41814
305.942	28863
305.997	12089
306.002	11586
306.053	7180
306.092	5564
306.108	5033
306.163	3564
306.183	3589
306.218	3680
306.273	2817
306.273	2820
306.328	3774
306.364	3531
306.383	3429
306.438	3441
306.454	3918
306.493	5122
306.545	11785
306.548	12276
306.603	21589
306.635	29713
306.658	35517
306.713	31135
306.725	28001
306.768	16819
306.816	8060
306.823	6915
306.878	4358
306.906	3721
306.933	3119
306.988	2686
306.997	2733
307.043	3153
307.087	4330
307.098	4628
307.152	8295
307.177	9958
307.207	12143
307.262	12998
307.268	12723
307.317	9857
307.358	7810
307.372	7183
307.427	12399
307.448	16984
307.482	24716
307.536	28577
307.538	28159
307.591	17225
307.629	11088
307.646	8444
307.701	5991
307.719	7163
307.756	10003
307.809	18054
307.810	18233
307.865	15452
307.900	11801
307.920	9516
307.975	7425
307.990	8248
308.029	10994
308.080	28306
308.084	30061
308.139	87160
308.170	102972
308.194	112319
308.248	75244
308.261	68312
308.303	40732
308.351	24192
308.358	22460
308.412	13346
308.441	10775
308.467	8507
308.522	6945
308.531	6694
308.576	5805
308.621	5921
308.631	6058
308.686	10097
308.712	14513
308.740	19403
308.795	17913
308.802	17327
308.849	11904
308.892	8273
308.904	7486
308.959	7599
308.982	8655
309.013	10186
309.068	18473
309.072	19915
309.122	36896
309.162	70511
309.177	85556
309.231	154052
309.253	149722
309.286	127139
309.340	70133
309.343	68448
309.395	32647
309.433	19595
309.449	16194
309.504	12778
309.523	13095
309.558	14128
309.613	19883
309.613	19951
309.667	25489
309.703	24200
309.722	22473
309.776	15369
309.793	13669
309.830	10892
309.883	11265
309.885	11279
309.939	19513
309.973	21968
309.994	22969
310.048	18722
310.063	16994
310.102	10824
310.153	5140
310.157	4837
310.211	2978
310.243	2300
310.265	2266
310.320	2894
310.333	2935
310.374	2239
310.423	1586
310.428	1556
310.483	1686
310.513	1718
310.537	1750
310.591	1917
310.603	1858
310.646	1572
310.693	1568
310.700	1517
310.754	972
310.783	886
310.808	878
310.862	567
310.873	607
310.917	616
310.963	397
310.971	412
311.025	747
311.053	819
311.079	656
311.133	381
311.143	310
311.188	449
311.233	771
311.242	757
311.296	655
311.323	654
311.350	645
311.404	566
311.413	559
311.458	364
311.503	210
311.512	200
311.567	219
311.593	296
311.621	478
311.675	676
311.683	725
311.729	799
311.772	869
311.783	783
311.837	377
311.862	241
311.891	348
311.945	561
311.952	610
311.999	841
312.042	1059
312.053	929
312.107	384
312.132	149
312.222	54
312.311	527
312.401	347
312.491	833
312.581	613
312.671	-20
312.760	553
312.850	1
312.940	-183
313.030	-166
313.119	75
313.209	-693
313.299	247
313.389	621
313.478	113
313.568	61
313.658	-154
313.747	135
313.837	-319
313.927	-453
314.016	-358
314.106	20
314.195	24
314.285	-141
314.375	20
314.464	639
314.554	-334
314.643	-531
314.733	466
314.823	32
314.912	363
315.002	109
315.091	160
315.181	488
315.270	289
315.360	108
315.449	186
315.539	486
315.628	-281
315.718	-58
315.807	1108
315.896	783
315.986	9
316.075	631
316.165	879
316.254	1525
316.344	58
316.433	-477
316.522	95
316.612	215
316.701	107
316.790	968
316.880	1658
316.969	-207
317.058	-44
317.148	-513
317.237	50
317.326	84
317.415	-566
317.505	689
317.594	-99
317.683	134
317.772	-214
317.862	544
317.951	2151
318.040	821
318.129	-414
318.219	364
318.308	503
318.397	1272
318.486	668
318.575	1547
318.664	2716
318.754	241
318.843	-471
318.932	102
319.021	-40
319.110	1965
319.199	5375
319.288	1964
319.377	533
319.466	45
319.555	-135
319.644	620
319.733	1193
319.822	925
319.911	2425
320.000	6681
320.089	1150
320.178	289
320.267	1000
320.356	-196
320.445	306
320.534	840
320.623	-164
320.712	57
320.801	-494
320.890	68
320.979	-109
321.068	780
321.157	1289
321.245	600
321.334	1534
321.423	1412
321.512	-399
321.601	1285
321.690	1154
321.779	218
321.867	-5
321.956	598
322.045	689
322.134	660
322.222	2903
322.311	1892
322.400	369
322.489	1812
322.577	3130
322.666	779
322.755	1320
322.843	2094
322.932	1028
323.021	280
323.110	789
323.198	547
323.287	380
323.375	2609
323.464	6555
323.553	701
323.641	5832
323.730	2091
323.819	926
323.907	4474
323.996	479
324.084	297
324.173	3657
324.261	555
324.350	677
324.438	-129
324.527	354
324.615	454
324.704	-78
324.792	528
324.881	1231
324.969	24
325.058	-85
325.146	725
325.235	2302
325.323	1372
325.412	1786
325.500	791
325.588	215
325.677	290
325.765	-465
325.853	562
325.942	-368
326.030	-129
326.118	665
326.207	278
326.295	-34
326.383	-116
326.472	-285
326.560	291
326.648	-93
326.737	-254
326.825	-113
326.913	-184
327.001	75
327.090	344
327.178	1246
327.266	-569
327.354	661
327.442	243
327.531	-547
327.619	-656
327.707	100
327.795	485
327.883	556
327.971	-602
328.060	-227
328.148	24
328.236	449
328.324	425
328.412	-51
328.500	-295
328.588	179
328.676	781
328.764	264
328.852	-155
328.940	375
329.028	43
329.116	144
329.204	516
329.292	-317
329.380	217
329.468	-82
329.556	-227
329.644	-833
329.732	-236
329.820	-294
329.908	290
329.996	-1028
330.084	-84
330.172	1055
330.259	2928
330.347	327
330.435	-992
330.523	200
330.611	1296
330.699	517
330.787	374
330.874	-334
330.962	327
331.050	213
331.138	-1083
331.226	-116
331.313	-173
331.401	300
331.489	306
331.577	82
331.664	-1058
331.752	195
331.840	-601
331.927	-252
332.015	34
332.103	127
332.190	364
332.278	1949
332.366	425
332.453	-80
332.541	-201
332.629	-287
332.716	80
332.804	-342
332.891	1084
332.979	797
333.066	-607
333.154	767
333.242	274
333.329	-815
333.417	218
333.504	1233
333.592	664
333.679	461
333.767	-691
333.854	-804
333.942	437
334.029	1248
334.117	3112
334.204	5285
334.291	-94
334.379	476
334.466	200
334.554	202
334.641	212
334.728	13
334.816	1703
334.903	10777
334.990	4429
335.078	-295
335.165	-245
335.252	-162
335.340	293
335.427	4343
335.514	1861
335.602	-815
335.689	-898
335.776	318
335.863	76
335.951	-767
336.038	3836
336.125	7060
336.212	1130
336.299	-50
336.387	-1037
336.474	-688
336.561	-384
336.648	161
336.735	345
336.822	-611
336.910	58
336.997	1600
337.084	3816
337.171	5367
337.258	5626
337.345	1530
337.432	-587
337.519	26
337.606	-625
337.693	1501
337.780	2109
337.867	1177
337.954	946
338.041	1136
338.128	-575
338.215	212
338.302	1375
338.389	3382
338.476	184
338.563	2634
338.650	1059
338.737	1155
338.824	1357
338.911	-435
338.998	-953
339.085	-923
339.171	78
339.258	1104
339.345	474
339.432	168
339.519	-263
339.606	-578
339.692	-407
339.779	-946
339.866	-239
339.953	-187
340.040	-512
340.126	-206
340.213	-117
340.300	-757
340.387	-186
340.473	151
340.560	-1239
340.647	109
340.733	1609
340.820	-112
340.907	-288
340.993	214
341.080	-131
341.167	87
341.253	265
341.340	470
341.426	-171
341.513	-618
341.600	-657
341.686	-303
341.773	-615
341.859	-204
341.946	-912
342.032	-1133
342.119	-882
342.205	-977
342.292	-454
342.378	74
342.465	-574
342.551	-637
342.638	336
342.724	845
342.811	523
342.897	-1493
342.984	-131
343.070	-533
343.156	-401
343.243	-95
343.329	-80
343.416	-631
343.502	-731
343.588	-568
343.675	249
343.761	-247
343.847	-315
343.934	1390
344.020	17712
344.106	15405
344.193	895
344.279	798
344.365	5397
344.451	1779
344.538	52
344.624	-187
344.710	-308
344.796	-427
344.882	-346
344.969	-932
345.055	232
345.141	-286
345.227	-661
345.313	-846
345.399	72
345.486	-856
345.572	-1158
345.658	-366
345.744	-1481
345.830	73
345.916	-195
346.002	-416
346.088	543
346.174	-60
346.260	-552
346.346	-814
346.432	-160
346.518	4280
346.604	4433
346.690	-413
346.776	291
346.862	-796
346.948	-471
347.034	312
347.120	-337
347.206	-774
347.292	-418
347.378	-581
347.464	3558
347.549	7236
347.635	4921
347.721	731
347.807	-541
347.893	-153
347.979	78
348.065	-71
348.150	-188
348.236	-1119
348.322	220
348.408	-972
348.493	7
348.579	-205
348.665	-789
348.751	-1205
348.836	-900
348.922	-183
349.008	7157
349.094	3917
349.179	-358
349.265	-750
349.351	-412
349.436	-534
349.522	-718
349.608	83
349.693	1583
349.779	2500
349.864	-191
349.950	-640
350.036	-349
350.121	-53
350.207	-639
350.292	-658
350.378	-452
350.463	197
350.549	-839
350.634	-516
350.720	-541
350.805	-770
350.891	-704
350.976	523
351.062	-293
351.147	-427
351.233	-399
351.318	982
351.404	772
351.489	-785
351.574	-873
351.660	222
351.745	-108
351.830	-685
351.916	-455
352.001	-258
352.086	2069
352.172	613
352.257	-483
352.342	-688
352.428	-31
352.513	708
352.598	3606
352.684	717
352.769	-248
352.854	-914
352.939	-215
353.024	-739
353.110	-214
353.195	-641
353.280	-149
353.365	188
353.450	249
353.536	-196
353.621	103
353.706	54
353.791	295
353.876	-152
353.961	572
354.046	-234
354.131	861
354.216	401
354.302	-138
354.387	-275
354.472	192
354.557	-362
354.642	-156
354.727	378
354.812	-594
354.897	-335
354.982	-102
355.067	-370
355.152	-676
355.237	-20
355.321	42
355.406	329
355.491	1449
355.576	215
355.661	555
355.746	893
355.831	4212
355.916	777
356.001	335
356.085	-85
356.170	-36
356.255	-536
356.340	-215
356.425	1368
356.509	11539
356.594	2978
356.679	-188
356.764	1473
356.849	986
356.933	11114
357.018	15813
357.103	1192
357.187	-382
357.272	181
357.357	-385
357.441	453
357.526	-568
357.611	-744
357.695	-281
357.780	-80
357.865	-504
357.949	53
358.034	10521
358.118	21027
358.203	2676
358.288	-130
358.372	-485
358.457	2599
358.541	5442
358.626	3672
358.710	2586
358.795	328
358.879	-944
358.964	-340
359.048	-88
359.133	-164
359.217	-627
359.302	-11
359.386	329
359.470	15
359.555	150
359.639	-576
359.724	-1006
359.808	352
359.892	161
359.977	-431
360.061	185
360.145	-499
360.230	-510
360.314	-345
360.398	216
360.483	115
360.567	893
360.651	636
360.735	-468
360.820	8002
360.904	8254
360.988	628
361.072	-103
361.157	-99
361.241	-555
361.325	-382
361.409	-821
361.493	-49
361.577	-573
361.662	-178
361.746	741
361.830	11963
361.914	5459
361.998	320
362.082	-503
362.166	-418
362.250	469
362.334	-679
362.418	848
362.502	36
362.586	123
362.671	-639
362.754	-708
362.839	-42
362.922	-1039
363.006	2305
363.090	12351
363.174	6761
363.258	74
363.342	-786
363.426	907
363.510	5385
363.594	954
363.678	74
363.762	-685
363.846	-461
363.929	-396
364.013	287
364.097	273
364.181	1436
364.265	5730
364.349	19
364.432	2028
364.516	-213
364.600	662
364.684	3629
364.767	11282
364.851	2157
364.935	835
365.019	-814
365.102	563
365.186	-497
365.270	3000
365.353	5607
365.437	250
365.521	-143
365.604	-594
365.688	503
365.771	-520
365.855	-238
365.939	-902
366.022	394
366.106	-555
366.189	-1178
366.273	-512
366.357	-491
366.440	211
366.524	-793
366.607	-433
366.691	-437
366.774	-698
366.858	-190
366.941	-274
367.024	-566
367.108	-900
367.191	-366
367.275	-723
367.358	-1141
367.442	-463
367.525	-417
367.608	-105
367.692	-470
367.775	-395
367.858	252
367.942	4235
368.025	1792
368.108	-352
368.192	-318
368.275	473
368.358	-927
368.442	790
368.525	1948
368.608	87
368.691	2999
368.775	1771
368.858	-694
368.941	462
369.024	162
369.107	-197
369.190	-1047
369.274	-375
369.357	478
369.440	-392
369.523	-227
369.606	-1488
369.689	-189
369.772	-545
369.855	311
369.939	-362
370.022	-259
370.105	-1153
370.188	719
370.271	-200
370.354	-333
370.437	836
370.520	6735
370.603	1597
370.686	-827
370.769	2005
370.852	3967
370.935	3863
371.018	401
371.100	95
371.183	-273
371.266	-867
371.349	-1024
371.432	-616
371.515	-1071
371.598	-194
371.681	97
371.763	151
371.846	780
371.929	15710
372.012	10761
372.095	2557
372.177	4660
372.260	5483
372.343	-189
372.426	494
372.508	411
372.591	-514
372.674	2764
372.757	4174
372.839	-504
372.922	2396
373.005	1122
373.087	-332
373.170	219
373.253	4075
373.335	5036
373.418	19424
373.500	13793
373.583	3382
373.666	17182
373.748	6701
373.831	-192
373.913	-133
373.996	422
374.078	3436
374.161	16
374.243	1726
374.326	2870
374.408	1683
374.491	13918
374.573	14393
374.656	1358
374.738	5306
374.821	11436
374.903	20062
374.985	5523
375.068	993
375.150	192
375.233	4783
375.315	2586
375.397	-488
375.480	-242
375.562	-124
375.644	74
375.727	5371
375.809	12327
375.891	4112
375.973	863
376.056	1190
376.138	1764
376.220	-193
376.302	6046
376.385	6251
376.467	359
376.549	246
376.631	3477
376.713	6640
376.795	27
376.878	-947
376.960	-198
377.042	-838
377.124	379
377.206	-814
377.288	-983
377.370	-608
377.452	-684
377.534	-795
377.616	-639
377.699	-1392
377.781	-992
377.863	-1073
377.945	94
378.027	-1382
378.109	-772
378.190	-241
378.272	68
378.354	-632
378.436	-1056
378.518	-509
378.600	-413
378.682	134
378.764	2198
378.846	521
378.928	18
379.010	-868
379.091	-609
379.173	111
379.255	-1022
379.337	-802
379.419	1927
379.501	3132
379.582	-445
379.664	-724
379.746	-196
379.828	2572
379.909	2533
379.991	423
380.073	-1176
380.155	-806
380.236	-35
380.318	-691
380.400	-229
380.481	34
380.563	-415
380.645	206
380.726	-838
380.808	-102
380.889	-1098
380.971	-901
381.053	-286
381.134	-109
381.216	1054
381.297	2070
381.379	-1095
381.460	1913
381.542	9880
381.623	2317
381.705	-319
381.786	97
381.868	528
381.949	9213
382.031	15408
382.112	2685
382.193	27
382.275	1177
382.356	3798
382.438	5609
382.519	12832
382.600	8397
382.682	3056
382.763	6463
382.844	5466
382.926	6689
383.007	133
383.088	2950
383.170	19252
383.251	10091
383.332	6326
383.413	7852
383.495	1154
383.576	461
383.657	931
383.738	17932
383.820	26271
383.901	4007
383.982	5664
384.063	8743
384.144	705
384.225	-18
384.306	-319
384.388	11
384.469	-709
384.550	-371
384.631	-807
384.712	-517
384.793	424
384.874	-454
384.955	2403
385.036	-140
385.117	-796
385.198	474
385.279	-99
385.360	-161
385.441	-263
385.522	1740
385.603	6708
385.684	1098
385.765	-482
385.846	994
385.927	13800
386.008	7416
386.089	-440
386.169	10
386.250	-1143
386.331	808
386.412	-222
386.493	2068
386.574	1195
386.654	-1015
386.735	-880
386.816	-192
386.897	-804
386.977	-679
387.058	-391
387.139	23
387.220	2219
387.300	1093
387.381	-687
387.462	-681
387.542	12
387.623	-1402
387.704	1574
387.784	7528
387.865	3352
387.946	590
388.026	-831
388.107	-1900
388.187	358
388.268	3
388.349	-671
388.429	-257
388.510	2110
388.590	10411
388.671	3387
388.751	609
388.832	1379
388.912	-813
388.993	-1390
389.073	-124
389.154	-846
389.234	-1448
389.314	701
389.395	-1817
389.475	2133
389.556	1340
389.636	640
389.716	272
389.797	-1159
389.877	2272
389.957	3568
390.038	440
390.118	-701
390.198	677
390.279	1913
390.359	-490
390.439	1404
390.519	3885
390.600	1574
390.680	-990
390.760	-145
390.840	45
390.920	-673
391.001	-1654
391.081	113
391.161	-1099
391.241	-795
391.321	185
391.401	-305
391.481	-933
391.562	-1565
391.642	-406
391.722	-174
391.802	121
391.882	-543
391.962	1895
392.042	-47
392.122	1043
392.202	1591
392.282	3714
392.362	42
392.442	174
392.522	-1380
392.602	139
392.682	951
392.762	3563
392.842	60
392.921	3844
393.001	4179
393.081	-32
393.161	948
393.241	11086
393.321	50436
393.401	13585
393.480	1847
393.560	346
393.640	-317
393.720	-621
393.800	-1688
393.879	160
393.959	-508
394.039	-575
394.119	-321
394.198	233
394.278	8400
394.358	37723
394.437	8983
394.517	73
394.597	-521
394.676	-81
394.756	1256
394.836	1644
394.915	-542
394.995	-281
395.075	-512
395.154	-163
395.234	-407
395.313	188
395.393	-1906
395.472	706
395.552	884
395.631	1563
395.711	1569
395.790	3775
395.870	-197
395.949	199
396.029	11703
396.108	47764
396.188	11844
396.267	1867
396.346	-356
396.426	-906
396.505	-105
396.585	-563
396.664	1735
396.743	17627
396.823	35168
396.902	7641
396.981	420
397.061	598
397.140	-1717
397.219	-111
397.298	-582
397.378	-593
397.457	-25
397.536	-713
397.615	-2292
397.694	-320
397.774	-514
397.853	-2301
397.932	-805
398.011	-456
398.090	428
398.169	1534
398.249	-1208
398.328	-299
398.407	-527
398.486	-1226
398.565	-979
398.644	-1154
398.723	-263
398.802	-1092
398.881	668
398.960	1487
399.039	-854
399.118	-1518
399.197	-190
399.276	115
399.355	-777
399.434	-977
399.513	-671
399.592	-1615
399.671	-159
399.750	356
399.829	4663
399.908	-129
399.986	-250
400.065	-1833
400.144	-2015
400.223	750
400.302	-1022
400.380	-1741
400.459	1225
400.538	-251
400.617	-1392
400.696	-904
400.774	-952
400.853	-716
400.932	-1491
401.011	123
401.089	-1607
401.168	-1111
401.247	-736
401.325	-864
401.404	-442
401.483	-1017
401.561	-848
401.640	-1054
401.718	-362
401.797	-1598
401.876	-1308
401.954	-878
402.033	-1063
402.111	-584
402.190	-773
402.268	-973
402.347	-1493
402.425	713
402.504	-1415
402.582	-652
402.661	-875
402.739	-955
402.818	-437
402.896	-896
402.974	471
403.053	1189
403.131	147
403.210	909
403.288	-184
403.366	968
403.445	145
403.523	-1436
403.601	-586
403.680	-2372
403.758	-653
403.836	-758
403.915	-1103
403.993	-1686
404.071	65
404.149	-2078
404.228	-1104
404.306	871
404.384	350
404.462	1530
404.540	10247
404.618	1315
404.697	-142
404.775	-100
404.853	-431
404.931	-1246
405.009	-753
405.087	-1133
405.165	-1164
405.243	-2354
405.321	-372
405.399	-1481
405.478	-767
405.556	-200
405.634	-1315
405.712	-1753
405.790	255
405.868	-663
405.945	-1150
406.023	-1504
406.101	-1444
406.179	4
406.257	1086
406.335	4445
406.413	130
406.491	-995
406.569	-924
406.647	-1118
406.724	-1285
406.802	-1276
406.880	-1890
406.958	-1587
407.036	-889
407.113	4255
407.191	345
407.269	-478
407.347	-1626
407.424	-894
407.502	-1039
407.580	-836
407.658	-611
407.735	783
407.813	-89
407.891	-686
407.968	-1002
408.046	-607
408.124	-1018
408.201	-439
408.279	-1285
408.356	-1534
408.434	-1156
408.512	-1182
408.589	-1560
408.667	-650
408.744	-901
408.822	-931
408.899	-2428
408.977	-641
409.054	-1791
409.132	-755
409.209	-631
409.287	-1632
409.364	-629
409.441	-1448
409.519	-703
409.596	-641
409.674	-1173
409.751	-1606
409.828	-954
409.906	-625
409.983	-2000
410.060	-1488
410.138	-31
410.215	-1167
410.292	-1682
410.370	-1082
410.447	357
410.524	-1935
410.601	-314
410.678	-1536
410.756	-356
410.833	-2583
410.910	-960
410.987	-955
411.064	-1240
411.142	-991
411.219	-189
411.296	-1234
411.373	-1179
411.450	-1291
411.527	-73
411.604	-2180
411.681	-1460
411.758	-954
411.835	-764
411.913	-2105
411.990	-1498
412.067	-477
412.144	-636
412.221	-1213
412.298	-518
412.374	-1991
412.451	-885
412.528	-1519
412.605	-1308
412.682	-1055
412.759	-903
412.836	-1205
412.913	-2148
412.990	-1406
413.067	-1036
413.143	248
413.220	-461
413.297	-1983
413.374	-383
413.451	-1129
413.527	-132
413.604	-379
413.681	-1542
413.758	-753
413.834	-1423
413.911	-915
413.988	-1841
414.065	-1025
414.141	-1092
414.218	-707
414.295	843
414.371	634
414.448	-2094
414.524	-1233
414.601	-1563
414.678	-655
414.754	-1383
414.831	-1574
414.907	-1381
414.984	-1783
415.060	-1127
415.137	-690
415.213	-753
415.290	-314
415.366	-1199
415.443	-1121
415.519	-1336
415.596	-1817
415.672	-784
415.749	-1562
415.825	-1447
415.902	-936
415.978	-1568
416.054	-760
416.131	-1935
416.207	-1300
416.283	-955
416.360	-1711
416.436	-782
416.512	-923
416.589	-1620
416.665	-992
416.741	-1247
416.817	-1623
416.894	-1248
416.970	-697
417.046	-1103
417.122	-1384
417.198	-1356
417.275	-412
417.351	-1869
417.427	-910
417.503	-1900
417.579	-1428
417.655	-1016
417.731	-645
417.808	-1293
417.884	-834
417.960	-1619
418.036	-1590
418.112	-1032
418.188	-1116
418.264	-763
418.340	-1068
418.416	-2154
418.492	-1065
418.568	-1214
418.644	-954
418.720	-1246
418.796	-658
418.872	-1511
418.947	-1727
419.023	-1397
419.099	-634
419.175	-2362
419.251	-1395
419.327	-1386
419.403	-1049
419.478	-1311
419.554	-1468
419.630	-810
419.706	-1283
419.782	-1162
419.857	-1317
419.933	-1133
420.009	-814
420.085	-536
420.160	688
420.236	-874
420.312	-1102
420.387	-1401
420.463	-996
420.539	-953
420.614	-1663
420.690	-745
420.766	-1957
420.841	-653
420.917	-1560
420.992	-1064
421.068	-1703
421.143	-1202
421.219	-2106
421.294	-5
421.370	-2044
421.445	118
421.521	-999
421.596	-1236
421.672	-1246
421.747	-1085
421.823	-1965
421.898	-1408
421.974	-1454
422.049	-1107
422.124	-1746
422.200	-1361
422.275	-910
422.350	-1039
422.426	-1088
422.501	2014
422.576	21755
422.652	27197
422.727	3668
422.802	-162
422.878	-252
422.953	-1356
423.028	-1240
423.103	-748
423.178	-970
423.254	-1198
423.329	-876
423.404	-1522
423.479	-465
423.554	-1438
423.630	-987
423.705	-1160
423.780	-1424
423.855	-1221
423.930	-1473
424.005	-1547
424.080	-1345
424.155	-1260
424.230	-1598
424.305	-1679
424.380	-1898
424.455	-1539
424.530	-1045
424.605	-1372
424.680	-1540
424.755	-1230
424.830	-1134
424.905	-2054
424.980	-76
425.055	-562
425.130	-1805
425.204	0
425.279	-1357
425.354	-1367
425.429	-1970
425.504	-1206
425.579	-1405
425.653	-1811
425.728	-1640
425.803	-1141
425.878	-959
425.952	-446
426.027	158
426.102	-1701
426.177	-1156
426.251	-1016
426.326	-1793
426.401	-1663
426.475	-934
426.550	-1130
426.625	-1216
426.699	-1130
426.774	-1805
426.848	-1324
426.923	-1655
426.998	-1672
427.072	1696
427.147	2329
427.221	-904
427.296	-1339
427.370	-1906
427.445	-1512
427.519	-1922
427.594	-1318
427.668	-923
427.743	-2124
427.817	-906
427.892	-1576
427.966	-2356
428.040	-1267
428.115	-772
428.189	-701
428.263	505
428.338	-1332
428.412	-999
428.486	-1082
428.561	-607
428.635	-1165
428.709	-1266
428.784	-760
428.858	1044
428.932	-845
429.006	-1377
429.080	-2006
429.155	-1065
429.229	-1198
429.303	-745
429.377	-896
429.451	-856
429.526	-681
429.600	-1582
429.674	-1241
429.748	-1584
429.822	295
429.896	144
429.970	-418
430.044	936
430.118	-11
430.192	3353
430.266	384
430.340	-1528
430.414	-2029
430.488	-63
430.562	81
430.636	101
430.710	4436
430.784	1378
430.858	-795
430.932	-1781
431.006	-1099
431.080	-2336
431.153	-1998
431.227	-1260
431.301	-1431
431.375	155
431.449	-1473
431.523	-883
431.596	-1746
431.670	-2209
431.744	-1027
431.818	1089
431.891	-1256
431.965	-1687
432.039	-1140
432.112	-1193
432.186	-1483
432.260	-766
432.333	-1261
432.407	-1471
432.481	1202
432.554	2539
432.628	-413
432.702	-1641
432.775	-1277
432.849	-1603
432.922	-899
432.996	-1483
433.069	-1855
433.143	-1190
433.216	-909
433.290	-1190
433.363	-1874
433.437	-1341
433.510	-1349
433.584	-1290
433.657	-1535
433.730	-1061
433.804	-2428
433.877	-1272
433.951	-1394
434.024	-1646
434.097	-1472
434.171	-1732
434.244	-1318
434.317	-1831
434.391	-1638
434.464	-1754
434.537	-1322
434.610	-1588
434.684	-1540
434.757	-1869
434.830	-1246
434.903	-1541
434.977	-1668
435.050	-1672
435.123	-877
435.196	-1288
435.269	-1298
435.342	-1202
435.415	-2212
435.489	-1295
435.562	-1543
435.635	-1582
435.708	-1168
435.781	-880
435.854	-870
435.927	-1355
436.000	-2064
436.073	-1366
436.146	-1741
436.219	-1872
436.292	-1358
436.365	-1441
436.438	-1616
436.511	-1641
436.584	-1463
436.657	-1196
436.729	-1564
436.802	-1098
436.875	-1054
436.948	-1631
437.021	-1654
437.094	-1439
437.166	-1679
437.239	-1620
437.312	-1823
437.385	-2149
437.457	-1634
437.530	-1555
437.603	-1482
437.676	-1346
437.748	-2092
437.821	-986
437.894	-1450
437.966	-1048
438.039	-1632
438.112	-1395
438.184	-1700
438.257	3138
438.330	4899
438.402	-629
438.475	-892
438.547	-1229
438.620	-1108
438.692	-1025
438.765	-1908
438.837	-1556
438.910	-1336
438.982	-1962
439.055	-2048
439.127	-1758
439.200	-1637
439.272	-1880
439.345	-1447
439.417	-1860
439.489	-1924
439.562	-1890
439.634	-840
439.707	-1543
439.779	-2100
439.851	-1026
439.923	-956
439.996	-2069
440.068	-1752
440.140	-1308
440.213	-2709
440.285	-1603
440.357	5
440.429	1722
440.502	-27
440.574	-1530
440.646	-984
440.718	-1834
440.790	-1459
440.862	-1666
440.935	-1469
441.007	-1345
441.079	-754
441.151	-1443
441.223	-1212
441.295	-1637
441.367	-1634
441.439	-48
441.511	-1293
441.583	-1155
441.655	-940
441.727	-1530
441.799	-2238
441.871	-2173
441.943	-963
442.015	-1477
442.087	-1644
442.159	-1609
442.231	-1478
442.303	-1335
442.374	-1109
442.446	-640
442.518	-337
442.590	-1890
442.662	-1466
442.734	-1150
442.805	-1867
442.877	-1829
442.949	-1647
443.021	-1892
443.092	-1236
443.164	-1973
443.236	-1218
443.308	-1545
443.379	-67
443.451	1637
443.523	-57
443.594	-1095
443.666	-1495
443.737	-2032
443.809	-2051
443.881	-1119
443.952	-1376
444.024	-1596
444.095	-2082
444.167	-861
444.238	-1078
444.310	-2191
444.381	-2011
444.453	-1517
444.524	-1683
444.596	-1607
444.667	-1851
444.739	-1892
444.810	-1188
444.882	-1995
444.953	-1624
445.024	-1337
445.096	-1308
445.167	-1512
445.238	-870
445.310	-597
445.381	1744
445.452	2992
445.524	388
445.595	105
445.666	-1235
445.737	-1195
445.809	-1796
445.880	-1429
445.951	-1580
446.022	-1847
446.094	-994
446.165	-866
446.236	-2080
446.307	-1169
446.378	-1181
446.449	-1468
446.520	-1500
446.591	-1743
446.663	-1441
446.734	-1488
446.805	-899
446.876	-1039
446.947	-1218
447.018	-1310
447.089	-727
447.160	-1119
447.231	-1645
447.302	-1777
447.373	-2299
447.444	-1838
447.514	-2025
447.585	-2071
447.656	-1449
447.727	-1396
447.798	-937
447.869	-1887
447.940	-1633
448.010	-1512
448.081	-1169
448.152	-1738
448.223	-1431
448.294	-1396
448.364	-1112
448.435	-1646
448.506	-928
448.577	-2105
448.647	-1908
448.718	-2111
448.789	-1353
448.859	-1348
448.930	-1550
449.001	-2545
449.071	-1434
449.142	-1808
449.213	-1029
449.283	-1837
449.354	-1286
449.424	-1330
449.495	-1917
449.565	-1195
449.636	-1278
449.706	-1679
449.777	-1529
449.847	-1567
449.918	-1288
449.988	-2359
450.059	-866
450.129	-963
450.200	-2200
450.270	-1243
450.340	-1146
450.411	-1478
450.481	-1913
450.551	-1938
450.622	-1730
450.692	-1318
450.762	-1394
450.833	-1043
450.903	-2022
450.973	-1743
451.043	-1856
451.114	-1483
451.184	-1402
451.254	-1868
451.324	-1526
451.395	-2011
451.465	-1895
451.535	-1288
451.605	-1489
451.675	-2113
451.745	-925
451.815	-993
451.885	-2473
451.956	-1494
452.026	-1498
452.096	-1652
452.166	-1626
452.236	-1517
452.306	-1342
452.376	-1683
452.446	-1768
452.516	-1475
452.586	-1127
452.656	-1763
452.725	-1131
452.795	-1184
452.865	-1739
452.935	-1473
453.005	-1725
453.075	-1560
453.145	-1666
453.215	-366
453.284	-461
453.354	-566
453.424	668
453.494	59
453.564	159
453.633	-1195
453.703	-1136
453.773	-2159
453.843	-1612
453.895	-2243
453.912	-2494
453.976	-1769
453.982	-1752
454.052	-1945
454.057	-1866
454.121	-1537
454.139	-1336
454.191	-691
454.220	-92
454.261	213
454.301	426
454.330	-4
454.382	-758
454.400	-941
454.463	-482
454.469	-444
454.539	-361
454.544	-263
454.608	715
454.625	1496
454.678	3241
454.707	4445
454.748	3467
454.788	3423
454.817	2477
454.869	564
454.887	586
454.950	838
454.956	1007
455.026	5271
455.031	5874
455.095	10606
455.112	12467
455.165	20638
455.193	26179
455.234	22882
455.274	21178
455.303	16346
455.355	9112
455.373	8385
455.436	4405
455.442	3919
455.512	1659
455.517	1466
455.581	913
455.598	759
455.650	306
455.679	163
455.720	-57
455.760	497
455.789	887
455.841	838
455.858	621
455.922	652
455.928	659
455.997	739
456.003	815
456.066	2247
456.084	2619
456.136	3943
456.165	4800
456.205	4337
456.245	4185
456.274	3043
456.326	938
456.343	926
456.407	1439
456.412	1415
456.482	1626
456.488	1522
456.551	400
456.569	557
456.620	1065
456.650	1147
456.689	1138
456.730	1236
456.758	1515
456.811	1651
456.827	2005
456.892	4514
456.897	4860
456.966	11052
456.973	11722
457.035	14980
457.054	16155
457.104	7834
457.134	2987
457.173	2679
457.215	2025
457.242	2022
457.296	2413
457.311	2435
457.377	2556
457.380	2535
457.449	2855
457.457	2871
457.518	3402
457.538	3800
457.587	5962
457.619	7401
457.656	9852
457.699	12206
457.725	10600
457.780	8240
457.794	8539
457.861	9513
457.863	9653
457.932	15340
457.941	16221
458.001	16678
458.022	16874
458.070	10439
458.103	6254
458.138	6141
458.183	5509
458.207	6006
458.264	7754
458.276	8864
458.344	15166
458.345	15226
458.414	27838
458.425	30027
458.483	19927
458.506	15930
458.551	10191
458.586	5455
458.620	4631
458.667	4095
458.689	4377
458.747	4608
458.758	4717
458.826	5611
458.828	5639
458.895	5235
458.908	5088
458.964	5436
458.989	5871
459.033	7259
459.069	8269
459.101	8073
459.150	7604
459.170	7627
459.230	7800
459.239	7590
459.307	5659
459.311	5588
459.376	6311
459.391	6431
459.444	6035
459.471	5810
459.513	5943
459.552	5855
459.582	6234
459.632	7592
459.650	7763
459.713	7433
459.719	7419
459.787	7642
459.793	7654
459.856	6756
459.873	6551
459.924	7266
459.954	7386
459.993	9108
460.034	11356
460.061	13246
460.114	16530
460.130	15390
460.195	10545
460.198	10427
460.267	7866
460.275	7523
460.335	8533
460.355	8981
460.404	13338
460.436	16005
460.472	25773
460.516	37541
460.540	39060
460.596	42388
460.609	37091
460.676	9068
460.677	9085
460.745	7534
460.757	7325
460.814	7445
460.837	7445
460.882	9273
460.917	10869
460.950	11053
460.997	11074
461.019	10266
461.077	8075
461.087	8290
461.155	9905
461.158	9904
461.224	8736
461.238	8530
461.292	8613
461.318	8867
461.360	11574
461.398	13511
461.428	21370
461.478	34812
461.496	42679
461.558	68965
461.565	65345
461.633	23943
461.638	20458
461.701	14355
461.719	12535
461.769	12298
461.799	12034
461.837	10597
461.879	9025
461.905	9128
461.959	9428
461.973	11150
462.039	18468
462.042	19253
462.110	37297
462.119	39632
462.178	29332
462.199	25483
462.246	17211
462.279	11080
462.314	12009
462.359	13549
462.382	12669
462.439	9832
462.450	9930
462.518	10306
462.519	10274
462.586	11359
462.599	11477
462.654	14951
462.679	16474
462.722	21642
462.759	25963
462.790	21364
462.839	13633
462.858	12669
462.919	9798
462.926	9807
462.993	9023
462.999	8932
463.061	11269
463.078	11882
463.129	12618
463.158	12810
463.197	13668
463.238	14668
463.265	14313
463.318	13284
463.333	13340
463.398	13530
463.401	13637
463.468	14425
463.478	14468
463.536	19218
463.558	20942
463.604	26535
463.637	30453
463.672	36916
463.717	44831
463.739	53420
463.797	75538
463.807	70068
463.875	30714
463.877	29511
463.943	15449
463.957	12322
464.010	12391
464.036	12448
464.078	13401
464.116	14029
464.146	15027
464.196	16682
464.213	16967
464.275	17332
464.281	17819
464.349	22963
464.355	23366
464.416	17635
464.435	15761
464.484	17760
464.515	18785
464.551	20361
464.594	22040
464.619	20457
464.674	16589
464.686	16822
464.754	17645
464.754	17757
464.821	20979
464.833	21464
464.889	16451
464.913	14236
464.956	14008
464.992	13508
465.024	13941
465.072	14565
465.091	15006
465.152	15865
465.159	16718
465.226	24103
465.231	24501
465.294	31852
465.311	33679
465.361	38978
465.390	41757
465.429	59059
465.470	77052
465.496	62384
465.549	31445
465.563	28711
465.629	14681
465.631	14763
465.698	14759
465.708	14689
465.765	14927
465.788	14936
465.833	14746
465.867	14379
465.900	15045
465.947	15815
465.967	16409
466.026	17776
466.035	17907
466.102	18180
466.106	18094
466.169	18301
466.185	18213
466.236	18080
466.265	17859
466.304	19551
466.344	21110
466.371	24125
466.423	29706
466.438	34967
466.503	57577
466.505	59847
466.572	118959
466.582	127085
466.639	77299
466.662	57218
466.707	39606
466.741	25664
466.774	24476
466.820	22474
466.841	22480
466.900	21942
466.908	22099
466.975	22400
466.979	22292
467.042	25107
467.058	25650
467.109	26503
467.138	26760
467.176	26031
467.217	24950
467.243	25787
467.296	27045
467.310	27298
467.375	27617
467.377	27624
467.455	20854
467.534	22240
467.613	26355
467.692	36544
467.772	34861
467.851	31811
467.930	59806
468.009	135293
468.088	60585
468.167	22245
468.246	23486
468.326	24097
468.405	20930
468.484	23572
468.563	31768
468.642	36175
468.721	23825
468.800	24292
468.879	32681
468.958	55508
469.037	28573
469.116	20021
469.195	20144
469.274	20076
469.353	20080
469.432	20492
469.511	21361
469.590	28106
469.669	39372
469.748	40938
469.827	23290
469.905	25401
469.984	30643
470.063	47462
470.142	80091
470.221	66908
470.300	40817
470.378	30019
470.457	27471
470.536	36838
470.615	32856
470.694	27003
470.772	39475
470.851	57388
470.930	24070
471.008	17911
471.087	16673
471.166	16592
471.245	18795
471.323	18654
471.402	18814
471.480	17489
471.559	17758
471.638	17887
471.716	17819
471.795	18722
471.873	17374
471.952	19087
472.031	26051
472.109	29774
472.188	21029
472.266	16367
472.345	15985
472.423	16506
472.502	19169
472.580	25574
472.659	23917
472.737	22322
472.815	17883
472.894	22608
472.972	25148
473.051	19965
473.129	21782
473.207	25764
473.286	21316
473.364	22141
473.443	35820
473.521	50176
473.599	23145
473.677	19428
473.756	26845
473.834	24238
473.912	20270
473.991	28536
474.069	43247
474.147	42471
474.225	16312
474.303	18031
474.382	20211
474.460	20805
474.538	20615
474.616	21137
474.694	19088
474.772	17648
474.851	15804
474.929	17480
475.007	19027
475.085	20209
475.163	25696
475.241	39540
475.319	20650
475.397	19610
475.475	22923
475.553	39351
475.631	86906
475.709	85287
475.787	83247
475.865	20153
475.943	21564
476.021	31624
476.099	33538
476.177	20375
476.255	19832
476.333	21450
476.410	31231
476.488	33855
476.566	20219
476.644	21308
476.722	20073
476.800	19681
476.877	18938
476.955	21025
477.033	24975
477.111	23950
477.189	17415
477.266	16549
477.344	16086
477.422	17640
477.499	17564
477.577	18295
477.655	25979
477.732	19375
477.810	19719
477.888	17899
477.965	18448
478.043	22090
478.121	30950
478.198	45239
478.276	18921
478.353	18689
478.431	18814
478.508	25320
478.586	19208
478.664	19902
478.741	26654
478.819	28466
478.896	16046
478.974	20050
479.051	25660
479.128	24883
479.206	15329
479.283	16107
479.361	16919
479.438	21633
479.516	19756
479.593	19002
479.670	20407
479.748	24527
479.825	37565
479.902	21521
479.980	17595
480.057	17779
480.134	18011
480.211	20131
480.289	28121
480.366	50350
480.443	26916
480.520	19592
480.598	21542
480.675	24696
480.752	20904
480.829	21517
480.906	22957
480.984	22077
481.061	23172
481.138	16908
481.215	16485
481.292	19115
481.369	21576
481.446	20555
481.523	16239
481.600	16564
481.677	18732
481.754	24374
481.831	42802
481.908	47720
481.985	19702
482.062	22435
482.139	39179
482.216	50843
482.293	21212
482.370	19968
482.447	17954
482.524	18379
482.601	21577
482.678	16211
482.755	15597
482.832	16441
482.908	16090
482.985	19957
483.062	21356
483.139	18666
483.216	16408
483.293	17816
483.369	18073
483.446	23893
483.523	17916
483.600	18110
483.676	23116
483.753	26315
483.830	47545
483.906	117327
483.983	59041
484.060	31703
484.136	31401
484.213	27503
484.290	24761
484.366	22535
484.443	23660
484.519	24928
484.596	25399
484.673	33770
484.749	26687
484.826	22860
484.902	24691
484.979	28672
485.055	23633
485.132	23061
485.208	24582
485.285	30331
485.361	50293
485.437	101709
485.514	37589
485.590	27233
485.667	29146
485.743	46300
485.819	86736
485.896	31658
485.972	23468
486.049	23974
486.125	24015
486.201	29283
486.277	32282
486.354	28008
486.430	28247
486.506	31797
486.583	40741
486.659	72769
486.735	46465
486.811	79444
486.887	118826
486.964	202200
487.040	160162
487.116	60999
487.192	26726
487.268	27482
487.344	33367
487.420	37517
487.497	34915
487.573	67340
487.649	160926
487.725	90770
487.801	31351
487.877	29677
487.953	38186
488.029	39063
488.105	30716
488.181	31997
488.257	53757
488.333	136668
488.409	66876
488.485	30581
488.561	29443
488.637	30759
488.712	43604
488.788	55391
488.864	134510
488.940	312040
489.016	284226
489.092	41349
489.168	27253
489.243	23153
489.319	19771
489.395	19585
489.471	20665
489.547	21815
489.622	22490
489.698	30720
489.774	70001
489.849	118213
489.925	28666
490.001	21714
490.076	28355
490.152	55628
490.228	38549
490.303	20181
490.379	18737
490.455	17376
490.530	19107
490.606	21376
490.681	22331
490.757	25427
490.833	33489
490.908	33031
490.984	28446
491.059	25582
491.135	47970
491.210	95440
491.286	28773
491.361	29311
491.436	25602
491.512	30715
491.587	44164
491.663	86203
491.738	222988
491.814	217450
491.889	501501
491.964	150886
492.040	55915
492.115	23671
492.190	25894
492.266	32561
492.341	28601
492.416	24762
492.491	20903
492.567	25668
492.642	43419
492.717	35565
492.792	21185
492.868	23118
492.943	23199
493.018	28347
493.093	43298
493.168	127318
493.243	372783
493.318	93745
493.394	22705
493.469	19410
493.544	23044
493.619	37868
493.694	60677
493.769	46714
493.844	26488
493.919	18474
493.994	20256
494.069	18556
494.144	16822
494.219	16439
494.294	17053
494.369	18968
494.444	23211
494.519	25163
494.594	17716
494.669	20546
494.744	19562
494.818	20947
494.893	20056
494.968	19351
495.043	20703
495.118	23337
495.193	25413
495.267	33545
495.342	44227
495.417	59708
495.492	152210
495.566	622411
495.641	519190
495.716	48856
495.791	25872
495.865	23405
495.940	21269
496.015	21984
496.089	23224
496.164	21478
496.239	22104
496.313	28711
496.388	31601
496.462	47749
496.537	26614
496.612	28071
496.686	33710
496.761	26499
496.835	27766
496.910	26856
496.984	23226
497.059	26225
497.133	37647
497.208	31640
497.282	29614
497.357	44524
497.431	35451
497.505	31045
497.580	42191
497.654	63604
497.729	61823
497.803	65203
497.877	106400
497.952	378777
498.026	962921
498.100	162601
498.175	83197
498.249	69316
498.323	55567
498.397	65247
498.472	39679
498.546	35674
498.620	40719
498.694	59029
498.768	92119
498.843	135864
498.917	578921
498.991	473071
499.065	37375
499.139	26955
499.213	34001
499.287	36355
499.362	30418
499.436	32144
499.510	44880
499.584	56324
499.658	69650
499.732	251019
499.806	608260
499.880	81709
499.954	72662
500.028	80846
500.102	45599
500.176	31709
500.250	34916
500.324	50996
500.397	111957
500.471	203027
500.545	447172
500.619	207134
500.693	31047
500.767	31100
500.841	35266
500.914	28582
500.988	46969
501.062	81323
501.136	93265
501.210	237066
501.283	470182
501.357	93779
501.431	102906
501.505	79675
501.578	25169
501.652	36486
501.726	44694
501.799	99565
501.873	142482
501.947	33129
502.020	48856
502.094	135337
502.167	123486
502.241	42583
502.315	124276
502.388	100784
502.462	42314
502.535	29145
502.609	28923
502.682	25257
502.756	14813
502.829	16793
502.903	16123
502.976	18386
503.050	18584
503.123	20109
503.196	23318
503.270	30606
503.343	60565
503.417	223670
503.490	251542
503.563	61807
503.637	86725
503.710	133121
503.783	89309
503.857	166303
503.930	72905
504.003	92452
504.076	49881
504.150	24045
504.223	26905
504.296	20051
504.369	17052
504.443	15550
504.516	15958
504.589	15391
504.662	21533
504.735	24148
504.808	51222
504.881	34726
504.954	22492
505.028	37114
505.101	26154
505.174	23408
505.247	16193
505.320	15403
505.393	15566
505.466	18612
505.539	15738
505.612	14107
505.685	11838
505.758	14976
505.831	13213
505.904	17012
505.977	16597
506.049	25619
506.122	23469
506.195	33741
506.268	125733
506.341	170588
506.414	31955
506.487	21653
506.559	16956
506.632	19784
506.705	35838
506.778	28068
506.851	15821
506.923	16181
506.996	27454
507.069	22107
507.141	16829
507.214	17387
507.287	32378
507.360	27694
507.432	16040
507.505	17006
507.577	13419
507.650	17806
507.723	29857
507.795	37324
507.868	18528
507.940	13745
508.013	13572
508.086	12716
508.158	24058
508.231	18545
508.303	13669
508.376	15368
508.448	14101
508.520	20765
508.593	21516
508.665	12430
508.738	13112
508.810	12417
508.883	17127
508.955	17409
509.027	11029
509.100	11798
509.172	10653
509.244	11546
509.317	10977
509.389	13741
509.461	15056
509.534	22350
509.606	19196
509.678	24670
509.750	27351
509.822	14589
509.895	13279
509.967	12286
510.039	13012
510.111	16228
510.183	15104
510.255	13611
510.328	13323
510.400	13439
510.472	13865
510.544	21659
510.616	34642
510.688	15541
510.760	17976
510.832	24219
510.904	31125
510.976	14016
511.048	13298
511.120	17191
511.192	31251
511.264	15114
511.336	12725
511.408	13949
511.480	13035
511.552	11875
511.624	12685
511.695	12819
511.767	14108
511.839	25321
511.911	38419
511.983	16733
512.055	15764
512.126	16526
512.198	24725
512.270	22968
512.342	27941
512.414	22993
512.485	17470
512.557	20416
512.629	17621
512.700	13966
512.772	17843
512.844	13546
512.915	14416
512.987	19428
513.059	19251
513.130	30138
513.202	52374
513.273	29022
513.345	16147
513.416	16224
513.488	17408
513.560	27449
513.631	27105
513.703	34987
513.774	110394
513.845	60768
513.917	15987
513.988	17402
514.060	23300
514.131	29131
514.203	18890
514.274	14324
514.345	27301
514.417	37457
514.488	15850
514.560	26627
514.631	32519
514.702	21378
514.773	20084
514.845	17343
514.916	20871
514.987	20350
515.059	34224
515.130	17708
515.201	18379
515.272	18803
515.343	14627
515.414	13947
515.486	13352
515.557	14400
515.628	12758
515.699	16452
515.770	18238
515.841	18236
515.912	19564
515.983	23475
516.055	38486
516.126	44760
516.197	36294
516.268	39848
516.339	56751
516.410	82460
516.481	167311
516.552	689038
516.622	819999
516.693	93879
516.764	84103
516.835	85887
516.906	121617
516.977	232244
517.048	580115
517.119	2071293
517.190	636937
517.260	150072
517.331	38570
517.402	34020
517.473	29358
517.544	30243
517.614	35244
517.685	37368
517.756	48267
517.827	61966
517.897	84981
517.968	130990
518.039	196545
518.109	452533
518.180	1988865
518.250	2138914
518.321	180821
518.392	58250
518.462	47252
518.533	39239
518.603	41236
518.674	60320
518.745	87623
518.815	45811
518.886	37311
518.956	62083
519.027	103164
519.097	161571
519.168	169884
519.238	34150
519.309	39732
519.379	48432
519.449	25341
519.520	16931
519.590	14641
519.660	15704
519.731	19773
519.801	14889
519.871	15028
519.942	18651
520.012	19370
520.082	30470
520.153	16238
520.223	12478
520.293	18218
520.363	13169
520.434	22105
520.504	19964
520.574	17367
520.644	25968
520.714	40071
520.784	37712
520.855	125701
520.925	138382
520.995	18049
521.065	15899
521.135	14221
521.205	12949
521.275	14930
521.345	23574
521.415	26670
521.485	33692
521.555	21921
521.625	21448
521.695	12217
521.765	15124
521.835	18506
521.905	12403
521.975	13435
522.045	14224
522.115	21832
522.185	26833
522.254	45865
522.324	60813
522.394	37159
522.464	49311
522.534	169049
522.603	155750
522.673	21385
522.743	17170
522.813	24817
522.883	24829
522.952	20335
523.022	27140
523.092	69267
523.161	179686
523.231	35347
523.301	14079
523.370	13986
523.440	11794
523.509	10829
523.579	10398
523.649	11587
523.718	15694
523.788	10447
523.857	10543
523.927	11484
523.996	12476
524.066	13916
524.135	18071
524.205	10876
524.274	10357
524.344	9961
524.413	11376
524.483	12989
524.552	15623
524.621	11112
524.691	10977
524.760	10515
524.830	10398
524.899	17966
524.968	15565
525.038	14000
525.107	13244
525.176	11479
525.245	11903
525.315	10717
525.384	11666
525.453	14216
525.522	10545
525.591	10859
525.661	12527
525.730	14068
525.799	18277
525.868	25512
525.937	31714
526.006	76842
526.076	112714
526.145	53384
526.214	57684
526.283	89476
526.352	89188
526.421	186169
526.490	111964
526.559	76638
526.628	50842
526.697	85860
526.766	302649
526.835	558121
526.904	363269
526.973	45375
527.042	18772
527.110	17101
527.179	25867
527.248	13399
527.317	13100
527.386	11423
527.455	10810
527.523	8209
527.592	10200
527.661	8428
527.730	10646
527.799	10972
527.867	10492
527.936	14417
528.005	28400
528.074	31476
528.142	22917
528.211	54940
528.280	25983
528.348	11735
528.417	8595
528.485	8050
528.554	8287
528.623	7480
528.691	9162
528.760	8359
528.828	8315
528.897	7428
528.965	7705
529.034	8037
529.102	7821
529.171	8744
529.239	9123
529.308	8816
529.376	9366
529.445	13289
529.513	10080
529.581	15940
529.650	13994
529.718	14072
529.786	8945
529.855	9794
529.923	9421
529.992	11725
530.060	21464
530.128	20573
530.196	10526
530.265	8662
530.333	6483
530.401	8228
530.469	7102
530.537	9268
530.606	10291
530.674	8001
530.742	8492
530.810	8225
530.878	7054
530.946	8764
531.014	8086
531.083	9318
531.151	6939
531.219	7924
531.287	8349
531.355	8382
531.423	9571
531.491	10072
531.559	9450
531.627	8090
531.695	9597
531.763	9478
531.831	9910
531.898	10572
531.966	12362
532.034	14181
532.102	16363
532.170	24303
532.238	64152
532.306	85528
532.374	24001
532.441	24712
532.509	32981
532.577	68884
532.645	279477
532.712	173114
532.780	21299
532.848	12609
532.916	10549
532.983	9173
533.051	9730
533.119	11487
533.186	11707
533.254	9012
533.322	8990
533.389	9259
533.457	9450
533.524	11789
533.592	11079
533.659	10953
533.727	11517
533.794	20807
533.862	37516
533.930	36322
533.997	30589
534.064	10559
534.132	11315
534.199	10971
534.267	10737
534.334	10264
534.402	9285
534.469	9822
534.536	10565
534.604	11188
534.671	13850
534.738	27266
534.806	69383
534.873	23276
534.940	11066
535.008	10813
535.075	8698
535.142	10629
535.209	12302
535.276	9226
535.344	7889
535.411	7721
535.478	7684
535.545	8167
535.612	9263
535.679	9948
535.747	9828
535.814	10127
535.881	10872
535.948	11279
536.015	11133
536.082	10385
536.149	13170
536.216	14427
536.283	21919
536.350	32254
536.417	20238
536.484	21224
536.551	30210
536.618	36317
536.685	21959
536.752	25376
536.818	48712
536.885	51781
536.952	82856
537.019	190286
537.086	27428
537.153	10264
537.219	11767
537.286	8308
537.353	7798
537.420	6645
537.487	10112
537.553	10995
537.620	10705
537.687	8712
537.753	8592
537.820	10822
537.887	11573
537.953	11151
538.020	13206
538.087	19587
538.153	44551
538.220	48784
538.286	14537
538.353	10620
538.419	8404
538.486	8470
538.553	9247
538.619	7862
538.685	9567
538.752	12216
538.818	14644
538.885	11638
538.951	11426
539.018	12515
539.084	12872
539.150	21292
539.217	22449
539.283	10755
539.350	13089
539.416	15595
539.482	25980
539.549	81406
539.615	62338
539.681	12800
539.747	11604
539.814	12561
539.880	16166
539.946	15893
540.012	14549
540.078	15470
540.145	20519
540.211	40347
540.277	64678
540.343	40389
540.409	88140
540.475	77859
540.541	10352
540.607	10796
540.673	9832
540.740	12465
540.806	18547
540.872	18864
540.937	29831
541.004	18207
541.069	10685
541.135	11608
541.201	15284
541.267	19485
541.333	37174
541.399	39517
541.465	14326
541.531	9702
541.597	9932
541.663	8704
541.728	8320
541.794	9718
541.860	8955
541.926	10199
541.992	11249
542.057	13444
542.123	19301
542.189	33021
542.255	55861
542.320	29878
542.386	13424
542.452	11962
542.517	12459
542.583	12145
542.648	15263
542.714	23138
542.780	58790
542.845	110289
542.911	17021
542.976	9528
543.042	10663
543.107	10436
543.173	14220
543.238	20972
543.304	57077
543.369	26643
543.435	9127
543.500	7153
543.566	8988
543.631	7176
543.697	8663
543.762	7703
543.827	7227
543.893	6783
543.958	9315
544.023	8121
544.089	9223
544.154	9283
544.219	10049
544.284	15928
544.350	23901
544.415	22574
544.480	33608
544.545	99799
544.610	38926
544.676	10179
544.741	10299
544.806	9217
544.871	8621
544.936	9386
545.001	9837
545.066	10855
545.132	12772
545.197	14429
545.262	17997
545.327	28620
545.392	63910
545.457	56752
545.522	11284
545.587	10896
545.652	9160
545.717	9325
545.781	8650
545.846	9019
545.911	11004
545.976	11206
546.041	10966
546.106	15941
546.171	21080
546.236	15073
546.300	10616
546.365	8501
546.430	10770
546.495	11588
546.559	11346
546.624	8604
546.689	9600
546.754	8978
546.818	9487
546.883	9919
546.948	11478
547.012	11764
547.077	13150
547.142	13811
547.206	15336
547.271	18745
547.335	13951
547.400	13514
547.464	18389
547.529	22655
547.594	17450
547.658	15865
547.722	11443
547.787	11465
547.852	12523
547.916	14322
547.980	19511
548.045	19184
548.109	11550
548.174	11902
548.238	12631
548.302	10353
548.367	11684
548.431	12627
548.495	12145
548.560	13755
548.624	16274
548.688	18391
548.752	14824
548.817	13376
548.881	19096
548.945	12734
549.009	11660
549.073	10754
549.138	11186
549.202	13463
549.266	11844
549.330	11827
549.394	12390
549.458	12975
549.522	14226
549.586	18889
549.650	20793
549.715	14347
549.779	12370
549.843	13916
549.907	14448
549.971	17639
550.034	19217
550.098	14038
550.162	15061
550.226	17306
550.290	17047
550.354	13282
550.418	16130
550.482	17906
550.546	27014
550.609	18251
550.673	16050
550.737	16463
550.801	17799
550.865	19383
550.928	22237
550.992	24375
551.056	34794
551.120	53745
551.183	33771
551.247	31807
551.311	56917
551.374	25147
551.438	15651
551.502	14522
551.565	13480
551.629	14091
551.692	14653
551.756	12815
551.819	14878
551.883	14009
551.946	13582
552.010	14189
552.073	14148
552.137	13915
552.200	13802
552.264	14321
552.327	14472
552.391	16204
552.454	17519
552.517	18926
552.581	22182
552.644	31975
552.708	55896
552.771	44654
552.834	22002
552.897	19251
552.961	16975
553.024	14584
553.087	14591
553.151	15995
553.214	16047
553.277	19736
553.340	27265
553.403	61761
553.466	34521
553.530	14791
553.593	13941
553.656	14411
553.719	13755
553.782	13752
553.845	13226
553.908	11962
553.971	13474
554.034	12898
554.097	12812
554.160	14458
554.223	15283
554.286	13417
554.349	14141
554.412	12414
554.475	13112
554.538	14130
554.601	12961
554.664	12455
554.727	11744
554.789	10494
554.852	11083
554.915	11092
554.978	12252
555.041	10600
555.104	11782
555.166	12763
555.229	12741
555.292	11031
555.354	15420
555.417	11544
555.480	11736
555.542	10352
555.605	11521
555.668	11643
555.730	10167
555.793	9447
555.856	11119
555.918	10623
555.981	10173
556.043	10511
556.106	12224
556.168	12837
556.231	12424
556.293	12094
556.356	13932
556.418	21039
556.481	13418
556.543	11463
556.606	10447
556.668	12953
556.730	14503
556.793	20329
556.855	26059
556.918	12740
556.980	12861
557.042	14699
557.104	26621
557.167	39156
557.229	15144
557.291	9644
557.354	10462
557.416	11560
557.478	16261
557.540	11108
557.602	8259
557.664	9142
557.727	9883
557.789	10213
557.851	10516
557.913	13175
557.975	19852
558.037	40223
558.099	40374
558.161	12676
558.223	13800
558.285	15095
558.347	18792
558.409	25124
558.471	37539
558.533	73703
558.595	70035
558.657	86119
558.719	233704
558.781	202590
558.843	47217
558.905	48378
558.966	18311
559.028	16717
559.090	20321
559.152	28006
559.214	45450
559.275	107604
559.337	151439
559.399	27037
559.461	17133
559.522	21054
559.584	27963
559.646	47439
559.707	115742
559.769	59076
559.831	18980
559.892	21297
559.954	36557
560.015	53174
560.077	26151
560.139	49837
560.200	32608
560.262	10318
560.323	9071
560.385	7936
560.446	7805
560.508	7983
560.569	6823
560.631	7453
560.692	7595
560.753	7999
560.815	7725
560.876	7387
560.937	8476
560.999	8900
561.060	10356
561.122	9799
561.183	10715
561.244	15721
561.305	19133
561.367	32020
561.428	72022
561.489	36546
561.550	9890
561.612	8733
561.673	8588
561.734	8734
561.795	7157
561.856	7214
561.917	8883
561.978	7500
562.039	7960
562.101	8874
562.162	8602
562.223	10016
562.284	13267
562.345	16183
562.406	9161
562.467	7333
562.528	8033
562.589	7575
562.649	7550
562.710	7473
562.771	8897
562.832	8185
562.893	8656
562.954	8241
563.015	8258
563.076	6508
563.136	7802
563.197	6790
563.258	8961
563.319	7901
563.380	8064
563.440	9059
563.501	7578
563.562	8450
563.622	8611
563.683	8737
563.744	9267
563.804	7416
563.865	7510
563.926	7738
563.986	8699
564.047	8260
564.107	8482
564.168	9699
564.229	12871
564.289	19046
564.350	9837
564.410	7214
564.471	7147
564.531	7336
564.591	7039
564.652	7769
564.712	10756
564.773	9590
564.833	8133
564.893	8072
564.954	7792
565.014	7629
565.074	7079
565.135	7923
565.195	6771
565.255	7751
565.316	8465
565.376	9154
565.436	10788
565.496	8764
565.557	7785
565.617	9562
565.677	10120
565.737	16553
565.797	13091
565.857	8565
565.917	10191
565.978	11184
566.038	13742
566.098	19913
566.158	17260
566.218	9852
566.278	9464
566.338	8192
566.398	8379
566.458	8827
566.518	8064
566.578	9534
566.638	9628
566.698	9095
566.757	9411
566.817	8357
566.877	8839
566.937	9894
566.997	9482
567.057	9326
567.116	8517
567.176	9371
567.236	11236
567.296	11171
567.355	12345
567.415	14090
567.475	11762
567.535	8344
567.594	9721
567.654	8962
567.714	10201
567.773	11771
567.833	11932
567.892	14377
567.952	14075
568.012	16377
568.071	19717
568.131	26631
568.190	29868
568.250	25907
568.309	25419
568.369	22341
568.428	22341
568.488	23597
568.547	26686
568.607	30290
568.666	39826
568.725	49772
568.785	44367
568.844	36741
568.903	28311
568.963	22594
569.022	19803
569.081	14846
569.141	13836
569.200	12724
569.259	12346
569.318	10711
569.378	9108
569.437	9202
569.496	9527
569.555	8014
569.614	9336
569.673	8369
569.732	9758
569.792	7856
569.851	8163
569.910	8191
569.969	8813
570.028	10250
570.087	8929
570.146	9517
570.205	8865
570.264	8389
570.323	8138
570.382	8955
570.441	9580
570.500	9237
570.559	7644
570.618	8479
570.676	9768
570.735	10088
570.794	11704
570.853	9364
570.912	8304
570.971	7592
571.029	9152
571.088	8150
571.147	6234
571.206	7647
571.264	7865
571.323	6873
571.382	9384
571.440	6640
571.499	6779
571.558	6214
571.616	6441
571.675	6994
571.733	6101
571.792	5389
571.851	5125
571.909	6451
571.968	5655
572.026	5720
572.085	4887
572.143	5506
572.202	5974
572.260	5248
572.319	5308
572.377	5200
572.435	5508
572.494	5213
572.552	7877
572.611	7479
572.669	5465
572.727	4589
572.786	4232
572.844	5574
572.902	5417
572.960	5027
573.019	6129
573.077	5120
573.135	5571
573.193	4888
573.251	5040
573.310	5411
573.368	4946
573.426	5525
573.484	5276
573.542	4887
573.600	5352
573.658	4604
573.716	5616
573.774	6795
573.832	8301
573.891	6767
573.948	5988
574.006	5540
574.064	5187
574.122	4807
574.180	4748
574.238	5659
574.296	4175
574.354	4235
574.412	4558
574.470	4631
574.528	5406
574.585	4318
574.643	5216
574.701	3981
574.759	4721
574.817	4163
574.874	4671
574.932	3836
574.990	5375
575.047	5533
575.105	5499
575.163	5533
575.221	6059
575.278	5187
575.336	5188
575.393	4133
575.451	5768
575.509	4572
575.566	4454
575.624	4991
575.681	4953
575.739	4718
575.796	5775
575.854	5302
575.911	5357
575.969	6453
576.026	6907
576.083	7021
576.141	9882
576.198	9147
576.256	6244
576.313	5174
576.370	4963
576.428	6998
576.485	6040
576.542	5776
576.599	4433
576.657	4800
576.714	4975
576.771	5502
576.828	4569
576.886	4683
576.943	4425
577.000	4228
577.057	4694
577.114	6123
577.171	5557
577.228	5396
577.286	6243
577.343	6324
577.400	5115
577.457	5160
577.514	4037
577.571	5522
577.628	4802
577.685	4142
577.742	4802
577.799	4555
577.855	5491
577.912	5020
577.969	6359
578.026	5097
578.083	6735
578.140	6708
578.197	6791
578.254	6733
578.310	6489
578.367	6270
578.424	7327
578.481	6178
578.537	5962
578.594	4893
578.651	4123
578.707	4929
578.764	5341
578.821	5079
578.877	6096
578.934	4157
578.991	4742
579.047	5187
579.104	4773
579.160	4520
579.217	4422
579.273	4950
579.330	4759
579.387	3285
579.443	4556
579.499	4166
579.556	5011
579.612	5509
579.669	5700
579.725	5879
579.782	4326
579.838	4742
579.894	6481
579.951	6797
580.007	6712
580.063	8212
580.120	9867
580.176	7946
580.232	6591
580.288	6509
580.345	7202
580.401	6288
580.457	5597
580.513	5719
580.569	5821
580.619	4813
580.625	4695
580.682	4669
580.692	4797
580.738	5442
580.765	5221
580.794	5034
580.838	4347
580.850	4176
580.906	4855
580.911	4858
580.962	5117
580.984	5009
581.018	4902
581.057	5098
581.074	5201
581.130	5795
581.130	5819
581.186	5258
581.203	5181
581.242	5093
581.276	4783
581.298	4583
581.349	4352
581.354	4346
581.410	4333
581.422	4432
581.466	4829
581.494	4700
581.522	4628
581.567	5086
581.577	5209
581.633	3626
581.640	3697
581.689	4381
581.713	4391
581.745	4384
581.786	4132
581.801	4067
581.857	3357
581.859	3367
581.912	3925
581.932	4037
581.968	4330
582.004	4083
582.024	3893
582.077	4127
582.080	4162
582.135	4387
582.150	4233
582.191	3770
582.223	4212
582.247	4647
582.296	3897
582.302	3781
582.358	3824
582.368	3891
582.414	4426
582.441	4680
582.469	4861
582.514	4244
582.525	4135
582.581	4210
582.587	4104
582.636	3278
582.659	3433
582.692	3694
582.732	3621
582.747	3616
582.803	4193
582.805	4171
582.858	4120
582.877	4129
582.914	3963
582.950	4245
582.969	4478
583.023	4522
583.025	4539
583.080	6077
583.095	5709
583.135	4771
583.168	4464
583.191	4230
583.240	3960
583.246	3940
583.302	3523
583.313	3561
583.357	3903
583.385	3676
583.412	3349
583.458	3305
583.468	3320
583.523	3406
583.531	3363
583.578	3467
583.603	3999
583.634	4435
583.676	4043
583.689	3980
583.744	3312
583.748	3295
583.799	3356
583.820	3336
583.854	3037
583.893	3591
583.910	3893
583.965	2638
583.965	2635
584.020	3247
584.038	3193
584.075	3128
584.110	3465
584.130	3604
584.183	3252
584.185	3242
584.240	3602
584.255	3482
584.296	3242
584.328	3354
584.351	3453
584.400	3524
584.406	3540
584.461	3521
584.472	3547
584.516	3725
584.545	3458
584.571	3060
584.617	3188
584.626	3301
584.681	3650
584.689	3723
584.736	3913
584.762	3671
584.791	3342
584.834	3467
584.846	3542
584.900	4125
584.906	4132
584.955	4227
584.978	4191
585.010	4144
585.051	4096
585.065	4121
585.120	4320
585.123	4353
585.175	5079
585.195	5735
585.230	6862
585.267	7198
585.284	7296
585.339	6588
585.340	6581
585.394	7054
585.412	7925
585.449	9638
585.484	11413
585.503	12402
585.556	16077
585.558	16246
585.613	28211
585.628	28988
585.667	31089
585.700	18815
585.722	10999
585.772	7797
585.777	7384
585.831	5450
585.845	5188
585.886	5237
585.917	4805
585.941	4403
585.989	4222
585.995	4197
586.050	4113
586.061	4225
586.104	4963
586.133	4960
586.159	4837
586.205	4179
586.213	4054
586.268	3855
586.277	3927
586.322	4349
586.349	4533
586.377	4788
586.421	5176
586.431	5255
586.486	6221
586.493	6617
586.540	9283
586.565	7420
586.595	5354
586.637	5049
586.649	4793
586.703	3900
586.709	3864
586.758	3839
586.781	3835
586.812	3984
586.853	3833
586.866	3693
586.921	4076
586.925	4067
586.975	3880
586.996	3670
587.029	3577
587.068	3841
587.083	3833
587.138	3499
587.140	3498
587.192	3625
587.212	3776
587.246	4271
587.284	4581
587.300	4606
587.355	5048
587.356	5042
587.409	4539
587.427	4760
587.463	5176
587.499	5364
587.517	5330
587.571	4835
587.571	4828
587.625	5381
587.643	5561
587.679	5696
587.715	5679
587.733	5822
587.786	6636
587.787	6632
587.841	7062
587.858	7221
587.895	7734
587.930	8306
587.949	8726
588.001	9895
588.003	9898
588.057	11184
588.073	11725
588.111	13244
588.145	14688
588.165	15384
588.217	18100
588.219	18215
588.273	22353
588.288	24060
588.327	28130
588.360	32600
588.381	35112
588.431	44155
588.435	44598
588.489	58232
588.503	63032
588.542	74974
588.575	89929
588.596	99498
588.646	134957
588.650	136954
588.704	186289
588.718	206030
588.757	259342
588.789	324215
588.811	367748
588.861	537696
588.865	549684
588.919	522784
588.932	460046
588.972	270923
589.004	215617
589.026	157992
589.075	106367
589.080	102469
589.133	77552
589.147	74205
589.187	74404
589.218	81866
589.241	87657
589.290	110236
589.294	111536
589.348	148321
589.361	163787
589.401	205848
589.433	278444
589.455	329158
589.504	366578
589.508	368115
589.562	188286
589.576	173344
589.615	96416
589.647	74677
589.669	56827
589.718	27055
589.722	26018
589.776	16473
589.790	14917
589.829	13226
589.861	11565
589.883	10471
589.932	8781
589.936	8561
589.989	6813
590.004	6459
590.043	6375
590.075	6243
590.096	5791
590.146	5302
590.149	5240
590.203	4855
590.218	4716
590.256	4269
590.289	3974
590.309	3936
590.360	3820
590.362	3766
590.416	3634
590.431	3656
590.469	3664
590.503	3561
590.522	3237
590.574	2454
590.575	2427
590.629	2695
590.645	2782
590.682	2721
590.716	2701
590.735	2629
590.787	2285
590.788	2254
590.841	2047
590.859	1833
590.894	2101
590.930	2599
590.947	2414
591.000	1743
591.001	1761
591.053	2140
591.072	2288
591.106	2025
591.143	1781
591.159	1949
591.212	2518
591.214	2565
591.265	2228
591.285	2124
591.318	2219
591.356	2289
591.371	2172
591.424	1844
591.427	1855
591.477	1599
591.498	1495
591.530	1651
591.569	1975
591.583	1873
591.636	1522
591.640	1517
591.689	1534
591.711	1601
591.741	1661
591.782	1702
591.794	1529
591.847	857
591.853	819
591.900	1606
591.924	2022
591.953	1951
591.995	1965
592.005	1800
592.058	990
592.066	911
592.111	1269
592.137	1486
592.164	1576
592.208	1833
592.216	1732
592.269	1250
592.279	1189
592.322	1345
592.350	1489
592.374	1213
592.421	782
592.427	812
592.479	1329
592.491	1476
592.532	1427
592.562	1414
592.585	1218
592.633	821
592.704	1098
592.775	996
592.846	881
592.916	718
592.987	212
593.058	1452
593.128	862
593.199	967
593.270	337
593.341	333
593.411	877
593.482	1040
593.553	1365
593.623	278
593.694	976
593.764	1006
593.835	15
593.906	1193
593.976	867
594.047	631
594.117	570
594.188	1416
594.258	703
594.329	1264
594.399	1355
594.470	317
594.540	201
594.611	696
594.681	709
594.751	890
594.822	688
594.892	576
594.963	801
595.033	1132
595.103	139
595.174	1090
595.244	1673
595.314	1692
595.384	1142
595.455	1118
595.525	2156
595.595	1009
595.665	820
595.736	1224
595.806	1467
595.876	641
595.946	1056
596.016	1245
596.087	1194
596.157	684
596.227	1205
596.297	1048
596.367	893
596.437	1646
596.507	1304
596.577	1567
596.647	682
596.717	526
596.787	1016
596.857	1198
596.927	779
596.997	1016
597.067	895
597.137	1768
597.207	1113
597.277	721
597.347	1469
597.417	1334
597.487	1225
597.557	1473
597.626	906
597.696	1951
597.766	1265
597.836	1273
597.906	988
597.975	1924
598.045	275
598.115	1445
598.185	425
598.254	1225
598.324	1934
598.394	1247
598.464	836
598.533	789
598.603	1192
598.672	1306
598.742	806
598.812	1415
598.881	856
598.951	910
599.020	889
599.090	841
599.159	1157
599.229	899
599.299	1037
599.368	650
599.437	1206
599.507	1136
599.576	1287
599.646	1420
599.715	1528
599.785	929
599.854	662
599.924	843
599.993	442
600.062	850
600.132	348
600.201	99
600.270	1382
600.340	1010
600.409	857
600.478	835
600.547	1605
600.617	1166
600.686	754
600.755	849
600.824	343
600.894	734
600.963	634
601.032	546
601.101	830
601.170	1335
601.239	53
601.308	831
601.378	827
601.447	744
601.516	476
601.585	1053
601.654	388
601.723	1510
601.792	711
601.861	279
601.930	1227
601.999	144
602.068	238
602.137	1024
602.206	496
602.275	577
602.343	262
602.412	591
602.481	88
602.550	1022
602.619	827
602.688	1102
602.756	510
602.825	938
602.894	-13
602.963	780
603.032	684
603.100	293
603.169	247
603.238	579
603.307	1195
603.375	1270
603.444	908
603.513	1222
603.581	842
603.650	658
603.719	229
603.787	420
603.856	853
603.924	804
603.993	152
604.061	1071
604.130	783
604.198	1789
604.267	819
604.335	868
604.404	1502
604.472	603
604.541	445
604.609	1659
604.678	-174
604.746	1366
604.815	-33
604.883	1664
604.951	568
605.020	994
605.088	1267
605.156	841
605.225	382
605.293	899
605.361	424
605.429	802
605.498	491
605.566	499
605.634	1626
605.702	386
605.771	1175
605.839	1236
605.907	754
605.975	869
606.043	958
606.111	1062
606.180	740
606.248	1128
606.316	1469
606.384	-165
606.452	977
606.520	1924
606.588	626
606.656	1074
606.724	813
606.792	1027
606.860	850
606.928	595
606.996	271
607.064	260
607.132	307
607.200	622
607.267	1271
607.335	583
607.403	571
607.471	553
607.539	417
607.607	1309
607.674	174
607.742	753
607.810	1070
607.878	734
607.946	332
608.013	344
608.081	1116
608.149	880
608.216	188
608.284	914
608.352	401
608.419	-263
608.487	1247
608.555	443
608.622	901
608.690	330
608.757	1286
608.825	1023
608.893	634
608.960	567
609.028	161
609.095	1885
609.163	-28
609.230	681
609.298	-196
609.365	291
609.432	336
609.500	595
609.567	1331
609.635	1291
609.702	795
609.769	1549
609.837	140
609.904	948
609.971	-442
610.039	1599
610.106	799
610.173	1310
610.241	3862
610.308	2813
610.375	1205
610.442	976
610.509	649
610.577	916
610.644	-12
610.711	447
610.778	594
610.845	198
610.912	682
610.980	788
611.047	495
611.114	820
611.181	893
611.248	263
611.315	1500
611.382	606
611.449	422
611.516	542
611.583	526
611.650	1291
611.717	816
611.784	695
611.851	1262
611.918	1337
611.984	697
612.051	2688
612.118	4217
612.185	8983
612.252	6985
612.319	1887
612.386	558
612.452	1225
612.519	962
612.586	629
612.653	596
612.719	1109
612.786	949
612.853	1182
612.919	356
612.986	1195
613.053	371
613.120	-130
613.186	235
613.253	2162
613.319	720
613.386	558
613.453	161
613.519	47
613.586	491
613.652	1809
613.719	1020
613.785	703
613.852	768
613.918	349
613.985	900
614.051	730
614.118	2202
614.184	1512
614.250	327
614.317	1105
614.383	-84
614.449	1137
614.516	344
614.582	1113
614.648	25
614.715	772
614.781	763
614.847	16
614.914	136
614.980	192
615.046	218
615.112	421
615.179	48
615.245	521
615.311	650
615.377	760
615.443	414
615.509	123
615.575	826
615.642	973
615.708	944
615.774	1558
615.840	1193
615.906	1377
615.972	2062
616.038	2346
616.104	5487
616.170	11795
616.236	11079
616.302	2770
616.368	477
616.434	770
616.500	207
616.565	800
616.631	913
616.697	1128
616.763	678
616.829	1199
616.895	2514
616.961	2174
617.026	847
617.092	76
617.158	966
617.224	415
617.289	311
617.355	626
617.421	383
617.487	930
617.552	-41
617.618	-4
617.684	-340
617.749	1052
617.815	-203
617.880	-74
617.946	176
618.012	48
618.077	-532
618.143	130
618.208	47
618.274	459
618.339	337
618.405	513
618.470	109
618.536	-121
618.601	33
618.667	-275
618.732	-854
618.798	163
618.863	183
618.928	-232
618.994	952
619.059	874
619.124	591
619.190	444
619.255	722
619.320	613
619.386	-449
619.451	-220
619.516	75
619.581	539
619.647	226
619.712	928
619.777	138
619.842	173
619.907	655
619.972	593
620.038	-181
620.103	-273
620.168	-758
620.233	85
620.298	-183
620.363	175
620.428	-280
620.493	-108
620.558	-100
620.623	661
620.688	-979
620.753	457
620.818	-54
620.883	29
620.948	57
621.013	-113
621.078	451
621.143	-82
621.207	1252
621.272	202
621.337	-198
621.402	892
621.467	319
621.532	405
621.596	-48
621.661	939
621.726	-45
621.791	-222
621.855	430
621.920	80
621.985	48
622.049	398
622.114	292
622.179	1324
622.243	58
622.308	675
622.373	649
622.437	-94
622.502	-169
622.566	302
622.631	-820
622.695	1076
622.760	409
622.824	31
622.889	-194
622.953	370
623.018	-27
623.082	655
623.147	-423
623.211	199
623.276	-192
623.340	266
623.404	-453
623.469	855
623.533	-659
623.597	667
623.662	399
623.726	-146
623.790	102
623.854	-547
623.919	59
623.983	-688
624.047	167
624.111	342
624.176	-162
624.240	412
624.304	607
624.368	-732
624.432	441
624.496	204
624.560	-16
624.625	-389
624.689	172
624.753	122
624.817	-83
624.881	518
624.945	358
625.009	-521
625.073	309
625.137	-422
625.201	-192
625.265	623
625.329	-20
625.393	453
625.456	73
625.520	616
625.584	-523
625.648	694
625.712	754
625.776	1215
625.839	1128
625.903	376
625.967	-361
626.031	1385
626.095	421
626.158	519
626.222	-911
626.286	391
626.349	-335
626.413	-385
626.477	-308
626.540	-841
626.604	-674
626.668	471
626.731	-195
626.795	-272
626.858	-423
626.922	-1089
626.986	-327
627.049	-1142
627.113	-381
627.176	297
627.240	-211
627.303	-483
627.366	-181
627.430	-150
627.493	-782
627.557	-449
627.620	87
627.684	-31
627.747	-1013
627.810	-1323
627.874	-244
627.937	-677
628.000	346
628.064	0
628.127	-1169
628.190	-249
628.253	-275
628.317	-33
628.380	230
628.443	-90
628.506	-395
628.569	-1055
628.632	-218
628.696	279
628.759	-589
628.822	-1126
628.885	-382
628.948	-135
629.011	-948
629.074	-594
629.137	-463
629.200	-257
629.263	208
629.326	-1057
629.389	206
629.452	-953
629.515	-421
629.578	-440
629.641	-1086
629.704	-859
629.767	-1502
629.830	422
629.892	-795
629.955	-954
630.018	227
630.081	-1233
630.144	-15
630.207	-1143
630.269	34
630.332	-739
630.395	-1281
630.458	-117
630.520	-1093
630.583	-328
630.646	-1013
630.708	-73
630.771	-1276
630.834	-66
630.896	-1065
630.959	-679
631.021	-1424
631.084	-1033
631.146	-991
631.209	-257
631.272	-605
631.334	-199
631.397	-808
631.459	-225
631.522	-1464
631.584	-1321
631.646	-896
631.709	-263
631.771	-1289
631.834	-252
631.896	-801
631.958	-154
632.021	-11
632.083	-671
632.145	-661
632.208	-828
632.270	-453
632.332	-1116
632.395	-1733
632.457	-347
632.519	-903
632.581	308
632.643	-1745
632.706	-631
632.768	-806
632.830	-873
632.892	-224
632.954	-1190
633.016	-2
633.078	-898
633.141	-1525
633.203	-975
633.265	-1665
633.327	-532
633.389	-988
633.451	-385
633.513	-302
633.575	-728
633.637	-1089
633.698	-1310
633.760	-530
633.822	-543
633.884	-1108
633.946	-1452
634.008	-1293
634.070	-567
634.132	-1233
634.193	-867
634.255	-1288
634.317	-1173
634.379	-1194
634.441	-687
634.502	-598
634.564	-822
634.626	-856
634.687	-364
634.749	-600
634.811	-1231
634.873	-257
634.934	-443
634.996	-775
635.057	-1463
635.119	-1737
635.181	-1351
635.242	-435
635.304	-1499
635.365	-25
635.427	-1278
635.488	-1394
635.550	-35
635.611	-982
635.673	-1361
635.734	350
635.796	-1082
635.857	-464
635.918	-1111
635.980	-944
636.041	-1089
636.102	-777
636.164	-1138
636.225	-426
636.286	-1070
636.348	-1235
636.409	-1381
636.470	-735
636.531	-781
636.593	-1569
636.654	135
636.715	-667
636.776	-658
636.838	-1084
636.899	-431
636.960	-739
637.021	-936
637.082	-1778
637.143	-343
637.204	-1620
637.265	-1146
637.326	-297
637.387	-672
637.448	-1815
637.509	-495
637.570	-314
637.631	-520
637.692	-1022
637.753	-1674
637.814	-1076
637.875	-1241
637.936	559
637.997	-991
638.058	-1515
638.119	-1346
638.179	-1442
638.240	-1881
638.301	-790
638.362	-1751
638.423	-1506
638.483	-413
638.544	-2049
638.605	-679
638.666	-2017
638.726	-301
638.787	-676
638.848	-1477
638.908	-1581
638.969	-1456
639.030	-932
639.090	-1733
639.151	-2105
639.211	-876
639.272	-944
639.332	-812
639.393	-479
639.453	-1242
639.514	-652
639.574	-679
639.635	-1609
639.695	-770
639.756	-1412
639.816	-418
639.877	-913
639.937	-422
639.997	-1177
640.058	-1333
640.118	-990
640.178	-1383
640.239	-1155
640.299	-1091
640.359	-1340
640.420	-1045
640.480	-1066
640.540	-1369
640.600	-1436
640.661	-1146
640.721	-2250
640.781	465
640.841	-1615
640.901	-587
640.961	-1406
641.021	-461
641.082	-2112
641.142	-638
641.202	-846
641.262	-1451
641.322	-998
641.382	-1321
641.442	-591
641.502	-987
641.562	-1051
641.622	-1110
641.682	-1366
641.742	-105
641.802	-1122
641.861	-1322
641.921	-1400
641.981	-789
642.041	-586
642.101	-1380
642.161	-1978
642.221	-1608
642.280	-1040
642.340	-1387
642.400	-1848
642.460	-375
642.519	-1344
642.579	-1478
642.639	-1533
642.698	-2448
642.758	589
642.818	-1486
642.877	-979
642.937	-1578
642.997	-1746
643.056	-699
643.116	-2437
643.175	-81
643.235	-1502
643.294	-1728
643.354	-1125
643.414	-1355
643.473	-1070
643.532	-1369
643.592	-761
643.651	-1060
643.711	97
643.770	694
643.830	736
643.889	4285
643.948	937
644.008	-755
644.067	-1466
644.126	-1714
644.186	-1342
644.245	-624
644.304	-2169
644.363	297
644.423	-1736
644.482	-462
644.541	-534
644.600	-2232
644.659	-975
644.719	-2446
644.778	-1647
644.837	-1887
644.896	-1171
644.955	29
645.014	-1809
645.073	-1184
645.132	-1799
645.191	-1403
645.250	-2180
645.309	8
645.368	-1542
645.427	-1106
645.486	-2130
645.545	-763
645.604	-1480
645.663	-1110
645.722	-1835
645.781	-808
645.840	-1264
645.898	-899
645.957	-610
646.016	-1507
646.075	-898
646.134	-613
646.192	1380
646.251	2829
646.310	-361
646.369	-1610
646.427	-863
646.486	-1807
646.545	-1167
646.603	-560
646.662	-1494
646.721	-733
646.779	-1261
646.838	-1462
646.896	-887
646.955	-1589
647.014	-1243
647.072	-1231
647.131	-1071
647.189	-1513
647.248	-1429
647.306	-460
647.365	-916
647.423	-2000
647.481	-158
647.540	-2838
647.598	-1237
647.657	-765
647.715	-1217
647.773	-1843
647.832	-718
647.890	-1938
647.948	-1950
648.007	-369
648.065	-2352
648.123	-1729
648.181	-1037
648.240	-1357
648.298	-1614
648.356	-1167
648.414	-1571
648.472	-1339
648.531	-1275
648.589	-1514
648.647	-1870
648.705	-1526
648.763	-1353
648.821	-1657
648.879	-1444
648.937	-1258
648.995	-642
649.053	-2305
649.111	-912
649.169	-1872
649.227	-740
649.285	-1158
649.343	-301
649.401	378
649.459	-387
649.516	-306
649.574	-3172
649.632	-263
649.690	-765
649.748	-726
649.806	-2519
649.863	-696
649.921	-848
649.979	-1604
650.037	-962
650.094	-2648
650.152	-1035
650.210	-1458
650.268	-884
650.325	-1062
650.383	-1645
650.440	-1749
650.498	-426
650.556	-983
650.613	-2092
650.671	-941
650.728	-1696
650.786	-1520
650.843	-2227
650.901	-2013
650.958	-1154
651.016	-1375
651.073	-1309
651.131	-956
651.188	-2369
651.246	-1150
651.303	-2837
651.360	-1621
651.418	-1290
651.475	-917
651.532	-2617
651.590	-1294
651.647	-1994
651.704	-1484
651.762	-1697
651.819	-1579
651.876	-1450
651.933	-1004
651.990	-1416
652.048	-2379
652.105	-2099
652.162	-576
652.219	-1251
652.276	-979
652.333	-1709
652.390	-2351
652.448	-1387
652.505	-2038
652.562	-1100
652.619	-1583
652.676	-2075
652.733	-1051
652.790	-1423
652.847	-1417
652.904	-1134
652.961	-2110
653.017	-1982
653.074	-1228
653.131	-927
653.188	-2650
653.245	-1944
653.302	-1606
653.359	-2434
653.415	-1101
653.472	-1617
653.529	-1049
653.586	-1764
653.642	-2179
653.699	-1251
653.756	-2366
653.813	-1524
653.869	-831
653.926	-1278
653.983	-1882
654.039	-1381
654.096	-1131
654.152	-968
654.209	-1604
654.266	-1134
654.322	-2535
654.379	-1388
654.435	-1543
654.492	-1299
654.548	-1686
654.605	-1683
654.661	-1078
654.717	-2520
654.774	-1590
654.830	-1666
654.887	-1747
654.943	-1553
655.000	-1339
655.056	-2080
655.112	-1669
655.168	-2343
655.225	-575
655.281	-1409
655.337	-2236
655.394	-2277
655.450	-1548
655.506	-1590
655.562	-1682
655.618	-583
655.675	-2486
655.731	-1043
655.787	-1343
655.843	-1205
655.899	-2230
655.955	-1669
656.011	-1102
656.067	-2649
656.123	-406
656.179	-966
656.235	-1166
656.291	-2046
656.347	-967
656.403	-2321
656.459	-1408
656.515	-2941
656.571	-720
656.627	-1401
656.683	-2154
656.739	-753
656.795	-756
656.850	-2348
656.906	-831
656.962	-474
657.018	-2143
657.074	-1710
657.129	-1266
657.185	-881
657.241	-1060
657.297	-2586
657.352	-876
657.408	-1851
657.464	-790
657.519	-2323
657.575	-2426
657.630	-1514
657.686	-909
657.742	-2217
657.797	-1116
657.853	-1250
657.908	-850
657.964	-2036
658.019	-1856
658.075	-1353
658.130	-1471
658.186	-1945
658.241	-1462
658.297	-2046
658.352	-2341
658.407	-1337
658.463	-2159
658.518	-1483
658.573	-1438
658.629	-1848
658.684	-1479
658.739	-1220
658.795	-2060
658.850	-807
658.905	-2223
658.960	-1192
659.016	-1643
659.071	-1434
659.126	-1214
659.181	-2311
659.236	-355
659.291	-1054
659.346	-1520
659.401	-1348
659.457	-900
659.512	-2142
659.567	-875
659.622	-1482
659.677	-1876
659.732	-2025
659.787	-912
659.842	-1714
659.897	-1117
659.952	-1857
660.007	-865
660.061	-2043
660.116	-1664
660.171	-2191
660.226	-1825
660.281	-636
660.336	-2077
660.391	-1029
660.445	-1878
660.500	-2139
660.555	-1812
660.610	-2202
660.664	-973
660.719	-1131
660.774	-1654
660.828	-1685
660.883	-1059
660.938	-1503
660.992	-1915
661.047	-1061
661.101	-1197
661.156	-946
661.211	-1134
661.265	-2897
661.320	-1514
661.374	-1567
661.429	-2047
661.483	-1217
661.538	-1759
661.592	-2041
661.647	-1395
661.701	-1423
661.755	-1586
661.810	-1857
661.864	-2349
661.919	-2650
661.973	-1395
662.027	-1109
662.081	-2057
662.136	-1856
662.190	-1529
662.244	-513
662.299	-1793
662.353	-1370
662.407	-1416
662.461	-2635
662.515	-1577
662.569	-2818
662.624	-647
662.678	-1710
662.732	-1063
662.786	-1925
662.840	-1157
662.894	-1171
662.948	-1424
663.002	-1333
663.056	-1045
663.110	-1773
663.164	-1693
663.218	-1699
663.272	-1830
663.326	-2450
663.380	-2101
663.434	-975
663.488	-2318
663.542	-1026
663.595	-1742
663.649	-2135
663.703	-644
663.757	-1377
663.811	-2477
663.864	-1864
663.918	-1346
663.972	-1501
664.026	-1416
664.079	-1497
664.133	-720
664.187	-1365
664.240	-2029
664.294	-1124
664.348	-1285
664.401	-1587
664.455	-1346
664.508	-2578
664.562	-2287
664.615	-1384
664.669	-1467
664.722	-1350
664.776	-2508
664.829	-1926
664.883	-1895
664.936	-2638
664.990	-1775
665.043	-1221
665.097	-2672
665.150	-1441
665.203	-1781
665.257	-2440
665.310	-1410
665.363	-2242
665.417	-1339
665.470	-1307
665.523	-1905
665.576	-1105
665.630	-1391
665.683	-1472
665.736	-1515
665.789	-1393
665.842	-1946
665.895	-2304
665.949	-1139
666.002	-1622
666.055	-832
666.108	-1769
666.161	-1760
666.214	-1735
666.267	-1593
666.320	-1591
666.373	-985
666.426	-2077
666.479	-2316
666.532	-1908
666.585	-1766
666.638	-1444
666.691	-1934
666.744	-1077
666.796	-1953
666.849	-1824
666.902	-1515
666.955	-2047
667.008	-2243
667.060	-1604
667.113	-1595
667.166	-1683
667.219	-1423
667.271	-2207
667.324	-2269
667.377	-2610
667.430	-1929
667.482	-1600
667.535	-1133
667.587	-1471
667.640	-1670
667.693	-3292
667.745	-2124
667.798	-1213
667.850	-1131
667.903	-2044
667.955	-1762
668.008	-2169
668.060	-1103
668.113	-2343
668.165	-1770
668.218	-2550
668.270	-1775
668.322	-2015
668.375	-1474
668.427	-1403
668.479	-2515
668.532	-1424
668.584	-1883
668.636	-1464
668.689	-1246
668.741	-2319
668.793	-1291
668.845	-1964
668.898	-750
668.950	-1682
669.002	-1682
669.054	-1745
669.106	-2406
669.158	-1443
669.211	-2028
669.263	-1640
669.315	-1178
669.367	-2448
669.419	-3009
669.471	-1894
669.523	-1101
669.575	-1403
669.627	-2003
669.679	-1617
669.731	-1271
669.783	-1256
669.835	-931
669.886	-1417
669.938	-954
669.990	-1753
670.042	-1692
670.094	-1762
670.146	-1577
670.197	-1702
670.249	-1331
670.301	-2002
670.353	-1038
670.404	-1805
670.456	-1522
670.508	-1677
670.560	-622
670.611	-531
670.663	754
670.715	2577
670.766	6652
670.818	4417
670.869	-983
670.921	-1154
670.972	-311
671.024	-1823
671.075	-1695
671.127	-1505
671.178	-1322
671.230	-1903
671.281	-811
671.333	-2085
671.384	-2278
671.436	-2320
671.487	-1265
671.538	-1627
671.590	-1673
671.641	-1308
671.692	-2128
671.744	-1670
671.795	-1266
671.846	-1674
671.897	-1350
671.949	-2968
672.000	-1881
672.051	-2279
672.102	-1147
672.153	-2805
672.204	-1558
672.256	-1443
672.307	-2368
672.358	-1789
672.409	-1497
672.460	-1488
672.511	-2330
672.562	-2792
672.613	-2095
672.664	-2552
672.715	-1692
672.766	-1422
672.817	-1312
672.868	-1988
672.919	-987
672.970	-2491
673.021	-2213
673.071	-2723
673.122	-1738
673.173	-600
673.224	-1812
673.275	-1109
673.326	-1446
673.376	-1827
673.427	-2484
673.478	-1936
673.528	-1937
673.579	-2277
673.630	-1766
673.680	-2032
673.731	-1408
673.782	-1963
673.832	-1237
673.883	-2398
673.934	-1969
673.984	-1797
674.035	-1862
674.085	-1030
674.136	-1328
674.186	-1983
674.237	-946
674.287	-1578
674.338	-1526
674.388	-1998
674.438	-2261
674.489	-2120
674.539	-1810
674.589	-1737
674.640	-1829
674.690	-2402
674.740	-1931
674.791	-2282
674.841	-1036
674.891	-1520
674.942	-1504
674.992	-1627
675.042	-2637
675.092	-2279
675.142	-2527
675.193	-1842
675.243	-2110
675.293	-2362
675.343	-1711
675.393	-1985
675.443	-1252
675.493	-637
675.543	-1758
675.593	-1381
675.643	-1499
675.693	-1915
675.743	-2210
675.793	-2013
675.843	-1779
675.893	-1992
675.943	-1743
675.993	-1584
676.043	-1403
676.093	-946
676.142	-1808
676.192	-2078
676.242	-2493
676.292	-2404
676.341	-2084
676.391	-2460
676.441	-2148
676.491	-2146
676.540	-2397
676.590	-2217
676.640	-1332
676.689	-1924
676.739	-2471
676.789	-2438
676.838	-1580
676.888	-2065
676.937	-1645
676.987	-2213
677.037	-2271
677.086	-2202
677.136	-1946
677.185	-1942
677.235	-2317
677.284	-2196
677.333	-1424
677.383	-2329
677.432	-2285
677.482	-1952
677.531	-1385
677.580	-2867
677.630	-2354
677.679	-1508
677.728	-2025
677.778	-2126
677.827	-1869
677.876	-1959
677.925	-1653
677.975	-2601
678.024	-1894
678.073	-2122
678.122	-1873
678.171	-2084
678.220	-1850
678.269	-1614
678.319	-2132
678.368	-2553
678.417	-1971
678.466	-2059
678.515	-1740
678.564	-2359
678.613	-1867
678.662	-2525
678.711	-1655
678.760	-1904
678.809	-1781
678.857	-1517
678.906	-2194
678.955	-2409
679.004	-1080
679.053	-2285
679.102	-2130
679.151	-2776
679.199	-1733
679.248	-2775
679.297	-1795
679.346	-2672
679.394	-2383
679.443	-2506
679.492	-1480
679.540	-1918
679.589	-1688
679.638	-2729
679.686	-1719
679.735	-1630
679.784	-1657
679.832	-2016
679.881	-2375
679.929	-2073
679.978	-1499
680.026	-2089
680.075	-1978
680.123	-2312
680.172	-1998
680.220	-2167
680.268	-1517
680.317	-2226
680.365	-2314
680.414	-2486
680.462	-2137
680.510	-1668
680.559	-1957
680.607	-2078
680.655	-2125
680.703	-2726
680.752	-1400
680.800	-2333
680.848	-1927
680.896	-2350
680.945	-2324
680.993	-2453
681.041	-1368
681.089	-2481
681.137	-2062
681.185	-1746
681.233	-1940
681.281	-2260
681.308	-2084
681.329	-1949
681.377	-2222
681.425	-1518
681.430	-1531
681.473	-1722
681.521	-2139
681.552	-1573
681.569	-1262
681.617	-1831
681.665	-1832
681.674	-1885
681.713	-2167
681.761	-2231
681.796	-2324
681.809	-2366
681.857	-2112
681.904	-1762
681.918	-1569
681.952	-1068
682.000	-2461
682.039	-2373
682.048	-2362
682.096	-2042
682.143	-1687
682.161	-1498
682.191	-1197
682.239	-1096
682.283	-1543
682.286	-1584
682.334	-1781
682.382	-1984
682.405	-1931
682.430	-1881
682.477	-2202
682.525	-1756
682.527	-1750
682.572	-1721
682.620	-1862
682.648	-1798
682.667	-1761
682.715	-1499
682.763	-1083
682.770	-1196
682.810	-1791
682.857	-1334
682.892	-1783
682.905	-1961
682.952	-1263
683.000	-1507
683.014	-1551
683.047	-1669
683.095	-1217
683.135	-1586
683.142	-1650
683.190	-1957
683.237	-1257
683.257	-1421
683.284	-1641
683.332	-1610
683.379	-1774
683.379	-1771
683.426	-1751
683.473	-1243
683.501	-1216
683.521	-1173
683.568	-1943
683.615	-1208
683.622	-1134
683.662	-796
683.709	-895
683.744	-1515
683.757	-1756
683.804	-1021
683.851	-928
683.865	-1153
683.898	-1613
683.945	-1798
683.987	-1156
683.992	-1078
684.039	-1452
684.086	-1393
684.109	-1300
684.133	-1217
684.180	-900
684.227	-877
684.230	-901
684.274	-1269
684.321	-1478
684.352	-1348
684.368	-1275
684.415	-1286
684.462	-1122
684.473	-1131
684.509	-1162
684.556	-970
684.595	-1513
684.603	-1625
684.649	-1296
684.696	-1410
684.716	-1335
684.743	-1226
684.790	-1236
684.837	-1753
684.838	-1743
684.883	-1343
684.930	-1352
684.959	-1194
684.977	-1116
685.023	-911
685.070	-984
685.081	-901
685.117	-672
685.164	-1083
685.202	-1087
685.210	-1067
685.257	-777
685.303	-528
685.324	-728
685.350	-1041
685.396	-774
685.443	-1126
685.445	-1104
685.490	-517
685.536	-1308
685.566	-866
685.583	-635
685.629	-715
685.675	-430
685.688	-606
685.722	-1151
685.768	-999
685.809	-1075
685.815	-1074
685.861	-579
685.908	-633
685.930	-956
685.954	-1267
686.000	-1195
686.047	-895
686.052	-894
686.093	-911
686.139	-461
686.173	-420
686.185	-393
686.232	-766
686.278	-410
686.294	-594
686.324	-914
686.370	-650
686.416	-464
686.416	-459
686.463	-676
686.509	-1007
686.537	-741
686.555	-536
686.601	-702
686.647	-426
686.658	-414
686.693	-422
686.739	-903
686.779	-823
686.785	-801
686.831	-622
686.877	-269
686.900	-319
686.923	-391
686.969	-563
687.015	-613
687.022	-659
687.061	-918
687.107	-999
687.143	-557
687.153	-409
687.199	121
687.245	-998
687.264	-700
687.291	-330
687.336	-550
687.382	-814
687.385	-820
687.428	-772
687.474	-993
687.506	-852
687.520	-819
687.565	-459
687.611	-748
687.627	-876
687.657	-1027
687.702	-1066
687.748	-656
687.748	-659
687.794	-366
687.839	-561
687.869	-396
687.885	-330
687.931	-403
687.976	33
687.990	-22
688.022	-220
688.067	148
688.111	-257
688.113	-262
688.158	-131
688.204	-347
688.233	-417
688.249	-420
688.295	-728
688.340	-304
688.354	-241
688.386	-109
688.431	-368
688.474	-319
688.477	-306
688.522	246
688.567	-220
688.595	-5
688.613	122
688.658	-240
688.703	180
688.716	132
688.749	-157
688.794	125
688.837	-835
688.839	-851
688.884	-124
688.930	-296
688.958	-81
688.975	-9
689.020	-272
689.065	252
689.079	46
689.110	-379
689.155	-332
689.200	96
689.201	108
689.246	-205
689.291	169
689.321	-34
689.336	-116
689.381	-189
689.426	111
689.442	-63
689.471	-223
689.516	207
689.561	544
689.562	531
689.606	121
689.651	-302
689.683	-244
689.696	-178
689.741	88
689.785	399
689.804	81
689.830	-268
689.875	194
689.920	-113
689.925	-62
689.965	235
690.010	-2
690.046	133
690.054	179
690.099	-302
690.144	-544
690.166	-538
690.189	-402
690.233	-225
690.278	26
690.287	-87
690.323	-508
690.367	-184
690.408	303
690.412	360
690.457	54
690.501	545
690.528	484
690.546	456
690.590	91
690.635	9
690.649	234
690.680	615
690.724	-215
690.769	-79
690.770	-86
690.813	297
690.857	254
690.890	243
690.902	259
690.946	472
690.991	364
691.011	402
691.035	581
691.080	522
691.124	1679
691.132	1688
691.168	1594
691.213	1404
691.252	1618
691.257	1620
691.301	941
691.346	754
691.373	892
691.390	1100
691.434	571
691.478	632
691.493	486
691.522	183
691.567	341
691.611	-52
691.614	-75
691.655	48
691.699	287
691.734	290
691.743	279
691.787	134
691.831	265
691.855	231
691.875	241
691.919	350
691.964	261
691.975	292
692.008	435
692.052	448
692.096	352
692.096	339
692.139	624
692.183	614
692.216	363
692.227	276
692.271	367
692.315	668
692.337	566
692.359	565
692.403	519
692.447	790
692.457	813
692.490	852
692.534	907
692.577	593
692.578	604
692.622	663
692.666	602
692.698	607
692.709	645
692.753	397
692.797	907
692.818	762
692.840	655
692.884	976
692.928	994
692.938	1037
692.971	1192
693.015	1009
693.059	1284
693.059	1269
693.102	1149
693.146	906
693.179	975
693.189	1020
693.233	723
693.276	902
693.299	928
693.320	1032
693.363	967
693.407	1041
693.420	1061
693.450	905
693.493	598
693.537	409
693.540	359
693.580	391
693.624	878
693.660	1153
693.667	1220
693.710	1207
693.753	1640
693.780	1646
693.797	1877
693.840	2819
693.883	3468
693.901	3756
693.926	3924
693.970	4285
694.013	4310
694.021	4286
694.056	3174
694.099	2210
694.141	759
694.142	770
694.185	861
694.229	823
694.261	760
694.272	790
694.315	1035
694.358	1219
694.381	1199
694.401	1097
694.444	1014
694.487	852
694.501	861
694.530	1147
694.573	1241
694.616	1148
694.621	1155
694.659	1079
694.702	1032
694.741	977
694.745	1001
694.787	993
694.830	785
694.862	895
694.873	943
694.916	866
694.959	762
694.982	670
695.002	642
695.044	717
695.087	696
695.102	684
695.130	752
695.172	774
695.215	795
695.222	785
695.258	876
695.301	982
695.342	1078
695.343	1094
695.386	1073
695.428	1015
695.462	1087
695.471	1142
695.514	998
695.556	946
695.582	966
695.599	958
695.641	946
695.684	835
695.701	821
695.726	1015
695.769	1113
695.811	1416
695.821	1424
695.854	1300
695.896	1284
695.938	1107
695.941	1083
695.981	1041
696.023	797
696.061	854
696.065	906
696.108	1048
696.150	1279
696.181	1309
696.192	1313
696.235	1378
696.277	1380
696.301	1381
696.319	1343
696.361	1212
696.404	1168
696.421	1042
696.446	829
696.488	649
696.530	373
696.541	289
696.572	460
696.614	624
696.656	946
696.660	940
696.698	754
696.740	828
696.780	693
696.783	712
696.825	849
696.867	964
696.900	1098
696.909	1182
696.951	1371
696.992	1737
697.020	1887
697.034	1832
697.076	1676
697.118	1452
697.139	1374
697.160	1354
697.202	1126
697.244	1015
697.259	963
697.286	1010
697.327	895
697.369	933
697.379	910
697.411	1203
697.453	1622
697.494	1915
697.499	1928
697.536	1929
697.578	1950
697.618	1911
697.620	1925
697.661	1661
697.703	1441
697.738	1294
697.744	1328
697.786	1402
697.828	1406
697.858	1438
697.869	1481
697.911	1484
697.952	1554
697.977	1598
697.994	1578
698.035	1437
698.077	1287
698.097	1206
698.118	1259
698.160	1314
698.201	1352
698.216	1361
698.243	1344
698.284	1269
698.325	1200
698.336	1155
698.367	1349
698.408	1619
698.449	1904
698.455	1917
698.491	1897
698.532	1882
698.573	1894
698.575	1874
698.614	1993
698.656	2178
698.694	2299
698.697	2297
698.738	1902
698.779	1500
698.814	1149
698.820	1174
698.862	1244
698.903	1313
698.933	1342
698.944	1401
698.985	1589
699.026	1773
699.053	1881
699.067	1846
699.172	1483
699.292	1052
699.411	1792
699.530	1075
699.650	2325
699.769	1353
699.889	1839
700.008	1383
700.127	1106
700.246	1121
700.366	1255
700.485	1462
700.604	1667
700.723	1767
700.843	1672
700.962	2235
701.081	1582
701.200	1827
701.319	1538
701.438	1839
701.557	1212
701.676	1216
701.796	1528
701.915	1184
702.034	1212
702.153	1452
702.272	1526
702.391	1989
702.509	1381
702.628	1048
702.747	1688
702.866	1044
702.985	1403
703.104	1290
703.223	721
703.342	584
703.460	1571
703.579	2140
703.698	1992
703.817	957
703.935	1850
704.054	1447
704.173	1672
704.292	972
704.410	1934
704.529	1370
704.648	1845
704.766	1014
704.885	825
705.003	1495
705.122	1404
705.240	968
705.359	2342
705.477	1447
705.596	3168
705.714	2010
705.833	1810
705.951	2277
706.070	3328
706.188	1181
706.307	2091
706.425	1706
706.543	1437
706.662	1701
706.780	1526
706.898	1890
707.016	2046
707.135	2064
707.253	1868
707.371	2094
707.489	1394
707.608	550
707.726	1611
707.844	2103
707.962	1292
708.080	1457
708.198	1123
708.316	6
708.434	1206
708.552	1837
708.670	1653
708.788	1491
708.906	2227
709.024	2186
709.142	1835
709.260	1886
709.378	2501
709.496	1189
709.614	2096
709.732	1560
709.850	2045
709.968	1754
710.085	1893
710.203	1192
710.321	1592
710.439	1139
710.556	1091
710.674	1342
710.792	1483
710.910	1444
711.027	1882
711.145	1330
711.263	1374
711.380	1573
711.498	1091
711.615	1141
711.733	2137
711.851	2009
711.968	1890
712.086	1832
712.203	1601
712.321	1489
712.438	1757
712.555	2312
712.673	2162
712.790	2035
712.908	2529
713.025	1932
713.142	3084
713.260	2070
713.377	2565
713.494	1777
713.612	2059
713.729	2203
713.846	3345
713.963	1809
714.081	1472
714.198	1689
714.315	2425
714.432	2152
714.549	2220
714.666	3579
714.783	9795
714.901	19357
715.018	3064
715.135	1151
715.252	1682
715.369	1316
715.486	1874
715.603	770
715.720	1246
715.837	1731
715.953	1576
716.070	1893
716.187	2148
716.304	1600
716.421	1327
716.538	1652
716.655	1648
716.771	2282
716.888	1541
717.005	878
717.122	698
717.238	1518
717.355	2198
717.472	1605
717.589	1714
717.705	1854
717.822	942
717.938	1790
718.055	1072
718.172	1484
718.288	917
718.405	535
718.521	1363
718.638	1519
718.754	2064
718.871	2066
718.987	1411
719.104	1208
719.220	791
719.336	1483
719.453	2422
719.569	1976
719.685	1489
719.802	1321
719.918	1137
720.034	1123
720.151	2135
720.267	8154
720.383	3306
720.499	834
720.616	1227
720.732	1470
720.848	1864
720.964	3277
721.080	2796
721.196	950
721.312	1114
721.428	787
721.544	1377
721.660	1580
721.776	2140
721.892	510
722.008	1013
722.124	387
722.240	761
722.356	925
722.472	2278
722.588	610
722.704	1507
722.820	1057
722.936	1170
723.051	431
723.167	1070
723.283	1174
723.399	929
723.515	1036
723.630	1609
723.746	602
723.862	954
723.977	961
724.093	522
724.209	1012
724.324	1484
724.440	1497
724.555	1984
724.671	1265
724.786	762
724.902	228
725.017	1040
725.133	1373
725.248	2279
725.364	1377
725.479	953
725.595	984
725.710	172
725.826	360
725.941	1503
726.056	138
726.172	594
726.287	721
726.402	867
726.517	12
726.633	1145
726.748	826
726.863	806
726.978	329
727.093	517
727.208	907
727.324	154
727.439	636
727.554	1680
727.669	659
727.784	76
727.899	523
728.014	563
728.129	1095
728.244	188
728.359	-579
728.474	758
728.589	86
728.704	675
728.819	344
728.934	1272
729.049	532
729.163	375
729.278	345
729.393	-55
729.508	540
729.622	556
729.737	-343
729.852	680
729.967	583
730.081	1038
730.196	253
730.311	129
730.425	765
730.540	1339
730.655	511
730.769	470
730.884	798
730.998	696
731.113	430
731.227	77
731.342	410
731.456	-5
731.571	467
731.685	430
731.800	539
731.914	114
732.028	243
732.143	696
732.257	894
732.371	579
732.486	711
732.600	2772
732.714	3683
732.829	817
732.943	423
733.057	-211
733.171	848
733.285	220
733.399	153
733.514	1176
733.628	-50
733.742	682
733.856	-66
733.970	756
734.084	-392
734.198	807
734.312	68
734.426	1260
734.540	949
734.654	598
734.768	392
734.882	953
734.996	71
735.109	93
735.223	12
735.337	425
735.451	795
735.565	13
735.679	-155
735.792	742
735.906	80
736.020	191
736.134	30
736.247	512
736.361	602
736.475	1297
736.588	462
736.702	314
736.815	-2
736.929	397
737.043	432
737.156	-145
737.270	-414
737.383	607
737.497	-261
737.610	472
737.723	173
737.837	601
737.950	674
738.064	-136
738.177	406
738.290	784
738.404	963
738.517	99
738.630	-298
738.744	33
738.857	189
738.970	228
739.083	678
739.197	-51
739.310	-221
739.423	746
739.536	-730
739.649	148
739.762	119
739.875	414
739.988	602
740.102	-409
740.215	-96
740.328	383
740.441	-288
740.553	588
740.667	681
740.779	317
740.892	-323
741.005	580
741.118	-456
741.231	763
741.344	138
741.457	565
741.569	371
741.682	137
741.795	641
741.908	-413
742.020	11
742.133	598
742.246	-87
742.358	305
742.471	166
742.584	471
742.696	428
742.809	554
742.922	1023
743.034	73
743.147	354
743.259	8
743.372	-721
743.484	318
743.597	-271
743.709	473
743.822	450
743.934	548
744.046	268
744.159	118
744.271	1418
744.383	35
744.496	-108
744.608	812
744.720	0
744.832	395
744.945	-20
745.057	61
745.169	537
745.281	265
745.393	448
745.506	102
745.618	-472
745.730	-164
745.842	30
745.954	587
746.066	397
746.178	363
746.290	-166
746.402	360
746.514	375
746.626	87
746.738	570
746.850	566
746.962	160
747.074	467
747.185	121
747.297	102
747.409	52
747.521	950
747.633	362
747.744	46
747.856	-15
747.968	612
748.080	25
748.191	-209
748.303	-398
748.414	394
748.526	-747
748.638	-110
748.749	-57
748.861	74
748.972	144
749.084	1146
749.195	1112
749.307	284
749.418	257
749.530	-130
749.641	409
749.753	307
749.864	251
749.975	284
750.087	178
750.198	-269
750.310	-73
750.421	21
750.532	-283
750.643	447
750.755	-262
750.866	-378
750.977	-352
751.088	103
751.199	343
751.310	234
751.422	-522
751.533	-40
751.644	-414
751.755	289
751.866	-363
751.977	223
752.088	353
752.199	-7
752.310	-407
752.421	-280
752.532	-359
752.643	-1
752.753	367
752.864	-104
752.975	-192
753.086	-25
753.197	-409
753.308	436
753.418	-263
753.529	-316
753.640	-547
753.751	-187
753.861	39
753.972	-338
754.083	-432
754.193	-488
754.304	73
754.415	-340
754.525	-578
754.636	417
754.746	-778
754.857	434
754.967	-354
755.078	-197
755.188	-783
755.299	698
755.409	-447
755.520	823
755.630	725
755.740	619
755.851	98
755.961	-342
756.071	-235
756.182	231
756.292	-555
756.402	570
756.512	-361
756.623	-122
756.733	-219
756.843	535
756.953	36
757.063	77
757.173	168
757.283	499
757.393	383
757.504	342
757.614	97
757.724	43
757.834	90
757.944	421
758.053	375
758.164	1
758.273	-463
758.383	-562
758.493	-106
758.603	-4
758.713	-145
758.823	276
758.932	-786
759.042	-198
759.152	-555
759.262	409
759.372	726
759.481	581
759.591	-267
759.701	124
759.810	-44
759.920	641
760.029	-504
760.139	331
760.249	-346
760.358	511
760.468	610
760.577	-560
760.687	-114
760.796	-142
760.906	355
761.015	426
761.124	-127
761.234	-527
761.343	94
761.453	-244
761.562	-191
761.671	4
761.781	48
761.890	-673
761.999	148
762.108	485
762.218	-207
762.327	-677
762.436	234
762.545	336
762.654	493
762.763	882
762.872	-255
762.982	209
763.091	-301
763.200	147
763.309	-657
763.418	663
763.527	-393
763.635	191
763.744	638
763.853	-74
763.962	910
764.071	417
764.180	-152
764.289	1213
764.398	-78
764.506	42
764.615	390
764.724	616
764.833	211
764.941	788
765.050	584
765.159	1185
765.268	883
765.376	1345
765.485	1719
765.593	2227
765.702	1850
765.810	3247
765.919	5638
766.028	8575
766.136	14591
766.245	28768
766.353	69269
766.461	182178
766.570	245138
766.678	98802
766.787	30093
766.895	14155
767.003	8583
767.112	7067
767.220	4601
767.328	3281
767.437	2142
767.545	2495
767.653	1867
767.761	2198
767.870	1022
767.978	1801
768.086	879
768.194	1299
768.302	1959
768.410	732
768.518	522
768.626	973
768.734	914
768.842	1794
768.950	1182
769.058	1148
769.166	1609
769.274	1924
769.382	2875
769.490	5533
769.598	10696
769.706	25843
769.813	72595
769.921	191923
770.029	129208
770.137	27177
770.245	10731
770.352	6061
770.460	5011
770.568	3118
770.675	2292
770.783	2218
770.891	1339
770.998	827
771.106	818
771.213	147
771.321	829
771.428	835
771.536	1277
771.643	297
771.751	-173
771.858	1145
771.966	918
772.073	271
772.181	-130
772.288	734
772.395	637
772.503	-99
772.610	298
772.717	358
772.825	-264
772.932	376
773.039	-323
773.146	156
773.253	-363
773.361	60
773.468	176
773.575	-473
773.682	-564
773.789	488
773.896	152
774.003	-131
774.110	-374
774.217	-129
774.324	303
774.431	-213
774.538	-215
774.645	811
774.752	-142
774.859	-94
774.966	620
775.073	42
775.179	-131
775.286	359
775.393	-247
775.500	-127
775.607	-107
775.713	352
775.820	-1038
775.927	1003
776.033	586
776.140	-391
776.247	-353
776.353	-626
776.460	-238
776.566	-582
776.673	-114
776.779	90
776.886	-710
776.992	265
777.099	85
777.205	804
777.312	-413
777.418	1293
777.524	1393
777.631	278
777.737	-991
777.843	-543
777.950	-368
778.056	-282
778.162	-221
778.268	195
778.375	-704
778.481	-222
778.587	-88
778.693	-127
778.799	-435
778.906	326
779.012	58
779.118	-195
779.224	-180
779.330	-242
779.436	-167
779.542	-675
779.648	698
779.754	-643
779.860	807
779.966	1446
780.071	7186
780.177	1921
780.283	-828
780.389	-740
780.495	22
780.601	102
780.706	-664
780.812	-42
780.918	53
781.024	-108
781.129	-717
781.235	-23
781.341	-1089
781.446	-107
781.552	-64
781.657	-189
781.763	-296
781.869	174
781.974	-244
782.080	157
782.185	-918
782.291	-579
782.396	-271
782.501	-1167
782.607	-2
782.712	-1065
782.818	-165
782.923	-1213
783.028	38
783.134	117
783.239	-1
783.344	77
783.449	-249
783.555	-91
783.660	-845
783.765	-171
783.870	-979
783.975	-629
784.080	-287
784.185	27
784.291	-475
784.396	-388
784.501	-152
784.606	-582
784.711	-370
784.816	-148
784.921	-1035
785.026	-775
785.130	-1038
785.235	156
785.340	-739
785.445	-763
785.550	-750
785.655	-154
785.760	-1076
785.864	-197
785.969	-706
786.074	-1219
786.178	-526
786.283	-339
786.388	-372
786.492	-825
786.597	-176
786.702	-1474
786.806	-1489
786.911	-244
787.015	-670
787.120	-711
787.224	-425
787.329	-710
787.433	-970
787.538	-736
787.642	-776
787.747	-474
787.851	-374
787.955	-1182
788.060	-641
788.164	-364
788.268	-886
788.372	-212
788.477	-221
788.581	-728
788.685	-925
788.789	214
788.894	-1233
788.998	-559
789.102	-990
789.206	-575
789.310	-1146
789.414	-211
789.518	-603
789.622	-551
789.726	-1753
789.830	-298
789.934	-466
790.038	-17
790.142	-1080
790.246	-715
790.350	-1043
790.454	-429
790.557	-256
790.661	-618
790.765	-1187
790.869	-249
790.973	-1455
791.076	-78
791.180	-1775
791.284	-899
791.388	140
791.491	-993
791.595	-771
791.698	-1588
791.802	-58
791.906	26
792.009	-796
792.113	-558
792.216	-741
792.320	-421
792.423	-352
792.527	-204
792.630	120
792.733	152
792.837	-1391
792.940	-416
793.043	-318
793.147	-1474
793.250	-1115
793.353	-24
793.457	-1040
793.560	97
793.663	-900
793.766	-373
793.869	-870
793.973	-875
794.076	-1013
794.179	-52
794.282	-342
794.385	-909
794.488	-539
794.591	-918
794.694	860
794.797	2526
794.900	-39
795.003	-591
795.106	-383
795.209	-33
795.312	-180
795.415	-402
795.517	53
795.620	-175
795.723	-1220
795.826	-765
795.929	-1836
796.031	6
796.134	-35
796.237	-1044
796.339	-340
796.442	-689
796.545	-1181
796.647	-841
796.750	-337
796.852	-189
796.955	-469
797.057	-764
797.160	-525
797.262	-870
797.365	-139
797.467	-795
797.570	-821
797.672	-656
797.775	104
797.877	-1002
797.979	-454
798.082	-1321
798.184	-1107
798.286	-489
798.388	-1542
798.491	-539
798.593	-1310
798.695	-1185
798.797	-291
798.899	-600
799.001	-1224
799.104	-579
799.206	-764
799.308	102
799.410	-752
799.512	-844
799.614	-1263
799.716	-933
799.818	59
799.920	-1152
800.021	-611
800.123	-292
800.225	-538
800.327	-656
800.429	-311
800.531	-588
800.633	-27
800.734	-1187
800.836	-385
800.938	-488
801.039	-278
801.141	-573
801.243	-1097
801.344	-567
801.446	-1128
801.548	-1245
801.649	-175
801.751	-805
801.852	-1081
801.954	-540
802.055	-791
802.157	-384
802.258	-912
802.360	-1932
802.461	-464
802.563	-1204
802.664	-631
802.765	-1033
802.867	-559
802.968	-1847
803.069	-669
803.170	-1002
803.272	-521
803.373	-827
803.474	-1379
803.575	-522
803.676	-899
803.777	-733
803.879	-1156
803.980	-882
804.081	-272
804.182	-1008
804.283	-544
804.384	-1304
804.485	-1452
804.586	-482
804.687	-1104
804.788	-597
804.888	-1063
804.989	-276
805.090	-1259
805.191	-1633
805.292	-128
805.393	76
805.493	-1172
805.594	-833
805.695	-1057
805.796	-506
805.896	-656
805.997	-907
806.098	-742
806.198	-818
806.299	-855
806.399	-875
806.500	-676
806.601	-335
806.701	-784
806.802	-1281
806.902	-1154
807.002	-696
807.103	-1109
807.203	-283
807.304	-488
807.404	-1209
807.504	-832
807.605	-1624
807.705	-39
807.805	-102
807.906	-913
808.006	-173
808.106	-1045
808.206	-347
808.306	-1096
808.406	-869
808.507	-1334
808.607	-1418
808.707	-626
808.807	-775
808.907	-849
809.007	-248
809.107	-863
809.207	-1215
809.307	-630
809.407	-684
809.507	-1090
809.607	-509
809.706	-1975
809.806	-923
809.906	-384
810.006	-579
810.106	-1431
810.205	-761
810.305	-1999
810.405	227
810.505	-1141
810.604	-1111
810.704	-909
810.804	-1715
810.903	-1657
811.003	-470
811.102	-981
811.202	-489
811.301	-1128
811.401	-695
811.500	-1642
811.600	-920
811.699	-1017
811.799	-644
811.898	-1565
811.997	-578
812.097	-1627
812.196	-769
812.295	-384
812.395	-478
812.494	-1576
812.593	-563
812.692	-1628
812.792	-937
812.891	-598
812.990	-567
813.089	-1206
813.188	-1250
813.287	-1958
813.386	-861
813.485	-658
813.584	-1015
813.683	-1293
813.782	-1377
813.881	-938
813.980	-1107
814.079	-1775
814.178	-624
814.277	-889
814.376	-1309
814.475	-1108
814.574	-94
814.672	-1453
814.771	-1260
814.870	-790
814.969	-994
815.067	-1399
815.166	-2236
815.265	-1155
815.363	-553
815.462	-1419
815.560	-420
815.659	-978
815.758	-110
815.856	-686
815.955	-980
816.053	-1581
816.152	-209
816.250	-834
816.348	-1393
816.447	-466
816.545	-101
816.644	-614
816.742	-728
816.840	-1242
816.938	-973
817.037	-590
817.135	-400
817.233	-153
817.331	-267
817.430	-1701
817.528	-185
817.626	-1203
817.724	-1272
817.822	11
817.920	-854
818.018	110
818.116	943
818.214	4767
818.312	16602
818.410	15926
818.508	1555
818.606	245
818.704	-28
818.802	-145
818.900	317
818.997	-229
819.095	-256
819.193	512
819.291	3877
819.389	11214
819.486	35920
819.584	24417
819.682	2895
819.779	-2
819.877	540
819.975	-446
820.072	-494
820.170	-562
820.267	-711
820.365	-881
820.462	-1915
820.560	-1359
820.657	-1091
820.755	-1173
820.852	-339
820.949	-808
821.047	-349
821.144	-1017
821.241	-564
821.339	-1263
821.436	-589
821.533	-118
821.631	191
821.728	-656
821.825	-680
821.922	-478
822.019	32
822.116	-1353
822.214	-79
822.311	-516
822.408	-964
822.505	-675
822.602	-1274
822.699	-916
822.796	-87
822.893	-1994
822.990	-559
823.086	-781
823.183	-1079
823.280	-1362
823.377	-827
823.474	-78
823.571	-209
823.667	10
823.764	-1103
823.861	-515
823.958	-853
824.054	27
824.151	-1439
824.248	-1213
824.344	420
824.441	-1210
824.537	-1222
824.634	-706
824.731	-293
824.827	-520
824.924	-1093
825.020	-1596
825.116	-906
825.213	-496
825.309	126
825.406	-685
825.502	-591
825.598	-1535
825.695	-518
825.791	-809
825.887	-530
825.983	-1418
826.080	-804
826.176	-1554
826.272	-491
826.368	-218
826.464	-2010
826.560	-1039
826.656	-532
826.753	-900
826.849	-1476
826.945	-462
827.041	-1280
827.137	-1451
827.233	201
827.328	-1075
827.424	-643
827.520	-855
827.616	-1442
827.712	-1557
827.808	-232
827.904	-726
827.999	48
828.095	-1276
828.191	-1246
828.287	-768
828.382	-1524
828.478	-888
828.574	-1347
828.669	-904
828.765	-461
828.860	-776
828.956	248
829.051	-1386
829.147	241
829.242	-707
829.338	-1398
829.433	-475
829.529	-999
829.624	-1042
829.720	-1140
829.815	-726
829.910	-1430
830.005	-424
830.101	-728
830.196	-258
830.291	-885
830.386	-1238
830.482	-17
830.577	-1296
830.672	-1408
830.767	-552
830.862	-1088
830.957	-495
831.052	-631
831.147	-741
831.242	-1152
831.337	-973
831.432	-985
831.527	-1286
831.622	-1063
831.717	-1076
831.812	-890
831.907	-759
832.002	-783
832.097	-1534
832.191	-1605
832.286	-22
832.381	-1460
832.476	-1152
832.570	-658
832.665	-95
832.760	-179
832.854	-1291
832.949	-973
833.044	-801
833.138	-1184
833.233	-531
833.327	-1648
833.422	-828
833.516	-1161
833.611	-2242
833.705	-293
833.799	-1257
833.894	-1393
833.988	-718
834.083	-790
834.177	-1362
834.271	-1253
834.365	-1331
834.460	-755
834.554	-1223
834.648	-141
834.742	-1131
834.836	-764
834.931	-1257
835.025	-1973
835.119	-698
835.213	-788
835.307	-1966
835.401	-1110
835.495	-894
835.589	-371
835.683	-1274
835.777	-1606
835.871	-822
835.965	-2124
836.059	-801
836.152	-126
836.246	-1265
836.340	-486
836.434	-225
836.528	-1376
836.621	-660
836.715	-1597
836.809	-1662
836.902	-92
836.996	-1704
837.090	-963
837.183	-1690
837.277	-880
837.370	-1277
837.464	-1159
837.557	-1190
837.651	-964
837.744	-104
837.838	-493
837.931	-653
838.025	-593
838.118	-1183
838.211	-925
838.305	-759
838.398	-938
838.491	-1405
838.584	-406
838.678	-654
838.771	475
838.864	-538
838.957	-1959
839.050	-1383
839.144	-1960
839.237	-1148
839.330	-617
839.423	-1002
839.516	-1420
839.609	-718
839.702	-806
839.795	-899
839.888	-1332
839.981	-413
840.073	-2000
840.166	-1276
840.259	-1619
840.352	-556
840.445	-240
840.538	-1486
840.630	-788
840.723	-1766
840.816	-435
840.909	-1214
841.001	-654
841.094	-524
841.186	-223
841.279	-901
841.372	-503
841.464	-1008
841.557	-1923
841.649	-1869
841.742	-369
841.834	-1023
841.927	-1175
842.019	-2403
842.111	-678
842.204	-838
842.296	-1087
842.388	-1120
842.481	-1087
842.573	-95
842.665	29
842.758	-508
842.850	-730
842.942	-1340
843.034	-989
843.126	-1071
843.218	-532
843.310	-865
843.402	858
843.495	1885
843.587	1227
843.679	-1144
843.771	-1004
843.862	-1110
843.954	-925
844.046	-556
844.138	-1110
844.230	-1147
844.322	-967
844.414	-740
844.505	-202
844.597	-1342
844.689	-1054
844.781	-1243
844.872	-1646
844.964	-885
845.056	-1682
845.147	-1101
845.239	-799
845.331	-2050
845.422	-1838
845.514	-963
845.605	121
845.697	-1044
845.788	-684
845.880	-893
845.971	-1274
846.063	-1810
846.154	-1023
846.245	-1412
846.337	-1262
846.428	-1686
846.519	-1124
846.610	-1215
846.702	-303
846.793	-1033
846.884	-257
846.975	-1397
847.066	-768
847.158	-1293
847.249	-1471
847.340	-784
847.431	-1094
847.522	-326
847.613	-1438
847.704	-964
847.795	-468
847.886	-1764
847.977	-265
848.068	-1412
848.158	-1147
848.249	-1096
848.340	-627
848.431	-1749
848.522	-639
848.612	-1485
848.703	-1126
848.794	-843
848.885	-497
848.975	-2302
849.066	-1218
849.157	-810
849.247	-1273
849.338	-754
849.428	-62
849.519	-413
849.609	191
849.700	1724
849.790	5143
849.881	1620
849.971	-470
850.061	-1704
850.152	-374
850.242	-639
850.332	-1020
850.423	-570
850.513	-1842
850.603	-1090
850.693	-446
850.784	-988
850.874	-631
850.964	-792
851.054	-978
851.144	-529
851.234	-1212
851.324	-1522
851.414	-649
851.505	-1088
851.595	-758
851.684	-968
851.774	-427
851.864	-1057
851.954	-1569
852.044	-61
852.134	-1587
852.224	-1555
852.314	-395
852.403	-780
852.493	-1622
852.583	-1136
852.673	-1361
852.762	-926
852.852	-1174
852.942	-634
853.031	-819
853.121	-1248
853.210	-1101
853.300	-670
853.389	-745
853.479	-1058
853.568	-197
853.658	-1175
853.747	974
853.837	623
853.926	4496
854.015	11152
854.105	19123
854.194	40998
854.283	16707
854.373	-33
854.462	-756
854.551	-931
854.640	-666
854.729	-1246
854.819	-663
854.908	-1649
854.997	-620
855.086	-1294
855.175	-1268
855.264	-1083
855.353	-1276
855.442	-653
855.531	-1410
855.620	-1376
855.709	-897
855.798	-1086
855.887	-1004
855.975	-1478
856.064	-861
856.153	-834
856.242	-752
856.331	-1568
856.419	-1521
856.508	-1410
856.597	-794
856.685	-990
856.774	-709
856.863	-1255
856.951	-1301
857.040	-2021
857.128	-458
857.217	-1737
857.305	-1643
857.394	-1307
857.482	-1040
857.571	-824
857.659	-1397
857.747	-1076
857.836	-1607
857.924	-987
858.012	-1230
858.101	-1844
858.189	-1287
858.277	-1481
858.365	-612
858.454	-112
858.542	-1355
858.630	-1533
858.718	-1328
858.806	-607
858.894	-1722
858.982	-736
859.070	-552
859.158	-560
859.246	-1111
859.334	-523
859.422	-968
859.510	-943
859.598	-233
859.686	-1924
859.773	-600
859.861	-1014
859.949	-757
860.037	-1757
860.125	-1001
860.212	-1283
860.300	-933
860.388	-451
860.475	-1277
860.563	-2113
860.651	-781
860.738	-1470
860.826	-1152
860.913	-1742
861.001	-1288
861.088	-1100
861.176	-1238
861.263	-995
861.350	-1459
861.438	-824
861.525	-1313
861.612	-1520
861.700	-540
861.787	-1151
861.874	-1596
861.962	-1363
862.049	-876
862.136	-728
862.223	-1035
862.310	-1652
862.397	-793
862.484	-1702
862.572	-1791
862.659	-787
862.746	-1874
862.833	-1263
862.920	-877
863.007	-1398
863.094	-817
863.180	-1271
863.267	-1320
863.354	-1964
863.441	-383
863.528	-1825
863.615	-1301
863.701	-1108
863.788	-577
863.875	-1149
863.961	-1388
864.048	-2636
864.135	-1485
864.221	-1828
864.308	-1466
864.395	-953
864.481	-774
864.568	-1786
864.654	-985
864.741	-380
864.827	-707
864.914	-1500
865.000	-541
865.086	-1366
865.173	-1297
865.259	-317
865.345	-1237
865.432	-787
865.518	-1262
865.604	-815
865.690	-309
865.776	550
865.863	2049
865.949	5155
866.035	7023
866.121	16456
866.207	23869
866.293	5350
866.379	741
866.465	-1120
866.551	-813
866.637	-1026
866.723	-1720
866.809	-1151
866.895	-742
866.981	-1367
867.066	-878
867.152	-30
867.238	-1198
867.324	-1288
867.409	-574
867.495	-1456
867.581	-839
867.667	-902
867.752	-1297
867.838	-658
867.923	-1042
868.009	71
868.094	-339
868.180	-979
868.266	-352
868.351	-395
868.436	-390
868.522	-1173
868.607	255
868.693	-432
868.778	495
868.863	239
868.949	-242
869.034	-1230
869.119	194
869.204	-1502
869.290	-1537
869.375	-1530
869.460	-1352
869.545	-1648
869.630	-1328
869.715	-983
869.800	-1323
869.885	-1002
869.970	-922
870.055	-1421
870.140	-1016
870.225	-626
870.310	-1150
870.395	-1197
870.480	-683
870.565	-920
870.650	-917
870.734	-1566
870.819	-699
870.904	-809
870.989	-2220
871.073	-498
871.158	-1126
871.243	-1604
871.327	-1125
871.412	-1551
871.496	-1245
871.581	-1695
871.665	-1424
871.750	-674
871.834	-630
871.919	-606
872.003	-31
872.088	-1272
872.172	-1158
872.257	-1501
872.341	-1148
872.425	-1340
872.509	-1369
872.594	-1161
872.678	-1558
872.762	-364
872.846	-827
872.930	-737
873.015	-1414
873.099	-1904
873.183	-1096
873.267	-929
873.351	-1186
873.435	-912
873.519	-862
873.603	-1345
873.687	-784
873.771	-1958
873.855	-206
873.938	-1222
874.022	-1529
874.106	-1822
874.190	-539
874.274	-1416
874.358	-1513
874.383	-1564
874.441	-1686
874.490	-1432
874.525	-1251
874.598	-1463
874.609	-1499
874.692	-565
874.705	-672
874.776	-1260
874.813	-905
874.859	-446
874.920	-1047
874.943	-1280
875.027	-740
875.028	-741
875.110	-930
875.135	-1027
875.194	-1241
875.243	-711
875.277	-337
875.350	-796
875.361	-871
875.444	-1356
875.457	-1296
875.527	-1003
875.565	-1041
875.611	-1112
875.672	-1508
875.694	-1633
875.778	-1790
875.780	-1765
875.861	-907
875.887	-990
875.944	-1150
875.994	-991
876.027	-862
876.101	-1211
876.111	-1266
876.194	-729
876.209	-805
876.277	-1212
876.316	-988
876.360	-684
876.423	-1184
876.443	-1352
876.526	-529
876.530	-571
876.610	-1454
876.637	-1142
876.693	-517
876.745	-1025
876.776	-1382
876.852	-664
876.859	-578
876.942	-1154
876.959	-1270
877.025	-1836
877.066	-1332
877.108	-835
877.173	-904
877.190	-920
877.273	-499
877.280	-573
877.356	-1501
877.387	-1323
877.439	-926
877.494	-719
877.522	-650
877.601	-786
877.605	-784
877.688	-750
877.708	-679
877.770	-589
877.815	-627
877.853	-726
877.922	-1182
877.936	-1256
878.018	-746
878.029	-746
878.101	-783
878.136	-559
878.184	-215
878.242	-700
878.266	-881
878.349	-996
878.349	-993
878.431	-727
878.456	-748
878.514	-699
878.563	-571
878.596	-455
878.670	-487
878.679	-527
878.761	-864
878.776	-805
878.844	-401
878.883	-532
878.926	-586
878.990	-217
879.008	-160
879.091	-997
879.097	-985
879.173	-1065
879.203	-1015
879.255	-546
879.310	-215
879.338	-162
879.417	-1037
879.420	-1069
879.502	-862
879.523	-755
879.584	-516
879.630	-581
879.667	-639
879.736	-697
879.749	-686
879.831	-218
879.843	-249
879.913	-486
879.949	-456
879.995	-524
880.056	-879
880.077	-953
880.159	-976
880.162	-958
880.241	-339
880.269	-216
880.323	-183
880.375	-127
880.405	14
880.482	510
880.487	560
880.569	1290
880.588	1668
880.651	3253
880.694	2558
880.733	2337
880.801	3326
880.815	2861
880.896	270
880.907	-81
880.978	-534
881.013	-666
881.060	-773
881.120	-545
881.142	-461
881.224	-543
881.226	-558
881.305	-906
881.332	-849
881.387	-434
881.438	-201
881.469	-244
881.545	-467
881.550	-467
881.632	-387
881.651	-341
881.713	-625
881.757	-793
881.795	-587
881.863	-374
881.876	-355
881.958	-264
881.969	-266
882.039	-576
882.075	-465
882.121	-79
882.181	-194
882.202	-312
882.284	-178
882.287	-188
882.365	77
882.393	312
882.446	611
882.499	599
882.528	502
882.605	-106
882.609	-130
882.690	-251
882.711	-242
882.771	-293
882.817	-630
882.853	-543
882.923	31
882.934	-6
883.015	-369
883.029	-510
883.096	-627
883.135	-487
883.177	-243
883.241	367
883.258	440
883.339	9
883.347	-4
883.420	-404
883.453	-688
883.501	-621
883.558	-179
883.583	-182
883.663	-611
883.664	-614
883.744	-1
883.770	33
883.825	-387
883.876	-415
883.906	-111
883.981	101
883.987	61
884.068	-286
884.087	-408
884.149	-532
884.193	-450
884.230	-177
884.298	-237
884.310	-324
884.391	39
884.404	-41
884.472	-107
884.510	-55
884.552	-225
884.615	-351
884.633	-368
884.714	-464
884.721	-469
884.794	-468
884.826	-548
884.875	-453
884.932	-214
884.956	-157
885.036	-224
885.037	-227
885.117	-422
885.143	-480
885.197	-179
885.248	-2
885.278	20
885.354	468
885.358	467
885.439	32
885.459	-35
885.519	229
885.565	247
885.599	172
885.670	202
885.680	207
885.760	299
885.775	255
885.840	119
885.881	168
885.921	192
885.986	-39
886.001	-142
886.081	-482
886.091	-540
886.161	43
886.196	302
886.241	-15
886.302	-268
886.322	-201
886.402	-77
886.407	-76
886.482	-66
886.512	-74
886.562	-66
886.617	62
886.642	76
886.722	-106
886.722	-110
886.802	-117
886.828	-184
886.882	-135
886.933	-47
886.962	28
887.038	242
887.042	228
887.122	-129
887.143	-234
887.202	494
887.248	1029
887.281	672
887.353	-29
887.361	-5
887.441	79
887.458	99
887.521	322
887.563	506
887.601	495
887.668	433
887.680	525
887.760	1025
887.773	1110
887.840	413
887.878	-38
887.919	-192
887.983	-325
887.999	-286
888.079	-188
888.088	-184
888.158	232
888.193	452
888.238	350
888.297	157
888.317	93
888.397	-110
888.402	-130
888.476	447
888.507	688
888.556	551
888.612	352
888.635	308
888.715	170
888.717	162
888.794	208
888.821	239
888.873	154
888.926	26
888.953	42
889.031	115
889.032	108
889.111	-554
889.135	-737
889.190	-231
889.240	187
889.270	146
889.345	60
889.349	57
889.428	-55
889.449	-86
889.507	299
889.554	607
889.586	393
889.658	-99
889.665	-109
889.744	-213
889.763	-237
889.824	-138
889.867	-64
889.903	-10
889.972	98
890.076	396
890.181	737
890.285	-201
890.390	245
890.494	942
890.599	-273
890.703	362
890.807	597
890.912	588
891.016	-148
891.120	1475
891.224	178
891.329	662
891.433	110
891.537	411
891.641	348
891.745	-198
891.849	252
891.953	437
892.058	138
892.162	638
892.266	171
892.370	632
892.474	-99
892.578	555
892.682	-264
892.786	225
892.889	647
892.993	-89
893.097	592
893.201	119
893.305	297
893.409	-198
893.512	265
893.616	778
893.720	200
893.824	-171
893.927	-319
894.031	-104
894.135	186
894.238	785
894.342	79
894.445	468
894.549	327
894.652	620
894.756	594
894.859	-124
894.963	-81
895.066	232
895.170	421
895.273	-173
895.377	362
895.480	-10
895.583	71
895.687	558
895.790	-399
895.893	181
895.997	415
896.100	-574
896.203	-290
896.306	-420
896.409	-330
896.513	236
896.616	-40
896.719	332
896.822	-51
896.925	595
897.028	-831
897.131	219
897.234	298
897.337	368
897.440	-308
897.543	534
897.646	-535
897.749	577
897.852	115
897.954	874
898.057	-162
898.160	-168
898.263	86
898.366	307
898.468	-644
898.571	319
898.674	751
898.776	1150
898.879	-177
898.982	514
899.084	530
899.187	241
899.290	144
899.392	-586
899.495	46
899.597	149
899.700	410
899.802	354
899.904	212
900.007	-11
900.109	826
900.212	-723
900.314	-242
900.416	409
900.519	-455
900.621	399
900.723	601
900.826	-283
900.928	-233
901.030	-1044
901.132	-33
901.234	-115
901.336	-67
901.439	742
901.541	-323
901.643	-108
901.745	80
901.847	495
901.949	-41
902.051	0
902.153	40
902.255	-87
902.357	-275
902.459	-147
902.560	18
902.662	-99
902.764	27
902.866	191
902.968	-395
903.070	598
903.171	203
903.273	331
903.375	143
903.477	182
903.578	-146
903.680	-235
903.781	-275
903.883	-27
903.985	-467
904.086	450
904.188	342
904.289	434
904.391	42
904.492	-382
904.594	-264
904.695	-53
904.796	416
904.898	-318
904.999	-203
905.100	267
905.202	579
905.303	-55
905.404	-171
905.506	-664
905.607	-262
905.708	-397
905.809	180
905.910	-502
906.012	-856
906.113	367
906.214	-745
906.315	-563
906.416	-282
906.517	-299
906.618	-539
906.719	-362
906.820	539
906.921	239
907.022	-939
907.123	32
907.224	-431
907.325	-165
907.425	-820
907.526	-64
907.627	5
907.728	-635
907.828	-496
907.929	-362
908.030	-119
908.131	-94
908.231	160
908.332	187
908.433	-574
908.533	241
908.634	-444
908.734	500
908.835	-423
908.935	-24
909.036	539
909.136	498
909.237	272
909.337	-949
909.438	363
909.538	-38
909.638	-195
909.739	-723
909.839	-195
909.939	-61
910.040	-129
910.140	747
910.240	-429
910.340	-582
910.440	-195
910.541	380
910.641	-241
910.741	-419
910.841	42
910.941	-268
911.041	777
911.141	168
911.241	-428
911.341	-387
911.441	-817
911.541	-798
911.641	-192
911.741	320
911.841	-1071
911.941	462
912.040	244
912.140	22
912.240	-397
912.340	-1028
912.440	437
912.539	309
912.639	-511
912.739	631
912.838	-852
912.938	432
913.038	153
913.137	-185
913.237	-519
913.336	-900
913.436	-57
913.535	-474
913.635	-522
913.734	-502
913.834	198
913.933	453
914.033	298
914.132	76
914.231	423
914.331	57
914.430	120
914.529	390
914.629	-60
914.728	-352
914.827	-412
914.926	522
915.025	-524
915.125	495
915.224	97
915.323	-257
915.422	102
915.521	-19
915.620	-711
915.719	-455
915.818	-203
915.917	259
916.016	123
916.115	-717
916.214	-299
916.313	-48
916.412	583
916.510	-889
916.609	743
916.708	-1005
916.807	-114
916.906	-774
917.004	-681
917.103	-60
917.202	919
917.301	-341
917.399	234
917.498	167
917.596	252
917.695	-388
917.794	17
917.892	-115
917.991	-249
918.089	548
918.188	471
918.286	-46
918.384	-671
918.483	-683
918.581	-287
918.680	-506
918.778	-26
918.876	-106
918.975	94
919.073	43
919.171	-781
919.269	-328
919.368	-122
919.466	-92
919.564	-251
919.662	10
919.760	26
919.858	-460
919.956	-493
920.054	-213
920.153	-454
920.251	3
920.349	-237
920.446	-485
920.544	44
920.642	52
920.740	-622
920.838	-93
920.936	334
921.034	-117
921.132	261
921.229	-259
921.327	-146
921.425	478
921.523	-208
921.620	-127
921.718	52
921.816	144
921.913	137
922.011	321
922.109	-264
922.206	9
922.304	233
922.401	380
922.499	-335
922.596	217
922.694	426
922.791	151
922.888	-564
922.986	571
923.083	1179
923.181	327
923.278	-373
923.375	1061
923.473	784
923.570	477
923.667	808
923.764	19
923.861	469
923.959	1052
924.056	133
924.153	677
924.250	449
924.347	30
924.444	435
924.541	594
924.638	721
924.735	460
924.832	355
924.929	556
925.026	646
925.123	103
925.220	-147
925.317	17
925.414	291
925.510	794
925.607	852
925.704	1114
925.801	544
925.897	245
925.994	415
926.091	-88
926.187	-65
926.284	478
926.381	936
926.477	1243
926.574	1403
926.670	891
926.767	174
926.863	147
926.960	392
927.056	151
927.153	859
927.249	94
927.346	370
927.442	483
927.538	395
927.635	1323
927.731	86
927.827	61
927.924	759
928.020	705
928.116	-358
928.212	354
928.308	911
928.404	-363
928.501	-87
928.597	230
928.693	72
928.789	69
928.885	542
928.981	-458
929.077	580
929.173	267
929.269	55
929.365	14
929.461	580
929.557	232
929.652	-598
929.748	-277
929.844	590
929.940	1220
930.036	473
930.131	353
930.227	100
930.323	-589
930.419	517
930.514	-85
930.610	-324
930.705	307
930.801	918
930.897	346
930.992	491
931.088	118
931.183	-32
931.279	319
931.374	226
931.470	150
931.565	-204
931.660	-197
931.756	-293
931.851	343
931.946	71
932.042	-112
932.137	-205
932.232	-725
932.327	-283
932.423	-120
932.518	-757
932.613	709
932.708	-274
932.803	54
932.898	400
932.994	-588
933.089	-111
933.184	262
933.279	-821
933.374	-562
933.469	-327
933.563	364
933.658	-210
933.753	-143
933.848	-218
933.943	255
934.038	-997
934.133	181
934.227	-35
934.322	-146
934.417	76
934.512	-833
934.606	-133
934.701	332
934.796	-137
934.890	-639
934.985	-530
935.079	-120
935.174	60
935.269	-150
935.363	-928
935.458	209
935.552	366
935.646	-331
935.741	-339
935.835	-630
935.930	-341
936.024	-301
936.118	-979
936.213	-871
936.307	207
936.401	-791
936.496	-326
936.590	-38
936.684	6
936.778	-6
936.872	71
936.966	-736
937.060	-113
937.155	1
937.249	-22
937.343	-788
937.437	-209
937.531	-399
937.625	-753
937.719	-379
937.813	-597
937.906	-866
938.000	-379
938.094	-824
938.188	-436
938.282	-480
938.376	-163
938.469	78
938.563	-302
938.657	-423
938.751	-434
938.844	-80
938.938	-520
939.032	242
939.125	268
939.219	-42
939.312	-285
939.406	691
939.500	-271
939.593	-409
939.686	328
939.780	-82
939.873	-357
939.967	-525
940.060	-631
940.154	-379
940.247	-729
940.340	-977
940.434	-368
940.527	-918
940.620	-353
940.713	-326
940.806	-663
940.900	-278
940.993	-606
941.086	-468
941.179	-747
941.272	-664
941.365	-572
941.458	-171
941.551	674
941.644	128
941.737	-376
941.830	-311
941.923	-119
942.016	-359
942.109	-962
942.202	-268
942.295	-413
942.388	-414
942.480	156
942.573	11
942.666	-1109
942.759	-1154
942.851	-480
942.944	-947
943.037	-443
943.129	-1157
943.222	-1582
943.315	-1006
943.407	-1497
943.500	-766
943.592	-557
943.685	-428
943.777	-712
943.870	167
943.962	-606
944.055	-1309
944.147	-1122
944.239	-1069
944.332	-2043
944.424	-78
944.516	-519
944.609	-1396
944.701	-706
944.793	-146
944.885	-124
944.977	-294
945.070	-1402
945.162	-949
945.254	-378
945.346	-1005
945.438	-1233
945.530	448
945.622	-1060
945.714	-1233
945.806	-363
945.898	-462
945.990	-779
946.082	-175
946.174	-604
946.266	-697
946.358	-1109
946.449	-400
946.541	-821
946.633	-1427
946.725	-999
946.816	-581
946.908	-539
947.000	-668
947.091	-695
947.183	-461
947.275	-303
947.366	-833
947.458	-1079
947.549	-1120
947.641	-992
947.732	-728
947.824	-1376
947.915	-672
948.007	-629
948.098	-616
948.190	-1117
948.281	-606
948.372	-683
948.464	-1112
948.555	-1493
948.646	-398
948.737	-1272
948.829	-918
948.920	-979
949.011	-293
949.102	-753
949.193	-1034
949.284	-680
949.376	-590
949.467	-1543
949.558	-843
949.649	-732
949.740	-747
949.831	-149
949.922	-1358
950.013	-374
950.104	-1022
950.194	-422
950.285	-1283
950.376	-964
950.467	-547
950.558	-1468
950.649	-833
950.739	-915
950.830	-845
950.921	-692
951.011	-769
951.102	-1740
951.193	-1053
951.283	-1216
951.374	-43
951.464	-942
951.555	-761
951.646	-1549
951.736	-734
951.826	-1171
951.917	-656
952.007	-740
952.098	-1311
952.188	-875
952.279	-1191
952.369	-359
952.459	-1767
952.549	-156
952.640	-803
952.730	-1673
952.820	-1053
952.910	-1040
953.001	-578
953.091	-1090
953.181	-623
953.271	-1844
953.361	-587
953.451	-532
953.541	-493
953.631	-1433
953.721	-834
953.811	-913
953.901	-1239
953.991	-1285
954.081	-1310
954.171	-1246
954.261	-1387
954.350	-1389
954.440	-1038
954.530	-1474
954.620	-1082
954.710	305
954.799	89
954.889	-1950
954.979	-289
955.068	-1230
955.158	-821
955.248	-421
955.337	-839
955.427	-1502
955.516	-857
955.606	-823
955.695	-828
955.785	-1051
955.874	-1824
955.964	-1518
956.053	-1331
956.142	-1160
956.232	-1014
956.321	-1086
956.410	-992
956.500	-682
956.589	-663
956.678	-978
956.767	-699
956.856	-1453
956.946	-818
957.035	-1088
957.124	135
957.213	-1153
957.302	-1411
957.391	-1636
957.480	-248
957.569	-987
957.658	-1638
957.747	-743
957.836	-905
957.925	-1683
958.014	-848
958.103	-599
958.192	-258
958.280	-1296
958.369	-914
958.458	-1321
958.547	-1731
958.635	-1073
958.724	-993
958.813	-1367
958.901	-274
958.990	-1016
959.079	-324
959.167	-398
959.256	-603
959.344	-822
959.433	-863
959.521	-813
959.610	-688
959.698	-1190
959.787	-642
959.875	-622
959.964	-639
960.052	-603
960.140	-431
960.228	-265
960.317	-903
960.405	-746
960.493	-273
960.581	-958
960.670	-1400
960.758	-1429
960.846	-1047
960.934	-630
961.022	-627
961.110	-1579
961.198	-57
961.286	-943
961.374	-69
961.462	-1137
961.550	-624
961.638	-798
961.726	-1021
961.814	-607
961.902	-677
961.990	-1998
962.078	-2069
962.165	-441
962.253	-242
962.341	-1116
962.429	-1000
962.516	-886
962.604	-374
962.692	-443
962.779	-615
962.867	-1033
962.955	-958
963.042	-459
963.130	-1265
963.217	-1029
963.305	-800
963.392	-1599
963.480	-301
963.567	-1106
963.654	-938
963.742	2
963.829	-479
963.917	3036
964.004	2202
964.091	-899
964.178	-968
964.266	-1526
964.353	-1009
964.440	-1927
964.527	-846
964.614	-924
964.701	-1017
964.789	-942
964.876	-1387
964.963	-749
965.050	-998
965.137	-1122
965.224	-1007
965.311	-1711
965.398	-1222
965.485	-1039
965.571	-1171
965.658	-1252
965.745	-597
965.832	-1465
965.919	-896
966.006	-1081
966.092	-736
966.179	-775
966.266	-916
966.352	-1246
966.439	-496
966.526	-1834
966.612	-226
966.699	-785
966.786	-639
966.872	-1153
966.959	-584
967.045	-1300
967.132	-760
967.218	-1614
967.304	-854
967.391	-899
967.477	284
967.564	-253
967.650	1146
967.736	285
967.822	-1610
967.909	-987
967.995	-1317
968.081	-1346
968.167	-1367
968.254	-855
968.340	-905
968.426	-1277
968.512	102
968.598	-928
968.684	-1373
968.770	-1050
968.856	-1637
968.942	-618
969.028	-561
969.114	-933
969.200	-1182
969.286	-724
969.372	-1090
969.457	-1344
969.543	-1287
969.629	-1296
969.715	-925
969.801	-332
969.886	-1550
969.972	-505
970.058	-498
970.143	-1407
970.229	-1029
970.315	-1175
970.400	-1015
970.486	-284
970.571	-1116
970.657	585
970.742	-831
970.828	-500
970.913	-471
970.999	-2029
971.084	-268
971.169	-1170
971.255	-609
971.340	-499
971.425	-977
971.511	-1199
971.596	-861
971.681	-1400
971.766	-1322
971.852	-843
971.937	-1040
972.022	-930
972.107	-1608
972.192	-1848
972.277	-646
972.362	-570
972.447	-1493
972.532	-1093
972.617	-1295
972.702	-1181
972.787	-728
972.872	-601
972.957	-286
973.042	-852
973.126	-1780
973.211	-1188
973.296	-1627
973.381	-783
973.466	-1960
973.550	-64
973.635	-1761
973.720	-1481
973.804	-928
973.889	-1127
973.973	-923
974.058	-909
974.143	-294
974.227	-1323
974.312	-155
974.396	-620
974.481	-131
974.565	-55
974.649	-1281
974.734	-955
974.818	-655
974.902	-1313
974.987	-691
975.071	-2095
975.155	-381
975.240	-1492
975.324	-900
975.408	-818
975.492	-1062
975.576	-1660
975.660	-860
975.744	-1257
975.829	-1666
975.913	-712
975.997	-373
976.081	-2279
976.165	-682
976.249	-981
976.333	-848
976.416	-501
976.500	-385
976.584	-1457
976.668	-1194
976.752	-1651
976.836	-1250
976.919	-1037
977.003	-1106
977.087	-58
977.171	-357
977.254	-880
977.338	-1848
977.422	-871
977.505	-696
977.589	-290
977.672	-1522
977.756	-1615
977.839	-738
977.923	-1440
978.006	-496
978.090	-663
978.173	-1007
978.257	-4
978.340	-1082
978.423	-840
978.507	-53
978.590	-1059
978.673	-1343
978.756	-968
978.840	-253
978.923	-1039
979.006	-1134
979.089	-1679
979.172	62
979.255	-707
979.338	-1144
979.422	-673
979.505	-1303
979.588	-1350
979.671	-1062
979.754	-2061
979.836	-1121
979.919	-1616
980.002	-1305
980.085	-1201
980.168	-1695
980.251	-868
980.334	-2119
980.416	-1372
980.499	-1263
980.582	-1294
980.665	-1390
980.747	-933
980.830	-1058
980.912	-635
980.995	-1379
981.078	-368
981.160	-1311
981.243	-2072
981.325	-1052
981.408	-899
981.490	-1645
981.573	-2187
981.655	-1359
981.738	-35
981.820	-1298
981.902	-1441
981.984	-1087
982.067	-942
982.149	-1814
982.231	-1460
982.314	-855
982.396	-1430
982.478	-2162
982.560	-1017
982.642	-1140
982.724	-1742
982.807	-1582
982.888	-1443
982.971	-1560
983.053	-848
983.135	-1288
983.216	-1437
983.298	-427
983.380	-1226
983.462	-980
983.544	-1259
983.626	-1671
983.708	-619
983.790	-1112
983.871	-455
983.953	-1231
984.035	-792
984.117	-1463
984.198	-1269
984.280	-988
984.362	-815
984.443	-762
984.525	-485
984.606	-1517
984.688	-940
984.769	-1836
984.851	-1619
984.932	-1743
985.014	-842
985.095	-1251
985.177	-1263
985.258	-1573
985.339	-1347
985.421	-1605
985.502	-1258
985.583	-545
985.664	-1205
985.746	-1118
985.827	-2193
985.908	-8
985.989	-261
986.070	-1144
986.151	-1269
986.232	-2181
986.313	-324
986.395	-1352
986.476	-1769
986.557	-1115
986.637	-1117
986.718	-1557
986.799	-1007
986.880	-864
986.961	-1109
987.042	-1251
987.123	-1817
987.204	-1066
987.284	-1494
987.365	-972
987.446	-1425
987.526	-1030
987.607	-947
987.688	-1141
987.768	-1042
987.849	-1391
987.930	-1670
988.010	-1432
988.091	-1421
988.171	-1263
988.252	-1665
988.332	-1135
988.413	-1480
988.493	-1590
988.573	-1639
988.654	-1797
988.734	-1413
988.814	-1590
988.895	-976
988.975	-1263
989.055	-1758
989.135	-1427
989.216	-1054
989.296	-790
989.376	-1432
989.456	-1542
989.536	-1097
989.616	-1158
989.696	-1498
989.776	-1770
989.856	-1137
989.936	-1329
990.016	-1236
990.096	-666
990.176	-1514
990.256	-1595
990.336	-747
990.416	-1799
990.495	-2460
990.575	-1825
990.655	-1156
990.735	-1328
990.814	-1177
990.894	-1775
990.974	-1264
991.053	-1478
991.133	-1046
991.213	-1782
991.292	-1148
991.372	-1712
991.451	-2099
991.531	-233
991.610	-1028
991.690	-1151
991.769	-1155
991.849	-1073
991.928	-1684
992.007	-345
992.087	-2262
992.166	-1939
992.245	-1640
992.324	-1026
992.404	-1758
992.483	-1400
992.562	-755
992.641	-1935
992.720	-1353
992.799	-669
992.879	-1940
992.958	-760
993.037	-1509
993.116	-1866
993.195	-788
993.274	-2109
993.353	-1329
993.432	-1384
993.510	-1265
993.589	-999
993.668	-1698
993.747	-1598
993.826	-1386
993.904	-1453
993.983	-892
994.062	-1542
994.141	-1236
994.219	-1678
994.298	-1980
994.377	-1133
994.455	-838
994.534	-2296
994.612	-1500
994.691	-1825
994.769	-1793
994.848	-838
994.926	-2517
995.005	-1044
995.083	-1282
995.161	-852
995.240	-1823
995.318	-1446
995.397	-1109
995.475	-1807
995.553	-1204
995.631	-1141
995.710	-1349
995.788	-1848
995.866	-1420
995.944	-632
996.022	-1457
996.100	-1713
996.178	-1335
996.256	-1550
996.334	-842
996.412	-1765
996.490	-858
996.568	-2256
996.646	-2161
996.724	-755
996.802	-903
996.880	-1561
996.958	-1226
997.036	-608
997.113	-1238
997.191	-1708
997.269	-2129
997.346	-2058
997.424	-981
997.502	-1922
997.579	-812
997.657	-1953
997.735	-1896
997.812	-1253
997.890	-2226
997.967	-1659
998.045	-1526
998.122	-1502
998.200	-1171
998.277	-1582
998.354	-1425
998.432	-2993
998.509	-1074
998.586	-1670
998.664	-2080
998.741	-1457
998.818	-2342
998.896	-2194
998.973	-1346
999.050	-1670
999.127	-1728
999.204	-873
999.281	-1497
999.358	-426
999.435	-1895
999.512	-2437
999.589	-1736
999.666	-1821
999.743	-1528
999.820	-1598
999.897	-1653
999.974	-1194
1000.051	-1802
1000.128	-1768
1000.205	-2219
1000.281	-1181
1000.358	-2410
1000.435	-1271
1000.512	-1693
1000.588	-1174
1000.665	-1606
1000.741	-2002
1000.818	-1253
1000.895	-2357
1000.971	-2248
1001.048	-1298
1001.124	-1501
1001.201	-2148
1001.277	-2347
1001.354	-1070
1001.430	-2390
1001.507	-1680
1001.583	-1241
1001.659	-2276
1001.736	-2293
1001.812	-1635
1001.888	-1532
1001.964	-1667
1002.041	-1111
1002.117	-1178
1002.193	-1433
1002.269	-1162
1002.345	-1914
1002.421	-2427
1002.497	-2470
1002.573	-853
1002.649	-1707
1002.725	-2093
1002.801	-1965
1002.877	-1400
1002.953	-1588
1003.029	-1301
1003.105	-1869
1003.181	-1813
1003.257	-2810
1003.333	-2100
1003.408	-1704
1003.484	-1724
1003.560	-1437
1003.636	-1644
1003.711	-1735
1003.787	-2268
1003.862	-1451
1003.938	-1899
1004.014	-1939
1004.089	-2846
1004.165	-2427
1004.240	-975
1004.316	-1773
1004.391	-2361
1004.467	-1057
1004.542	-2135
1004.617	-2524
1004.693	-2512
1004.768	-2648
1004.844	-1595
1004.919	-1728
1004.994	-1199
1005.069	-2200
1005.145	-1720
1005.220	-1626
1005.295	-1618
1005.370	-1580
1005.445	-1475
1005.520	-2278
1005.595	-1624
1005.670	-1830
1005.745	-2005
1005.820	-1861
1005.895	-1648
1005.970	-2156
1006.045	-1434
1006.120	-2149
1006.195	-1822
1006.270	-2058
1006.345	-2415
1006.419	-2068
1006.494	-1429
1006.569	-1397
1006.644	-2009
1006.718	-1548
1006.793	-1612
1006.868	-1854
1006.942	-592
1007.017	-2265
1007.092	-1443
1007.166	-1921
1007.241	-1368
1007.315	-1514
1007.390	-2075
1007.464	-1798
1007.539	-1846
1007.613	-2468
1007.687	-1485
1007.762	-1900
1007.836	-1484
1007.910	-1265
1007.984	-1916
1008.059	-1947
1008.133	-1669
1008.207	-2493
1008.281	-1075
1008.356	-2386
1008.430	-2743
1008.504	-2666
1008.578	-2160
1008.652	-2222
1008.726	-2341
1008.800	-1928
1008.874	-2531
1008.948	-2404
1009.022	-1658
1009.096	-2113
1009.170	-2788
1009.244	-2354
1009.317	-1425
1009.391	-2157
1009.465	-1734
1009.539	-2137
1009.613	-1802
1009.686	-1592
1009.760	-2032
1009.834	-1734
1009.907	-1922
1009.981	-1746
1010.054	-1432
1010.128	-2206
1010.201	-1852
1010.275	-1686
1010.349	-2201
1010.422	-1307
1010.495	-2133
1010.569	-1550
1010.642	-1988
1010.716	-615
1010.789	-3034
1010.862	-1943
1010.936	-1844
1011.009	-2126
1011.082	-2254
1011.155	-2623
1011.229	-1357
1011.302	-2461
1011.375	-1407
1011.448	-2617
1011.521	-1924
1011.594	-2181
1011.667	-2220
1011.740	-1927
1011.813	-1664
1011.886	-2231
1011.959	-1473
1012.032	-1812
1012.105	-1353
1012.178	-3016
1012.251	-2145
1012.324	-2133
1012.396	-1932
1012.469	-2126
1012.542	-3007
1012.614	-1079
1012.687	-2643
1012.760	-1896
1012.833	-1493
1012.905	-2612
1012.978	-876
1013.050	-1917
1013.123	-2257
1013.195	-2273
1013.268	-2059
1013.340	-2466
1013.413	-1363
1013.485	-3054
1013.558	-2360
1013.630	-1371
1013.702	-1820
1013.775	-3052
1013.847	-2641
1013.919	-2657
1013.992	-2852
1014.064	-1304
1014.136	-2340
1014.208	-2302
1014.280	-1861
1014.353	-2702
1014.425	-2538
1014.497	-2330
1014.569	-2084
1014.641	-2799
1014.713	-1809
1014.785	-2540
1014.857	-1948
1014.929	-3176
1015.001	-2694
1015.072	-2290
1015.144	-2914
1015.216	-2155
1015.288	-1972
1015.360	-1839
1015.431	-2700
1015.503	-2236
1015.575	-2224
1015.647	-1990
1015.718	-2101
1015.790	-2199
1015.861	-1895
1015.933	-2219
1016.005	-2368
1016.076	-2432
1016.148	-2344
1016.219	-1770
1016.291	-1875
1016.362	-2639
1016.433	-2351
1016.505	-1596
1016.576	-1684
1016.647	-2657
1016.719	-1780
1016.790	-740
1016.861	-1926
1016.932	-1874
1017.004	-2155
1017.075	-2539
1017.146	-2085
1017.217	-3011
1017.288	-1947
1017.359	-2214
1017.430	-1903
1017.502	-2671
1017.573	-2329
1017.644	-2324
1017.714	-2437
1017.785	-2209
1017.856	-2287
1017.927	-2414
1017.998	-2145
1018.069	-2692
1018.140	-2943
1018.210	-2013
1018.281	-2070
1018.352	-2471
1018.423	-2719
1018.493	-2479
1018.564	-1915
1018.635	-2212
1018.705	-1941
1018.776	-2611
1018.846	-2276
1018.917	-1730
1018.987	-1686
1019.058	-1983
1019.128	-1709
1019.199	-1592
1019.269	-1110
1019.340	-2053
1019.410	-2465
1019.480	-2318
1019.551	-2522
1019.621	-1810
1019.691	-1949
1019.761	-2851
1019.832	-2264
1019.902	-1883
1019.972	-2488
1020.042	-2290
1020.112	-2158
1020.182	-2806
1020.252	-2088
1020.322	-1961
1020.392	-2302
1020.462	-2624
1020.532	-2669
1020.602	-2218
1020.672	-2363
1020.742	-2819
1020.812	-1385
1020.882	-1881
1020.952	-2475
1021.021	-2387
1021.091	-1847
1021.161	-2696
1021.230	-2291
1021.300	-2222
1021.370	-2426
1021.440	-3071
1021.509	-2015
1021.579	-2773
1021.648	-2607
1021.718	-2189
1021.787	-3104
1021.857	-2794
1021.926	-1650
1021.996	-2167
1022.065	-1572
1022.134	-2099
1022.204	-1525
1022.273	-2315
1022.342	-1925
1022.412	-1983
1022.481	-2100
1022.550	-2241
1022.619	-2176
1022.689	-2072
1022.758	-2390
1022.827	-2620
1022.896	-2374
1022.965	-1527
1023.034	-1497
1023.103	-1988
1023.172	-2512
1023.241	-2333
1023.310	-1865
1023.379	-2284
1023.448	-1699
1023.517	-2752
1023.586	-2076
1023.654	-2474
1023.723	-1612
1023.792	-2340
1023.861	-2190
1023.929	-2461
1023.998	-2307
1024.067	-2415
1024.135	-2159
1024.204	-2551
1024.273	-2003
1024.341	-2517
1024.410	-2370
1024.478	-1974
1024.547	-1981
1024.615	-2207
1024.684	-2247
1024.752	-2003
1024.820	-2497
1024.889	-1205
1024.957	-2008
1025.026	-2264
1025.094	-1978
1025.162	-2068
1025.230	-2268
1025.299	-2679
1025.367	-2622
1025.435	-2224
1025.503	-2853
1025.571	-2314
1025.639	-1904
1025.707	-2643
1025.776	-2122
1025.844	-2027
1025.912	-1647
1025.979	-3008
1026.047	-2722
1026.115	-2070
1026.183	-1615
1026.251	-1623
1026.319	-2200
1026.387	-2093
1026.454	-1971
1026.522	-2722
1026.590	-2423
1026.658	-2085
1026.725	-1446
1026.793	-2484
1026.861	-2642
1026.928	-2071
1026.996	-2576
1027.064	-2471
1027.131	-2166
1027.199	-2455
1027.266	-1762
1027.334	-2260
1027.401	-2338
1027.468	-2345
1027.536	-2145
1027.603	-2794
1027.671	-2285
1027.738	-2418
1027.805	-2382
1027.872	-2135
1027.940	-2388
1028.007	-2507
1028.074	-2172
1028.141	-1783
1028.208	-2196
1028.275	-2466
1028.342	-2813
1028.409	-2284
1028.477	-2352
1028.544	-2744
1028.610	-1951
1028.678	-3546
1028.744	-1841
1028.811	-2095
1028.878	-1523
1028.945	-2380
1029.012	-2443
1029.079	-2957
1029.146	-1946
1029.212	-2204
1029.279	-2210
1029.346	-2793
1029.412	-2000
1029.479	-1620
1029.546	-2403
1029.612	-2956
1029.679	-2027
1029.745	-2885
1029.812	-1540
1029.878	-2461
1029.945	-2310
1030.011	-1270
1030.078	-2541
1030.144	-2135
1030.210	-1835
1030.277	-2631
1030.343	-1717
1030.409	-2288
1030.476	-1932
1030.542	-2317
1030.608	-2182
1030.674	-1872
1030.740	-2049
1030.807	-2150
1030.873	-2424
1030.939	-2241
1031.005	-2374
1031.071	-2735
1031.137	-1937
1031.203	-2205
1031.269	-1620
1031.335	-2091
1031.401	-1459
1031.467	-2473
1031.533	-2190
1031.598	-1712
1031.664	-2529
1031.730	-3161
1031.796	-2616
1031.861	-1976
1031.927	-1743
1031.993	-2529
1032.058	-2296
1032.124	-2859
1032.190	-2240
1032.255	-2083
1032.321	-3078
1032.386	-2681
1032.452	-2018
1032.518	-2632
1032.583	-1856
1032.648	-2028
1032.714	-2199
1032.779	-2669
1032.844	-1912
1032.910	-2212
1032.975	-2615
1033.040	-1980
1033.106	-2360
1033.171	-3010
1033.236	-2310
1033.301	-1826
1033.366	-2580
1033.432	-2382
1033.496	-1558
1033.562	-1927
1033.627	-2683
1033.692	-2594
1033.757	-2679
1033.822	-1652
1033.887	-2089
1033.952	-2293
1034.016	-2073
1034.081	-2513
1034.146	-1589
1034.211	-2162
1034.276	-1506
1034.340	-1364
1034.405	-1854
1034.470	-1931
1034.535	-1380
1034.599	-1686
1034.664	-1484
1034.729	-1789
1034.793	-2066
1034.858	-1995
1034.922	-2288
1034.987	-2726
1035.051	-2489
1035.116	-2269
1035.180	-2094
1035.245	-2196
1035.309	-1659
1035.373	-1897
1035.437	-2467
1035.502	-2271
1035.566	-2138
1035.630	-2808
1035.695	-2817
1035.759	-2466
1035.823	-2710
1035.887	-2276
1035.951	-2302
1036.015	-2699
1036.079	-2219
1036.143	-2506
1036.208	-2346
1036.271	-2236
1036.336	-2931
1036.399	-2501
1036.463	-1956
1036.527	-1974
1036.591	-1804
1036.655	-2706
1036.719	-2572
1036.783	-2650
1036.846	-1041
1036.910	-437
1036.974	-2387
1037.037	-2472
1037.101	-1522
1037.165	-2619
1037.228	-2890
1037.292	-2046
1037.355	-2228
1037.419	-2266
1037.483	-2627
1037.546	-2751
1037.609	-2557
1037.673	-2262
1037.736	-2705
1037.800	-2878
1037.863	-2610
1037.926	-2500
1037.990	-2451
1038.053	-2241
1038.116	-2334
1038.179	-1939
1038.243	-2585
1038.306	-2500
1038.369	-2255
1038.432	-1902
1038.495	-2297
1038.558	-2541
1038.621	-1994
1038.684	-2345
1038.747	-2647
1038.810	-2041
1038.873	-2471
1038.936	-1810
1038.999	-2551
1039.062	-2126
1039.125	-2440
1039.188	-3194
1039.250	-2786
1039.313	-2734
1039.376	-2973
1039.438	-2808
1039.501	-1778
1039.564	-2601
1039.627	-2598
1039.689	-1791
1039.752	-2870
1039.814	-2156
1039.877	-2025
1039.939	-2707
1040.002	-2568
1040.064	-1907
1040.127	-3054
1040.189	-2768
1040.251	-1576
1040.314	-2254
1040.376	-2142
1040.438	-2628
1040.501	-1788
1040.563	-1838
1040.625	-2200
1040.687	-2247
1040.750	-2591
1040.812	-3395
1040.874	-2936
1040.936	-3179
1040.998	-1944
1041.060	-2384
1041.122	-2835
1041.184	-2859
1041.246	-2030
1041.308	-2378
1041.370	-1848
1041.432	-2919
1041.494	-2811
1041.555	-2181
1041.617	-2947
1041.679	-2959
1041.741	-2740
1041.802	-3561
1041.864	-2466
1041.926	-2171
1041.987	-2712
1042.049	-2954
1042.111	-2783
1042.172	-2264
1042.234	-2671
1042.295	-2607
1042.357	-2755
1042.418	-2257
1042.480	-2702
1042.541	-2844
1042.603	-2448
1042.664	-2804
1042.725	-2757
1042.786	-2314
1042.848	-2533
1042.909	-2210
1042.970	-2756
1043.031	-2013
1043.093	-2765
1043.154	-2943
1043.215	-1533
1043.276	-1788
1043.337	-2431
1043.398	-2697
1043.459	-1916
1043.520	-2651
1043.581	-1743
1043.642	-1595
1043.703	-2383
1043.764	-3093
1043.825	-1907
1043.886	-2578
1043.947	-2071
1044.007	-1885
1044.068	-2565
1044.129	-2969
1044.189	-2135
1044.250	-2408
1044.311	-2634
1044.371	-2239
1044.432	-3155
1044.493	-2460
1044.553	-2154
1044.614	-2360
1044.674	-3220
1044.735	-1741
1044.795	-2704
1044.856	-2401
1044.916	-1670
1044.976	-3086
1045.037	-2412
1045.097	-3183
1045.157	-2190
1045.218	-1956
1045.278	-3034
1045.338	-2921
1045.398	-2531
1045.458	-1519
1045.519	-2240
1045.579	-2170
1045.639	-2537
1045.699	-1929
1045.759	-2307
1045.819	-2561
1045.879	-3073
1045.939	-3342
1045.999	-2266
1046.059	-2558
1046.119	-1566
1046.179	-1874
1046.238	-1405
1046.298	-2413
1046.358	-2015
1046.418	-2354
1046.477	-1512
1046.537	-2029
1046.597	-2239
1046.656	-1712
1046.716	-1325
1046.776	-1152
1046.835	-1233
1046.895	-1828
1046.954	-1092
1047.014	-1390
1047.073	-1383
1047.133	0
