'Start Wavelength	183.907
'End Wavelength	1046.922
'Gate Delay	5.000
'Gate Width (ms)	1.050
'Laser Output Level	0.000
'X Position	0.000
'Y Position	0.000
'Z Position	0.000
'Grid Point Number	1.000
'Shot Number	100.000
183.907	299.000
183.977	-119.000
184.047	-34
184.116	295
184.186	143
184.256	66
184.325	44
184.395	-297
184.465	-132
184.534	429
184.604	-53
184.674	75
184.743	-675
184.813	-223
184.883	-463
184.952	40
185.022	-600
185.092	-58
185.161	-631
185.231	-726
185.301	550
185.370	-295
185.440	-1330
185.509	-649
185.579	-604
185.649	-54
185.718	-727
185.788	-54
185.857	-518
185.927	-494
185.996	155
186.066	-361
186.136	317
186.205	-7
186.275	-665
186.344	-112
186.414	-365
186.483	-363
186.553	-102
186.622	-561
186.692	-244
186.761	276
186.831	-443
186.900	168
186.970	-639
187.039	293
187.109	-146
187.178	-6
187.248	-267
187.317	90
187.387	-667
187.456	-219
187.526	-360
187.595	145
187.664	-340
187.734	-50
187.803	33
187.873	-17
187.942	-317
188.012	-676
188.081	-455
188.150	-666
188.220	118
188.289	-864
188.358	-611
188.428	318
188.497	-494
188.567	-40
188.636	-85
188.705	-287
188.775	-33
188.844	-312
188.913	-88
188.983	226
189.052	9
189.121	-76
189.191	-920
189.260	-418
189.329	-357
189.399	-455
189.468	-246
189.537	-57
189.606	-99
189.676	-381
189.745	483
189.814	475
189.883	-868
189.953	-416
190.022	41
190.091	383
190.161	286
190.230	-333
190.299	20
190.368	323
190.437	-336
190.507	-93
190.576	-782
190.645	124
190.714	-559
190.783	-235
190.853	304
190.922	-349
190.991	-15
191.060	398
191.129	-867
191.198	305
191.268	-413
191.337	-380
191.406	-84
191.475	-215
191.544	-97
191.613	817
191.682	-249
191.752	-50
191.821	-460
191.890	171
191.959	288
192.028	-9
192.097	-182
192.166	382
192.235	-1067
192.304	269
192.373	203
192.442	-386
192.511	-205
192.580	-202
192.650	-213
192.719	220
192.788	142
192.857	513
192.926	-702
192.995	-240
193.064	-552
193.133	545
193.202	127
193.271	-147
193.340	234
193.409	-554
193.478	-599
193.547	313
193.615	-34
193.684	-230
193.753	243
193.822	-45
193.891	-488
193.960	589
194.029	-519
194.098	209
194.167	-916
194.236	1
194.305	-231
194.374	112
194.443	193
194.512	160
194.580	-16
194.649	537
194.718	-370
194.787	-653
194.856	-480
194.925	-87
194.994	-1203
195.062	149
195.131	-241
195.200	291
195.269	-759
195.338	-307
195.407	-241
195.475	158
195.544	161
195.613	-537
195.682	-12
195.751	-68
195.819	-385
195.888	-248
195.957	365
196.026	-287
196.094	21
196.163	82
196.232	117
196.301	297
196.369	32
196.438	-299
196.507	-211
196.576	-393
196.644	-819
196.713	-258
196.782	-441
196.850	448
196.919	-97
196.988	-357
197.056	-505
197.125	-128
197.194	-133
197.262	67
197.331	-121
197.400	54
197.468	-516
197.537	-62
197.606	282
197.674	-361
197.743	-197
197.812	-344
197.880	417
197.949	-676
198.017	23
198.086	85
198.155	-263
198.223	-7
198.292	197
198.360	-215
198.429	-604
198.497	68
198.566	-284
198.635	-257
198.703	69
198.772	440
198.840	652
198.909	433
198.977	-346
199.046	-63
199.114	-3
199.183	-489
199.251	100
199.320	-110
199.388	-67
199.457	-463
199.525	-538
199.594	-316
199.662	-766
199.731	-242
199.799	247
199.867	-56
199.936	-174
200.004	19
200.073	-402
200.141	35
200.210	-1258
200.278	-322
200.346	-186
200.415	-282
200.483	593
200.552	-245
200.620	-841
200.688	-15
200.757	-466
200.825	411
200.893	-1339
200.962	19
201.030	-489
201.098	-177
201.167	-430
201.235	-68
201.303	-904
201.372	-360
201.440	-87
201.508	-80
201.577	-487
201.645	-349
201.713	-574
201.781	-246
201.850	-568
201.918	-534
201.986	-506
202.055	-433
202.123	-16
202.191	596
202.259	-710
202.327	-776
202.396	-555
202.464	-243
202.532	-499
202.600	284
202.669	342
202.737	-165
202.805	-124
202.873	402
202.941	328
203.009	-336
203.078	-918
203.146	-134
203.214	-587
203.282	-393
203.350	-700
203.418	128
203.487	-963
203.555	-713
203.623	-361
203.691	-152
203.759	204
203.827	-396
203.895	-874
203.963	-137
204.031	292
204.099	-3
204.168	-214
204.236	-146
204.304	-931
204.372	-1212
204.440	-794
204.508	-276
204.576	-589
204.644	-152
204.712	-186
204.780	-741
204.848	-663
204.916	-327
204.984	-735
205.052	-667
205.120	-332
205.188	-595
205.256	-788
205.324	-159
205.392	-489
205.460	-261
205.528	-683
205.596	-109
205.664	-208
205.732	-470
205.799	89
205.867	1034
205.935	-591
206.003	15
206.071	-568
206.139	-422
206.207	-283
206.275	-642
206.343	-840
206.411	-623
206.478	-605
206.546	110
206.614	-714
206.682	40
206.750	-828
206.818	131
206.885	-477
206.953	-1035
207.021	-315
207.089	-98
207.157	-128
207.225	-185
207.292	-639
207.360	-358
207.428	-372
207.496	-464
207.563	-213
207.631	-53
207.699	-423
207.767	128
207.834	-465
207.902	20
207.970	-770
208.038	-844
208.105	-416
208.173	273
208.241	-529
208.309	-199
208.376	-440
208.444	-27
208.512	-409
208.579	-335
208.647	84
208.715	-194
208.782	-160
208.850	430
208.918	-598
208.985	107
209.053	8
209.120	301
209.188	-1220
209.256	15
209.323	-873
209.391	-977
209.459	423
209.526	201
209.594	-509
209.661	167
209.729	-388
209.796	-631
209.864	-706
209.932	-1448
209.999	23
210.067	319
210.134	-626
210.202	-305
210.269	-712
210.337	-252
210.404	-915
210.472	119
210.539	129
210.607	247
210.674	54
210.742	-755
210.809	-331
210.877	293
210.944	-155
211.012	-352
211.079	657
211.146	-24
211.214	-136
211.281	-294
211.349	-232
211.416	168
211.484	307
211.551	-65
211.618	-135
211.686	-272
211.753	-1032
211.821	210
211.888	-313
211.955	57
212.023	-388
212.090	-312
212.157	-452
212.225	-638
212.292	-19
212.359	-381
212.427	2227
212.494	321
212.561	-343
212.629	-129
212.696	-661
212.763	5
212.831	-155
212.898	-708
212.965	-66
213.032	-501
213.100	-324
213.167	-389
213.234	94
213.301	15
213.369	34
213.436	-185
213.503	-301
213.570	471
213.638	14
213.705	-800
213.772	-1348
213.839	-949
213.906	-560
213.973	604
214.041	-371
214.108	-92
214.175	-311
214.242	-182
214.309	-265
214.376	-305
214.444	-188
214.511	-8
214.578	-1135
214.645	87
214.712	-266
214.779	-463
214.846	-488
214.913	-29
214.980	367
215.048	-299
215.115	-196
215.182	609
215.249	-92
215.316	-809
215.383	-483
215.450	278
215.517	-55
215.584	-34
215.651	-394
215.718	-433
215.785	-542
215.852	-820
215.919	-281
215.986	-277
216.053	7
216.120	-275
216.187	-387
216.254	-204
216.321	-660
216.388	-135
216.455	-701
216.522	279
216.589	170
216.656	-100
216.722	-166
216.789	-223
216.856	29
216.923	268
216.990	-733
217.057	-17
217.124	-409
217.191	-1074
217.258	-185
217.324	112
217.391	-87
217.458	-421
217.525	-752
217.592	-188
217.659	-967
217.725	195
217.792	156
217.859	232
217.926	-272
217.993	-765
218.059	60
218.126	165
218.193	208
218.260	143
218.327	6
218.393	-548
218.460	-383
218.527	-372
218.594	-596
218.660	101
218.727	-241
218.794	49
218.860	296
218.927	-708
218.994	-601
219.061	-147
219.127	-473
219.194	157
219.261	-321
219.327	-1049
219.394	156
219.461	-69
219.527	-377
219.594	345
219.661	-1002
219.727	-881
219.794	-404
219.860	-474
219.927	-209
219.994	532
220.060	-15
220.127	-206
220.193	706
220.260	-123
220.326	586
220.393	-61
220.460	637
220.526	-289
220.593	-214
220.659	606
220.726	-381
220.792	682
220.859	-240
220.925	342
220.992	1405
221.058	979
221.125	584
221.191	888
221.258	-150
221.324	200
221.391	-891
221.457	-170
221.524	228
221.590	-231
221.657	623
221.723	-220
221.789	173
221.856	773
221.922	-351
221.989	-547
222.055	-806
222.121	-841
222.188	-91
222.254	60
222.321	-567
222.387	-487
222.453	-174
222.520	-115
222.586	-789
222.652	-867
222.719	-2
222.785	32
222.851	-864
222.918	230
222.984	-613
223.050	330
223.116	-1114
223.183	458
223.249	-951
223.315	-302
223.382	-874
223.448	34
223.514	-754
223.580	-1058
223.647	-449
223.713	-726
223.779	133
223.845	-784
223.911	-501
223.978	-210
224.044	-555
224.110	-389
224.176	-198
224.242	-433
224.309	-980
224.375	-80
224.441	96
224.507	-530
224.573	-689
224.639	333
224.705	-1026
224.772	-1014
224.838	-613
224.904	-171
224.970	-225
225.036	-1098
225.102	-720
225.168	370
225.234	-458
225.300	-579
225.366	-454
225.432	-219
225.499	-778
225.565	-208
225.631	-611
225.697	-384
225.763	-314
225.829	-114
225.895	-686
225.961	-368
226.027	-402
226.093	-685
226.159	-241
226.225	417
226.291	1325
226.357	2299
226.423	-92
226.489	25
226.554	-90
226.620	-523
226.686	37
226.752	245
226.818	467
226.884	3723
226.950	2794
227.016	-52
227.082	263
227.148	656
227.214	-269
227.279	-189
227.345	-363
227.411	132
227.477	-731
227.543	-437
227.609	206
227.674	219
227.740	-253
227.806	-18
227.872	-1330
227.938	-236
228.003	-514
228.069	-495
228.135	329
228.201	261
228.267	-1251
228.332	-322
228.398	-698
228.464	493
228.530	-783
228.595	-324
228.661	-904
228.727	-608
228.792	-190
228.858	-375
228.924	-1561
228.990	476
229.055	-1629
229.121	-698
229.187	169
229.252	-308
229.318	-1126
229.384	-419
229.449	-753
229.515	-1597
229.581	-1242
229.646	615
229.712	-359
229.777	41
229.843	-578
229.909	-186
229.974	-394
230.040	-138
230.105	-426
230.171	-243
230.236	-681
230.302	-209
230.368	-442
230.433	-524
230.499	51
230.564	67
230.630	-894
230.695	-375
230.761	-469
230.826	-1334
230.892	122
230.957	-773
231.023	-778
231.088	-324
231.154	-811
231.219	113
231.284	-534
231.350	-269
231.415	-368
231.481	18
231.546	-1353
231.612	-111
231.677	-1184
231.742	-255
231.808	220
231.873	349
231.939	-1593
232.004	-511
232.069	771
232.135	-300
232.200	-649
232.265	-458
232.331	-784
232.396	-112
232.461	-495
232.527	416
232.592	-697
232.657	-733
232.723	-305
232.788	-304
232.853	-504
232.918	-486
232.984	-651
233.049	51
233.114	-419
233.179	-266
233.245	4
233.310	-107
233.375	-1063
233.440	-969
233.506	-441
233.571	-769
233.636	-617
233.701	-563
233.766	-969
233.832	-101
233.897	-66
233.962	-858
234.027	262
234.092	-242
234.157	-730
234.222	-809
234.288	-42
234.353	853
234.418	-532
234.483	853
234.548	-774
234.613	-21
234.678	258
234.743	-228
234.808	404
234.873	-483
234.938	227
235.004	-568
235.069	-29
235.134	-406
235.199	-333
235.264	-478
235.329	-468
235.394	463
235.459	150
235.524	-680
235.589	-711
235.654	235
235.719	-1617
235.784	231
235.849	-1106
235.913	211
235.978	-398
236.043	-25
236.108	-350
236.173	-32
236.238	312
236.303	-1083
236.368	-1062
236.433	-134
236.498	-277
236.563	115
236.627	372
236.692	4509
236.757	2099
236.822	442
236.887	-139
236.952	-210
237.017	-1091
237.081	45
237.146	-570
237.211	1740
237.276	4800
237.341	7080
237.405	930
237.470	459
237.535	-234
237.600	652
237.664	86
237.729	-613
237.794	-57
237.859	796
237.923	-241
237.988	35
238.053	351
238.118	-90
238.182	473
238.247	1508
238.312	-1027
238.376	277
238.441	-1936
238.506	512
238.570	-419
238.635	687
238.700	-368
238.764	-1010
238.829	-221
238.893	17
238.958	-269
239.023	-140
239.087	-620
239.152	-573
239.216	-1092
239.281	374
239.346	69
239.410	-418
239.475	-464
239.539	941
239.604	-293
239.668	-163
239.733	-288
239.797	-720
239.862	-193
239.926	47
239.991	-25
240.055	417
240.120	-71
240.184	-813
240.249	-457
240.313	-143
240.378	-1338
240.442	453
240.507	106
240.571	126
240.635	-1047
240.700	-144
240.764	-873
240.829	-324
240.893	-683
240.957	-640
241.022	-190
241.086	321
241.151	-656
241.215	-817
241.279	-433
241.344	221
241.408	-346
241.472	-850
241.537	-639
241.601	678
241.665	-1115
241.730	-806
241.794	-360
241.858	-414
241.922	-1058
241.987	-174
242.051	-349
242.115	-596
242.179	-260
242.244	-1357
242.308	172
242.372	-811
242.436	-1003
242.501	-516
242.565	-909
242.629	-663
242.693	-13
242.757	-777
242.822	-1026
242.886	303
242.950	-395
243.014	-210
243.078	70
243.142	-421
243.206	-1257
243.271	131
243.335	-663
243.399	178
243.463	1614
243.527	5552
243.591	651
243.655	1454
243.719	-743
243.783	727
243.847	-511
243.911	368
243.975	-717
244.040	-1370
244.104	402
244.168	-976
244.232	-750
244.296	616
244.360	-431
244.424	-352
244.488	-286
244.552	314
244.615	-1492
244.679	-303
244.743	-805
244.807	-571
244.871	-252
244.935	173
244.999	-1550
245.063	-420
245.127	-560
245.191	-254
245.255	-680
245.319	-353
245.383	-1565
245.446	145
245.510	-261
245.574	-211
245.638	165
245.702	-914
245.766	-36
245.829	-418
245.893	-931
245.957	-1013
246.021	-425
246.085	-455
246.149	-624
246.212	779
246.276	978
246.340	-244
246.404	186
246.467	1084
246.531	-1044
246.595	748
246.659	-233
246.722	-863
246.786	422
246.850	-577
246.913	113
246.977	-1348
247.041	-519
247.104	-591
247.168	-368
247.232	-243
247.295	1554
247.359	577
247.423	-430
247.486	450
247.550	304
247.614	-850
247.677	-98
247.741	-12
247.804	-514
247.868	470
247.932	611
247.995	2660
248.059	-136
248.122	-1399
248.186	-335
248.249	982
248.313	3179
248.376	3144
248.440	1631
248.503	-702
248.567	1549
248.630	264
248.694	84
248.757	1109
248.821	3764
248.884	2110
248.948	840
249.011	2634
249.075	5065
249.138	4014
249.202	841
249.265	520
249.328	826
249.392	-562
249.455	43
249.519	-534
249.582	-48
249.645	1124
249.709	-487
249.772	1057
249.835	632
249.899	513
249.962	236
250.025	-533
250.089	1317
250.152	2758
250.215	505
250.279	-832
250.342	322
250.405	554
250.468	-490
250.532	-184
250.595	1422
250.658	5451
250.721	9139
250.785	1213
250.848	1700
250.911	190
250.974	605
251.038	783
251.101	2826
251.164	145
251.227	341
251.290	446
251.354	1192
251.417	9279
251.480	6353
251.543	5322
251.606	17365
251.669	9139
251.732	2227
251.795	3407
251.859	4047
251.922	10574
251.985	4643
252.048	2133
252.111	1270
252.174	739
252.237	1154
252.300	3999
252.363	5381
252.426	13151
252.489	3447
252.552	2178
252.615	523
252.678	2342
252.741	4482
252.804	5290
252.867	12818
252.930	6138
252.993	2467
253.056	1636
253.119	920
253.182	206
253.245	775
253.308	1053
253.371	-79
253.434	-8
253.497	1195
253.559	2946
253.622	1190
253.685	1087
253.748	-89
253.811	-835
253.874	807
253.937	-203
254.000	-535
254.062	233
254.125	1261
254.188	1673
254.251	67
254.314	-122
254.376	-508
254.439	692
254.502	765
254.565	859
254.628	2084
254.690	-91
254.753	-812
254.816	59
254.878	-305
254.941	1231
255.004	909
255.067	364
255.129	-568
255.192	-673
255.255	-1199
255.317	656
255.380	-131
255.443	-388
255.505	-453
255.568	-252
255.631	-533
255.693	-285
255.756	-1038
255.819	77
255.881	-796
255.944	629
256.006	-977
256.069	-524
256.132	-1030
256.194	-627
256.257	-395
256.319	141
256.382	-361
256.444	383
256.507	-344
256.569	-1882
256.632	-1176
256.694	-216
256.757	2411
256.819	6143
256.882	904
256.944	-423
257.007	698
257.069	-278
257.132	-205
257.194	322
257.257	-680
257.319	-551
257.381	-947
257.444	1226
257.506	7746
257.569	6518
257.631	2804
257.693	767
257.756	-165
257.818	80
257.880	-1106
257.943	-121
258.005	-748
258.067	-824
258.130	406
258.192	-529
258.254	-797
258.317	-822
258.379	142
258.441	566
258.503	1065
258.566	870
258.628	1191
258.690	-1282
258.753	-22
258.815	-248
258.877	-564
258.939	-289
259.001	-361
259.064	-823
259.126	-762
259.188	-466
259.250	-494
259.312	-274
259.375	1245
259.437	-120
259.499	16
259.561	-259
259.623	54
259.685	-2112
259.747	-966
259.809	1035
259.872	1864
259.934	3950
259.996	2506
260.058	521
260.120	-503
260.182	-61
260.244	-539
260.306	-945
260.368	-220
260.430	-1699
260.492	-34
260.554	975
260.616	342
260.678	1070
260.740	1238
260.802	-576
260.864	-321
260.926	-966
260.988	247
261.050	-494
261.112	-560
261.174	2639
261.236	623
261.298	-192
261.359	-294
261.421	725
261.483	-1192
261.545	-137
261.607	-1017
261.669	-270
261.731	546
261.793	1100
261.854	-1518
261.916	199
261.978	-80
262.040	178
262.102	-664
262.164	-772
262.225	-316
262.287	-114
262.349	-680
262.411	-717
262.472	-537
262.534	-990
262.596	-114
262.658	-138
262.719	-1040
262.781	450
262.843	-191
262.904	175
262.966	-85
263.028	-54
263.090	3418
263.151	7707
263.213	1709
263.275	-147
263.336	-717
263.398	618
263.459	-1332
263.521	-604
263.583	93
263.644	-24
263.706	-613
263.767	-765
263.829	-590
263.891	-616
263.952	78
264.014	-1389
264.075	-1063
264.137	882
264.198	-510
264.260	-985
264.321	-356
264.383	71
264.444	806
264.506	-198
264.567	-1106
264.629	247
264.690	-547
264.752	-817
264.813	-784
264.875	-1395
264.936	-504
264.998	-750
265.059	-1066
265.120	-272
265.182	-659
265.243	3211
265.305	1404
265.366	-183
265.427	-50
265.489	124
265.550	-1224
265.611	-708
265.673	-775
265.734	-565
265.795	-624
265.857	-1128
265.918	-710
265.979	1243
266.040	5472
266.102	2827
266.163	-90
266.224	-34
266.286	-634
266.347	-1000
266.408	-776
266.469	-642
266.530	-304
266.592	-755
266.653	89
266.714	600
266.775	-432
266.836	-88
266.898	-490
266.959	-1210
267.020	-928
267.081	-217
267.142	-643
267.203	-961
267.264	-1632
267.326	-415
267.387	-1079
267.448	-1365
267.509	-134
267.570	-660
267.631	-1264
267.692	-1316
267.753	-617
267.814	-866
267.875	-221
267.936	447
267.997	-696
268.058	-568
268.119	-762
268.180	-583
268.241	-1737
268.302	-648
268.363	-477
268.424	-717
268.485	-10
268.546	-1341
268.607	-1042
268.668	-718
268.729	-1013
268.790	-151
268.851	-814
268.912	-525
268.972	-1024
269.033	-1008
269.094	-2486
269.155	-492
269.216	-414
269.277	-772
269.338	-1537
269.398	-725
269.459	-1584
269.520	-437
269.581	-814
269.642	-1172
269.702	-1493
269.763	-400
269.824	-989
269.885	-830
269.945	-412
270.006	-198
270.067	-691
270.128	-445
270.188	-1025
270.249	-1004
270.310	-1540
270.370	-198
270.431	-588
270.492	-1160
270.553	-1487
270.613	-648
270.674	34
270.734	-1079
270.795	-1517
270.856	-134
270.916	-610
270.977	130
271.038	-551
271.098	146
271.159	-1734
271.219	-869
271.280	-1015
271.340	-769
271.401	-1132
271.462	-359
271.522	38
271.583	-723
271.643	-588
271.704	-623
271.764	-891
271.825	212
271.885	3338
271.946	4210
272.006	-281
272.066	1858
272.127	2844
272.187	746
272.248	-544
272.308	-353
272.369	3250
272.429	1216
272.489	-357
272.550	-32
272.610	-170
272.671	-331
272.731	278
272.791	338
272.852	-1258
272.912	139
272.972	-1154
273.033	-171
273.093	-1079
273.153	-344
273.214	-770
273.274	-763
273.334	1120
273.394	3006
273.455	317
273.515	413
273.575	1465
273.635	203
273.696	865
273.756	4006
273.816	15
273.876	-210
273.936	481
273.997	2060
274.057	-1215
274.117	-104
274.177	-84
274.237	5149
274.297	3505
274.358	1795
274.418	2755
274.478	1100
274.538	-556
274.598	-704
274.658	1021
274.718	920
274.778	7
274.838	103
274.898	-762
274.958	2456
275.018	3313
275.078	1375
275.138	-203
275.198	-693
275.258	-792
275.318	-501
275.378	-510
275.438	-105
275.498	-715
275.558	1150
275.618	1948
275.678	609
275.738	775
275.798	129
275.858	-680
275.918	-939
275.978	-488
276.038	-352
276.098	-1530
276.157	-6
276.217	1031
276.277	579
276.337	-599
276.397	-759
276.457	-380
276.517	-916
276.576	-930
276.636	-908
276.696	-964
276.756	-313
276.815	-679
276.875	-604
276.935	-1272
276.995	-532
277.055	-714
277.114	-1325
277.174	134
277.234	892
277.293	-928
277.353	-640
277.413	-560
277.472	-830
277.532	-1194
277.592	-679
277.651	-126
277.711	746
277.771	-1292
277.830	1939
277.890	1500
277.950	486
278.009	4923
278.069	689
278.128	586
278.188	1346
278.248	-534
278.307	1091
278.367	1065
278.426	-287
278.486	-603
278.545	-694
278.605	-406
278.664	-1064
278.724	-1015
278.783	1434
278.843	3031
278.902	171
278.962	-1013
279.021	520
279.081	-312
279.140	-345
279.199	-765
279.259	-476
279.318	-445
279.378	195
279.437	1089
279.496	9175
279.556	21568
279.615	12975
279.675	2024
279.734	825
279.793	2127
279.853	7969
279.912	1470
279.971	-503
280.031	-538
280.090	2348
280.149	4864
280.208	1594
280.268	14246
280.327	13489
280.386	1578
280.445	1598
280.505	548
280.564	300
280.623	147
280.682	440
280.742	146
280.801	-478
280.860	-1010
280.919	-710
280.978	-594
281.037	-1099
281.097	-1025
281.156	-565
281.215	-570
281.274	-492
281.333	1446
281.392	292
281.451	270
281.510	-524
281.569	-553
281.628	-1073
281.688	-533
281.747	-500
281.806	-924
281.865	-1096
281.924	-1318
281.983	-254
282.042	-1081
282.101	-1015
282.160	219
282.219	-650
282.278	-837
282.337	-153
282.396	-60
282.454	-361
282.513	82
282.572	1089
282.631	62
282.690	-1156
282.749	-1025
282.808	-726
282.867	-1660
282.926	-741
282.985	-1188
283.043	-1127
283.102	-574
283.161	-1157
283.220	481
283.279	1332
283.338	-736
283.396	-1411
283.455	-500
283.514	-227
283.573	205
283.631	-752
283.690	-1585
283.749	-364
283.808	306
283.866	311
283.925	-1332
283.984	-720
284.043	-827
284.101	-326
284.160	-1025
284.219	-108
284.277	281
284.336	-1105
284.395	1608
284.453	1283
284.512	-571
284.570	-144
284.629	-174
284.688	-570
284.746	-67
284.805	185
284.863	-765
284.922	-528
284.981	-49
285.039	901
285.098	2639
285.156	9028
285.215	34957
285.273	28364
285.332	8641
285.390	3830
285.449	1646
285.507	929
285.566	70
285.624	782
285.683	-431
285.741	-254
285.799	-755
285.858	-882
285.916	-246
285.975	-751
286.033	-1552
286.091	-1193
286.150	-862
286.208	-733
286.267	-653
286.325	-1104
286.383	-78
286.442	-1081
286.500	-669
286.558	-569
286.616	-470
286.675	281
286.733	-517
286.791	-956
286.850	-1117
286.908	-416
286.966	-399
287.024	-478
287.083	-814
287.141	-965
287.199	71
287.257	106
287.315	-1051
287.374	-1145
287.432	228
287.490	125
287.548	-639
287.606	-704
287.664	-678
287.723	-730
287.781	286
287.839	-127
287.897	-756
287.955	-1018
288.013	575
288.071	3620
288.129	16291
288.187	47743
288.245	16390
288.303	4191
288.361	1501
288.419	1524
288.477	182
288.535	50
288.593	-167
288.651	-614
288.709	-1807
288.767	-624
288.825	-1329
288.883	10
288.941	-1174
288.999	-751
289.057	-1193
289.115	-785
289.173	-605
289.231	-432
289.289	-1123
289.346	-1348
289.404	-722
289.462	-1340
289.520	-827
289.578	-936
289.636	-1597
289.694	-1042
289.751	-1202
289.809	-679
289.867	-1024
289.925	-664
289.983	-982
290.040	-905
290.098	-394
290.156	-1673
290.214	-1361
290.271	-1772
290.329	-1506
290.387	-1081
290.444	-1881
290.502	-1563
290.560	-925
290.617	-455
290.675	-711
290.733	-373
290.790	-980
290.848	-690
290.906	-1284
290.963	-1081
291.021	-411
291.078	-1292
291.136	-503
291.194	-480
291.251	1228
291.309	-845
291.366	-947
291.424	-915
291.481	-1425
291.539	-528
291.596	-1278
291.654	-616
291.711	-1566
291.769	-851
291.826	-611
291.884	-714
291.941	-959
291.999	-1064
292.056	-1444
292.114	-905
292.171	-1504
292.228	-885
292.286	-1584
292.343	-790
292.401	-847
292.458	-645
292.515	-1063
292.573	-354
292.630	-850
292.687	-577
292.745	-1029
292.802	-1329
292.859	-224
292.917	859
292.974	-15
293.031	-1271
293.089	-1338
293.146	-876
293.203	-2179
293.260	-1317
293.318	-1479
293.375	-460
293.432	-1185
293.489	-649
293.546	-1686
293.604	-672
293.661	1039
293.718	5713
293.775	948
293.832	-167
293.889	-766
293.947	194
294.004	-292
294.061	449
294.118	50
294.175	1434
294.232	2351
294.289	-29
294.346	-1442
294.403	-157
294.460	-833
294.517	-865
294.574	-1154
294.631	-1369
294.688	-789
294.745	838
294.802	7429
294.859	5443
294.916	1755
294.973	297
295.030	-185
295.087	-1116
295.144	-602
295.201	140
295.258	-1234
295.315	-571
295.372	1165
295.429	3922
295.486	109
295.542	247
295.599	1189
295.656	4470
295.713	2717
295.770	3503
295.827	510
295.883	66
295.940	-847
295.997	-84
296.054	-521
296.111	-522
296.167	-742
296.224	-354
296.281	-1027
296.338	-961
296.394	-1240
296.451	-725
296.508	175
296.564	2473
296.621	1424
296.678	5378
296.734	8393
296.791	2250
296.848	8
296.904	425
296.961	819
297.018	4248
297.074	2677
297.131	763
297.187	-109
297.244	178
297.301	5468
297.357	11427
297.414	3481
297.470	403
297.527	-408
297.583	-209
297.640	-615
297.696	-1060
297.753	-1315
297.809	-557
297.866	-1564
297.922	-303
297.979	-503
298.035	-780
298.092	-555
298.148	1958
298.204	1400
298.261	772
298.317	2415
298.374	7846
298.430	3388
298.486	907
298.543	164
298.599	180
298.656	284
298.712	125
298.768	3608
298.824	2644
298.881	383
298.937	234
298.993	-1085
299.050	-1320
299.106	-665
299.162	-992
299.218	-1055
299.275	-546
299.331	-327
299.387	1303
299.443	5921
299.500	5561
299.556	894
299.612	-464
299.668	-1005
299.724	-624
299.780	-515
299.837	-638
299.893	-108
299.949	2989
300.005	3811
300.061	4542
300.117	8287
300.173	4380
300.229	48
300.285	115
300.341	240
300.397	273
300.453	-1290
300.510	-397
300.566	-1498
300.622	-204
300.678	-178
300.734	2022
300.790	3946
300.845	5619
300.901	2317
300.957	2552
301.013	1836
301.069	815
301.125	-489
301.181	-690
301.237	-434
301.293	-1090
301.349	-1039
301.405	-1821
301.461	-1001
301.516	174
301.572	-1365
301.628	-7
301.684	-328
301.740	471
301.796	1132
301.851	1290
301.907	1336
301.963	2670
302.019	6217
302.074	21639
302.130	20786
302.186	9554
302.242	2638
302.297	1080
302.353	300
302.409	2026
302.464	1770
302.520	1019
302.576	4550
302.631	7059
302.687	2138
302.743	431
302.798	-151
302.854	-822
302.910	-775
302.965	-252
303.021	-240
303.076	254
303.132	-470
303.187	570
303.243	-678
303.299	-681
303.354	-1367
303.410	-577
303.465	-910
303.521	-1180
303.576	-887
303.632	-400
303.687	929
303.743	5943
303.798	4707
303.853	1641
303.909	-674
303.964	-667
304.020	-201
304.075	564
304.130	-51
304.186	2057
304.241	1451
304.297	941
304.352	-365
304.358	-357
304.407	-295
304.449	-409
304.463	-445
304.518	-640
304.539	-549
304.573	-415
304.629	-361
304.630	-342
304.684	543
304.720	3408
304.739	4866
304.794	8129
304.811	6897
304.850	3811
304.902	967
304.905	788
304.960	248
304.992	-23
305.015	-227
305.071	-292
305.083	-376
305.126	-663
305.173	-733
305.181	-730
305.236	-1088
305.264	-802
305.292	-577
305.347	-487
305.354	-486
305.402	-379
305.445	-230
305.457	-208
305.512	412
305.535	90
305.567	-305
305.622	193
305.626	222
305.678	1204
305.716	4550
305.733	5802
305.788	6442
305.807	6038
305.843	5443
305.897	7087
305.898	7100
305.953	7881
305.988	5163
306.008	3616
306.063	1161
306.078	880
306.118	503
306.168	-91
306.173	-150
306.228	-358
306.259	-479
306.283	-525
306.338	-103
306.349	-18
306.393	330
306.440	-40
306.448	-104
306.503	64
306.530	164
306.558	518
306.613	2818
306.620	3031
306.668	4467
306.711	5581
306.723	5570
306.778	4124
306.801	3181
306.833	2223
306.888	378
306.892	335
306.943	64
306.982	283
306.997	398
307.052	136
307.072	278
307.107	675
307.162	1006
307.163	1005
307.217	1473
307.253	2160
307.272	2262
307.327	1926
307.343	1959
307.381	1971
307.434	986
307.436	1031
307.491	3442
307.524	5337
307.546	5802
307.600	6177
307.614	5560
307.655	3022
307.704	976
307.710	927
307.765	1552
307.795	1938
307.819	2771
307.874	5755
307.885	5951
307.929	4571
307.975	3321
307.984	3400
308.038	4351
308.065	5587
308.093	10577
308.148	23298
308.156	26228
308.202	46641
308.246	61846
308.257	59643
308.312	30816
308.336	19441
308.366	13991
308.421	7673
308.426	7195
308.475	4575
308.517	3211
308.530	2973
308.585	2642
308.607	2313
308.639	2156
308.694	2482
308.697	2513
308.748	5026
308.787	7633
308.803	7648
308.857	5804
308.877	4956
308.912	3925
308.967	2633
308.967	2619
309.021	3902
309.058	5319
309.076	7171
309.130	13409
309.148	16106
309.185	34611
309.238	66694
309.239	67078
309.293	81795
309.328	80046
309.348	67898
309.402	29985
309.418	20309
309.457	13306
309.508	6728
309.511	6556
309.566	5414
309.598	4902
309.620	5145
309.674	6174
309.688	6475
309.729	5939
309.778	4481
309.783	4378
309.837	3314
309.868	2847
309.892	3395
309.946	5198
309.959	5646
310.001	8283
310.049	11387
310.055	11007
310.109	6429
310.139	3769
310.163	2884
310.218	1366
310.229	1084
310.272	1214
310.319	1492
310.326	1427
310.381	947
310.409	741
310.435	850
310.489	789
310.499	827
310.543	1018
310.589	986
310.598	1020
310.652	1494
310.679	1619
310.706	1480
310.760	1211
310.769	1157
310.814	1009
310.859	829
310.868	801
310.923	566
310.948	549
310.977	858
311.031	1307
311.038	1390
311.085	1246
311.128	759
311.139	753
311.193	998
311.218	1007
311.247	810
311.301	686
311.308	636
311.356	682
311.398	773
311.410	783
311.464	809
311.488	827
311.518	865
311.572	878
311.578	877
311.626	1066
311.668	1215
311.680	1206
311.734	1099
311.758	1055
311.788	1144
311.842	1308
311.847	1317
311.896	1871
311.937	2370
311.950	2347
312.004	2203
312.027	2123
312.058	1858
312.112	1379
312.117	1328
312.165	1253
312.207	1185
312.297	1562
312.386	1825
312.476	1041
312.566	2466
312.656	966
312.745	1384
312.835	1321
312.925	956
313.015	1678
313.104	2107
313.194	1040
313.284	827
313.374	1060
313.463	1678
313.553	1525
313.643	188
313.732	1644
313.822	568
313.912	377
314.001	706
314.091	940
314.180	1988
314.270	1728
314.360	1908
314.449	1215
314.539	857
314.628	586
314.718	1274
314.808	1864
314.897	1095
314.987	1325
315.076	665
315.166	1979
315.255	1556
315.345	1976
315.434	1843
315.524	1801
315.613	301
315.703	719
315.792	1354
315.881	2078
315.971	1067
316.060	3173
316.150	4070
316.239	5117
316.328	2031
316.418	452
316.507	1264
316.597	1255
316.686	1150
316.775	1226
316.865	4808
316.954	1692
317.043	408
317.133	297
317.222	498
317.311	654
317.400	-251
317.490	1256
317.579	1556
317.668	861
317.757	830
317.847	1592
317.936	3409
318.025	3228
318.114	793
318.203	1459
318.293	1887
318.382	4899
318.471	2740
318.560	5279
318.649	16025
318.738	4117
318.828	1336
318.917	1369
319.006	2127
319.095	5572
319.184	18841
319.273	10305
319.362	4137
319.451	1289
319.540	525
319.629	2665
319.718	4153
319.807	2903
319.896	4519
319.985	24171
320.074	9090
320.163	2545
320.252	2024
320.341	2487
320.430	1494
320.519	2435
320.608	1161
320.697	1632
320.786	780
320.875	1841
320.964	1203
321.053	2357
321.142	3227
321.230	3631
321.319	2974
321.408	7139
321.497	3695
321.586	2885
321.675	3469
321.764	4215
321.852	2433
321.941	4169
322.030	3000
322.119	2611
322.207	6804
322.296	7950
322.385	3416
322.474	2794
322.562	7297
322.651	5871
322.740	3322
322.829	5247
322.917	5992
323.006	4286
323.095	1987
323.183	1879
323.272	3074
323.361	5877
323.449	23021
323.538	9026
323.626	13641
323.715	12203
323.804	2685
323.892	12703
323.981	8172
324.069	2429
324.158	6790
324.246	8855
324.335	2218
324.424	2803
324.512	800
324.601	1440
324.689	1013
324.778	3311
324.866	4438
324.954	1355
325.043	697
325.131	1724
325.220	5859
325.308	6991
325.397	4235
325.485	2703
325.574	873
325.662	185
325.750	156
325.839	673
325.927	1058
326.015	765
326.104	1020
326.192	3070
326.280	938
326.369	804
326.457	532
326.545	1775
326.634	829
326.722	208
326.810	-445
326.898	775
326.987	987
327.075	1101
327.163	3075
327.251	1617
327.340	856
327.428	1749
327.516	527
327.604	623
327.692	770
327.781	119
327.869	1338
327.957	632
328.045	680
328.133	729
328.221	676
328.309	313
328.397	731
328.485	516
328.574	1394
328.662	4729
328.750	2479
328.838	1291
328.926	1118
329.014	1189
329.102	1551
329.190	3705
329.278	2568
329.366	735
329.454	537
329.542	654
329.630	336
329.718	1053
329.806	1320
329.893	1145
329.981	632
330.069	3196
330.157	10365
330.245	37198
330.333	23137
330.421	4197
330.509	1462
330.597	4585
330.684	4016
330.772	1916
330.860	2102
330.948	3517
331.036	1527
331.123	114
331.211	486
331.299	601
331.387	1587
331.475	5093
331.562	1692
331.650	711
331.738	577
331.825	1426
331.913	512
332.001	181
332.089	889
332.176	3213
332.264	5892
332.352	5517
332.439	1025
332.527	529
332.614	762
332.702	1041
332.790	156
332.877	2740
332.965	6304
333.052	1479
333.140	542
333.228	2863
333.315	92
333.403	954
333.490	2788
333.578	2727
333.665	1701
333.753	1823
333.840	892
333.928	1425
334.015	4502
334.103	6486
334.190	26052
334.278	8227
334.365	2247
334.452	1434
334.540	572
334.627	775
334.715	1808
334.802	3575
334.889	22968
334.977	31232
335.064	2945
335.151	704
335.239	1040
335.326	2385
335.413	9912
335.501	20866
335.588	2328
335.675	814
335.762	862
335.850	2501
335.937	2124
336.024	4453
336.111	27552
336.199	13476
336.286	2142
336.373	497
336.460	674
336.547	275
336.635	731
336.722	208
336.809	46
336.896	1527
336.983	5425
337.070	18013
337.157	29377
337.245	18187
337.332	15875
337.419	1347
337.506	892
337.593	929
337.680	3841
337.767	17678
337.854	5217
337.941	5188
338.028	5748
338.115	1151
338.202	2058
338.289	3246
338.376	17229
338.463	6594
338.550	8077
338.637	12377
338.724	2558
338.811	5893
338.898	836
338.984	760
339.071	457
339.158	609
339.245	2473
339.332	1807
339.419	2436
339.506	4003
339.593	-221
339.679	179
339.766	-183
339.853	980
339.940	1693
340.027	745
340.113	469
340.200	895
340.287	257
340.374	335
340.460	526
340.547	295
340.634	657
340.720	5147
340.807	3082
340.894	-413
340.980	233
341.067	-602
341.154	340
341.240	443
341.327	2204
341.414	393
341.500	-97
341.587	786
341.674	-117
341.760	1172
341.847	1069
341.933	193
342.020	-620
342.106	-39
342.193	-221
342.279	515
342.366	-104
342.452	1225
342.539	143
342.625	876
342.712	4884
342.798	2047
342.885	85
342.971	-691
343.058	4
343.144	-343
343.230	-91
343.317	430
343.403	-451
343.490	-31
343.576	365
343.662	70
343.749	678
343.835	575
343.921	2045
344.008	14373
344.094	45879
344.180	10634
344.267	1676
344.353	7979
344.439	10355
344.525	2747
344.612	708
344.698	963
344.784	176
344.870	570
344.957	-362
345.043	777
345.129	61
345.215	861
345.301	757
345.387	-277
345.474	-820
345.560	-824
345.646	-554
345.732	883
345.818	-396
345.904	-462
345.990	-33
346.076	788
346.162	896
346.249	843
346.335	-314
346.421	282
346.507	2388
346.593	14933
346.679	3084
346.765	661
346.851	168
346.937	22
347.023	236
347.108	214
347.194	-1119
347.280	59
347.366	534
347.452	2066
347.538	15956
347.624	13038
347.710	9845
347.796	1423
347.882	625
347.967	143
348.053	601
348.139	-215
348.225	349
348.311	-321
348.397	-114
348.482	968
348.568	-523
348.654	-434
348.740	-142
348.825	-1375
348.911	1178
348.997	6015
349.083	18492
349.168	2960
349.254	-369
349.340	194
349.425	-172
349.511	105
349.597	584
349.682	946
349.768	6090
349.854	4487
349.939	263
350.025	-577
350.110	-393
350.196	-805
350.282	-142
350.367	-238
350.453	-163
350.538	711
350.624	-191
350.709	209
350.795	-409
350.880	-442
350.966	224
351.051	387
351.137	-21
351.222	817
351.308	1015
351.393	4639
351.479	705
351.564	-687
351.649	-518
351.735	10
351.820	-400
351.906	-606
351.991	31
352.076	2643
352.162	4934
352.247	1280
352.332	-293
352.418	208
352.503	1006
352.588	6807
352.673	6651
352.759	712
352.844	236
352.929	-149
353.014	-914
353.100	-132
353.185	1913
353.270	1437
353.355	1635
353.441	-195
353.526	160
353.611	410
353.696	608
353.781	325
353.866	-470
353.952	-802
354.037	361
354.122	3760
354.207	2041
354.292	497
354.377	-75
354.462	-11
354.547	356
354.632	319
354.717	1548
354.802	1243
354.887	-281
354.972	-207
355.057	-457
355.142	-348
355.227	202
355.312	-71
355.397	1932
355.482	5172
355.567	2020
355.652	1106
355.737	1653
355.822	7007
355.907	8437
355.991	761
356.076	-630
356.161	423
356.246	-62
356.331	-245
356.416	796
356.501	15753
356.585	21960
356.670	1448
356.755	881
356.840	1174
356.924	9043
357.009	45342
357.094	18782
357.179	1787
357.263	891
357.348	859
357.433	490
357.517	1607
357.602	340
357.687	506
357.771	1126
357.856	5821
357.941	4478
358.025	6821
358.110	44286
358.195	24948
358.279	1626
358.364	550
358.448	3692
358.533	14399
358.617	11107
358.702	11201
358.787	3618
358.871	1092
358.956	675
359.040	-51
359.125	-1128
359.209	-4
359.294	2578
359.378	3887
359.462	548
359.547	585
359.631	-20
359.716	-282
359.800	99
359.885	1194
359.969	-446
360.053	-177
360.138	-318
360.222	383
360.306	1563
360.391	1102
360.475	1182
360.559	5620
360.644	3920
360.728	3926
360.812	7059
360.896	29786
360.981	10573
361.065	4610
361.149	770
361.233	152
361.318	-225
361.402	340
361.486	220
361.570	-81
361.654	-469
361.739	2269
361.823	13325
361.907	32681
361.991	5121
362.075	780
362.159	2209
362.243	2415
362.327	262
362.411	1598
362.495	563
362.580	271
362.664	-246
362.748	-657
362.832	32
362.916	-602
363.000	2243
363.084	12994
363.168	34474
363.252	8159
363.336	1337
363.420	1941
363.503	13980
363.587	24140
363.671	2733
363.755	279
363.839	967
363.923	-324
364.007	1203
364.091	1761
364.175	3041
364.258	27938
364.342	15087
364.426	5222
364.510	2119
364.594	3073
364.677	3344
364.761	21173
364.845	19663
364.929	3287
365.013	1919
365.096	1563
365.180	2756
365.264	4642
365.347	29718
365.431	15356
365.515	1811
365.598	-78
365.682	894
365.766	806
365.849	2201
365.933	-499
366.017	1594
366.100	1076
366.184	-1123
366.267	1314
366.351	290
366.435	-891
366.518	-475
366.602	145
366.685	-725
366.769	-752
366.852	769
366.936	2129
367.019	808
367.103	-10
367.186	2916
367.270	5
367.353	-1114
367.436	-91
367.520	-135
367.603	-340
367.687	-1338
367.770	1566
367.853	935
367.937	4478
368.020	10893
368.104	1257
368.187	861
368.270	1965
368.353	1930
368.437	1694
368.520	9649
368.603	5748
368.687	4445
368.770	13671
368.853	1777
368.936	1958
369.020	2440
369.103	234
369.186	-665
369.269	-1284
369.352	381
369.436	1681
369.519	878
369.602	-778
369.685	1160
369.768	-215
369.851	-752
369.934	-81
370.018	-160
370.101	277
370.184	1904
370.267	734
370.350	1233
370.433	2177
370.516	8932
370.599	15253
370.682	2330
370.765	5000
370.848	5908
370.931	15162
371.014	7374
371.097	-19
371.180	370
371.263	205
371.346	-631
371.429	-600
371.511	-272
371.594	268
371.677	1311
371.760	3182
371.843	1230
371.926	10986
372.009	40634
372.091	14335
372.174	4421
372.257	18712
372.340	6813
372.423	3069
372.505	5102
372.588	1209
372.671	2800
372.754	14987
372.836	8827
372.919	5830
373.002	17587
373.085	4208
373.167	1825
373.250	5331
373.332	15104
373.415	19758
373.498	54036
373.580	20227
373.663	18047
373.746	36836
373.828	6579
373.911	1752
373.993	1382
374.076	13765
374.159	16377
374.241	4237
374.324	11075
374.406	9367
374.489	10206
374.571	44714
374.654	19583
374.736	5615
374.819	24097
374.901	35410
374.983	43540
375.066	7149
375.148	1819
375.231	9782
375.313	27236
375.395	8270
375.478	1116
375.560	37
375.643	229
375.725	4366
375.807	28717
375.890	29183
375.972	10200
376.054	3620
376.136	8257
376.219	4129
376.301	6136
376.383	26136
376.465	11665
376.548	3650
376.630	3656
376.712	19584
376.794	10688
376.877	643
376.959	-480
377.041	-11
377.123	1496
377.205	3378
377.287	-349
377.369	704
377.452	-958
377.534	-283
377.616	49
377.698	-695
377.780	-1855
377.862	-134
377.944	91
378.026	-118
378.108	-75
378.190	-342
378.272	-339
378.354	-187
378.436	-625
378.518	-490
378.600	4339
378.682	3344
378.764	5973
378.846	6810
378.928	650
379.010	1643
379.091	853
379.173	-69
379.255	-701
379.337	257
379.419	2126
379.501	11788
379.583	5311
379.664	428
379.746	375
379.828	6758
379.910	9630
379.991	10158
380.073	1332
380.155	269
380.237	-394
380.318	-866
380.400	-705
380.482	-136
380.564	1112
380.645	1810
380.727	1743
380.809	757
380.890	-322
380.972	-788
381.053	-1
381.135	439
381.217	568
381.298	7848
381.380	3237
381.461	1685
381.543	15934
381.624	26608
381.706	4551
381.787	1734
381.869	701
381.951	5634
382.032	38625
382.113	29823
382.195	2729
382.276	2141
382.358	3819
382.439	18076
382.521	19516
382.602	38824
382.684	14563
382.765	19810
382.846	18339
382.928	17454
383.009	10027
383.090	4402
383.172	20619
383.253	45636
383.334	16585
383.416	27296
383.497	15755
383.578	3103
383.659	3778
383.741	16518
383.822	65450
383.903	39569
383.984	11620
384.066	29569
384.147	19627
384.228	3390
384.309	1084
384.390	320
384.471	614
384.553	-19
384.634	440
384.715	1656
384.796	-578
384.877	804
384.958	5224
385.039	8570
385.120	1436
385.201	672
385.282	606
385.363	889
385.444	671
385.525	1930
385.606	12214
385.687	15608
385.768	2249
385.849	1960
385.930	12167
386.011	36761
386.092	9200
386.173	1192
386.254	81
386.335	1120
386.416	75
386.496	3939
386.577	7870
386.658	3097
386.739	731
386.820	1809
386.901	611
386.981	857
387.062	-739
387.143	-172
387.224	5608
387.304	8035
387.385	1378
387.466	340
387.547	1234
387.627	231
387.708	958
387.789	12621
387.869	22011
387.950	7324
388.031	-7
388.111	-1029
388.192	2682
388.273	4783
388.353	2577
388.434	647
388.514	1737
388.595	16598
388.676	24499
388.756	8613
388.837	5915
388.917	4190
388.998	-1080
389.078	697
389.159	-639
389.239	-989
389.320	1314
389.400	-662
389.480	1615
389.561	8856
389.641	5435
389.722	975
389.802	869
389.883	2551
389.963	12115
390.043	9111
390.124	1141
390.204	1458
390.284	6833
390.365	5662
390.445	8021
390.525	22779
390.605	20816
390.686	4938
390.766	2052
390.846	811
390.927	-666
391.007	-750
391.087	978
391.167	-134
391.247	-973
391.328	1161
391.408	2304
391.488	2123
391.568	-1066
391.648	-165
391.728	973
391.808	463
391.888	85
391.969	3458
392.049	7289
392.129	4076
392.209	2224
392.289	10667
392.369	6343
392.449	4744
392.529	2296
392.609	1066
392.689	1355
392.769	8977
392.849	9930
392.929	5173
393.009	15552
393.089	11242
393.169	3861
393.248	9595
393.328	75996
393.408	111594
393.488	22029
393.568	3672
393.648	1175
393.728	438
393.807	199
393.887	2074
393.967	1175
394.047	799
394.127	1904
394.206	4505
394.286	15708
394.366	95886
394.446	137458
394.525	30868
394.605	5003
394.685	3049
394.764	7438
394.844	15049
394.924	11341
395.003	2144
395.083	901
395.163	1356
395.242	767
395.322	1587
395.402	-98
395.481	1314
395.561	3428
395.640	16740
395.720	11488
395.799	19455
395.879	19543
395.958	8081
396.038	25392
396.117	128593
396.197	177668
396.276	51515
396.356	12002
396.435	7320
396.515	4209
396.594	2243
396.673	4379
396.753	14443
396.832	79833
396.912	72086
396.991	13878
397.070	2765
397.150	301
397.229	460
397.308	514
397.388	1467
397.467	565
397.546	-150
397.625	-1716
397.705	1674
397.784	160
397.863	-591
397.942	-816
398.022	172
398.101	2462
398.180	17513
398.259	9625
398.338	1370
398.417	96
398.497	-281
398.576	31
398.655	-366
398.734	-178
398.813	-319
398.892	2778
398.971	19731
399.050	11040
399.129	319
399.208	-374
399.287	757
399.366	-566
399.445	-138
399.524	-361
399.603	-1194
399.682	-27
399.761	1501
399.840	18874
399.919	20200
399.998	2278
400.077	-883
400.156	-1532
400.235	1145
400.313	-104
400.392	-915
400.471	1340
400.550	6081
400.629	11
400.708	322
400.786	-1030
400.865	2372
400.944	2364
401.023	2190
401.102	-576
401.180	-115
401.259	-785
401.338	291
401.416	-246
401.495	-1035
401.574	-91
401.652	-782
401.731	-108
401.810	-736
401.888	-733
401.967	-960
402.046	-528
402.124	582
402.203	-70
402.281	320
402.360	-353
402.438	3387
402.517	2308
402.596	-54
402.674	-1053
402.753	-485
402.831	-171
402.910	-418
402.988	2290
403.066	17784
403.145	13340
403.223	3967
403.302	14165
403.380	10969
403.459	10706
403.537	3914
403.615	146
403.694	-1191
403.772	-269
403.850	-508
403.929	115
404.007	-1541
404.085	1120
404.164	1048
404.242	-805
404.320	784
404.398	4271
404.477	6130
404.555	23172
404.633	26842
404.711	5846
404.789	2480
404.868	-179
404.946	-1010
405.024	-1200
405.102	-518
405.180	-1122
405.258	-1370
405.336	-354
405.415	-1750
405.493	436
405.571	675
405.649	-959
405.727	-1497
405.805	607
405.883	-622
405.961	-279
406.039	-81
406.117	-1724
406.195	-40
406.273	1661
406.351	19140
406.429	14261
406.507	961
406.585	-710
406.663	-117
406.740	-247
406.818	-326
406.896	-1135
406.974	211
407.052	-1175
407.130	8031
407.208	16895
407.285	4004
407.363	-992
407.441	-932
407.519	-7
407.596	112
407.674	565
407.752	4905
407.830	6471
407.907	2108
407.985	27
408.063	267
408.141	-1104
408.218	751
408.296	743
408.373	-969
408.451	-351
408.529	-825
408.606	-1589
408.684	-1585
408.762	-1310
408.839	-471
408.917	-1745
408.994	-1250
409.072	-1224
409.149	-1186
409.227	-636
409.304	-1573
409.382	-996
409.459	-947
409.537	-306
409.614	-936
409.692	-1557
409.769	-1839
409.846	-1397
409.924	469
410.001	-2413
410.079	-790
410.156	147
410.233	-1129
410.311	-811
410.388	-503
410.465	-716
410.543	-951
410.620	-941
410.697	87
410.775	-1006
410.852	-1748
410.929	-839
411.006	648
411.083	-775
411.161	-28
411.238	432
411.315	-153
411.392	-841
411.469	-216
411.547	-574
411.624	-2023
411.701	-1471
411.778	-984
411.855	57
411.932	-777
412.009	-644
412.086	-591
412.163	-480
412.240	-785
412.317	-487
412.394	-792
412.471	-1098
412.548	-1088
412.625	-1607
412.702	-1013
412.779	-198
412.856	96
412.933	-1279
413.010	-859
413.087	-638
413.164	1251
413.241	3842
413.318	89
413.395	-588
413.471	-795
413.548	-561
413.625	-11
413.702	-1773
413.779	-559
413.855	-114
413.932	-1270
414.009	-2387
414.086	-1277
414.162	-286
414.239	-670
414.316	1138
414.393	8094
414.469	1349
414.546	-1772
414.623	-1331
414.699	-796
414.776	-1321
414.853	-1441
414.929	-1000
415.006	-934
415.082	-856
415.159	-930
415.236	-995
415.312	-518
415.389	-907
415.465	-425
415.542	-894
415.618	-1766
415.695	-241
415.771	-732
415.848	-1227
415.924	-1734
416.000	-1046
416.077	-109
416.153	-1798
416.230	-2209
416.306	-1010
416.383	-1098
416.459	-196
416.535	-1735
416.612	-1259
416.688	-1042
416.764	-1824
416.841	-1763
416.917	-1520
416.993	-813
417.069	-726
417.146	-1445
417.222	261
417.298	-888
417.374	-1909
417.451	-397
417.527	-1498
417.603	-1122
417.679	-1099
417.755	-1075
417.831	-1823
417.908	-864
417.984	-1388
418.060	-2645
418.136	-464
418.212	-796
418.288	-744
418.364	-783
418.440	-2028
418.516	197
418.592	-307
418.668	886
418.744	224
418.820	894
418.896	-1599
418.972	-1437
419.048	-1441
419.124	-59
419.200	-1527
419.276	-754
419.352	-1847
419.428	-812
419.504	-1518
419.579	-886
419.655	-1490
419.731	-1351
419.807	-1039
419.883	271
419.959	20
420.034	-478
420.110	-513
420.186	2832
420.262	3329
420.337	-645
420.413	-922
420.489	-466
420.565	-264
420.640	-1586
420.716	-1440
420.792	-1691
420.867	-435
420.943	-1416
421.019	-843
421.094	-1066
421.170	-1499
421.245	-1462
421.321	-833
421.397	-1386
421.472	222
421.548	1216
421.623	1406
421.699	-390
421.774	-1037
421.850	-1859
421.925	-850
422.001	-389
422.076	-825
422.152	-1138
422.227	-868
422.302	393
422.378	-105
422.453	496
422.529	4602
422.604	24761
422.679	80919
422.755	49528
422.830	9354
422.905	2202
422.981	-186
423.056	-666
423.131	-781
423.207	-922
423.282	-1611
423.357	465
423.432	-408
423.508	-380
423.583	-127
423.658	683
423.733	-1555
423.808	-657
423.883	-310
423.959	-1033
424.034	-1728
424.109	-299
424.184	-1532
424.259	-1421
424.334	-1062
424.409	-907
424.484	-1750
424.559	-1562
424.634	-1149
424.709	-537
424.784	-138
424.859	-1315
424.934	-1976
425.009	1195
425.084	4569
425.159	684
425.234	-521
425.309	-1918
425.384	-472
425.459	915
425.534	-760
425.609	-1643
425.683	-1304
425.758	-1048
425.833	-1238
425.908	-22
425.983	-84
426.058	4740
426.132	1014
426.207	-875
426.282	525
426.357	-1240
426.431	-1539
426.506	-7
426.581	-1296
426.655	-370
426.730	-1107
426.805	-945
426.879	-513
426.954	-908
427.029	-1159
427.103	3145
427.178	15581
427.253	8682
427.327	-450
427.402	-645
427.476	1954
427.551	651
427.625	-1069
427.700	-783
427.774	-1715
427.849	114
427.923	-1382
427.998	-1431
428.072	-2011
428.147	-61
428.221	25
428.296	6262
428.370	3263
428.444	268
428.519	-328
428.593	2146
428.667	1435
428.742	2097
428.816	1756
428.890	4828
428.965	9374
429.039	3829
429.113	3397
429.188	112
429.262	-961
429.336	-1194
429.410	1237
429.485	256
429.559	938
429.633	729
429.707	-458
429.781	-330
429.855	5443
429.930	11318
430.004	7193
430.078	15926
430.152	14227
430.226	11268
430.300	14468
430.374	1816
430.448	65
430.522	2616
430.596	16104
430.670	10640
430.744	9380
430.818	22543
430.892	5461
430.966	-184
431.040	-846
431.114	-1244
431.188	-1501
431.262	-675
431.336	-1281
431.410	511
431.484	1635
431.557	2031
431.631	-1464
431.705	-852
431.779	-228
431.853	5138
431.927	3695
432.000	-70
432.074	-1556
432.148	-465
432.222	-873
432.295	-1286
432.369	-1447
432.443	-686
432.516	3016
432.590	17609
432.664	8342
432.737	148
432.811	-1736
432.885	-552
432.958	-778
433.032	-1635
433.106	-2347
433.179	-1515
433.253	-1840
433.326	-1666
433.400	-1332
433.473	-1433
433.547	-2404
433.620	-1061
433.694	-1783
433.767	-467
433.841	-2036
433.914	-1201
433.988	-437
434.061	-718
434.134	-1279
434.208	-1541
434.281	-2049
434.355	-1931
434.428	-1184
434.501	-1113
434.575	-1785
434.648	-1748
434.721	-1428
434.795	-930
434.868	-2190
434.941	-1668
435.014	-1626
435.088	-1292
435.161	-1819
435.234	-1278
435.307	-729
435.381	-1150
435.454	-1692
435.527	-1237
435.600	-1681
435.673	-1433
435.746	-1347
435.819	-1017
435.892	-1750
435.966	-1271
436.039	-1554
436.112	-1131
436.185	-1705
436.258	-1421
436.331	-1724
436.404	-1662
436.477	-1783
436.550	-989
436.623	-1459
436.696	-1541
436.769	-1336
436.842	-965
436.915	-1114
436.987	-1640
437.060	-643
437.133	-1167
437.206	-2112
437.279	-670
437.352	-1725
437.425	-1391
437.498	-1504
437.570	-703
437.643	-994
437.716	-1778
437.789	-1513
437.861	-1458
437.934	264
438.007	-436
438.080	-2021
438.152	-1332
438.225	-834
438.298	5491
438.370	31094
438.443	17449
438.516	1272
438.588	-623
438.661	-2183
438.734	-1474
438.806	-1967
438.879	-916
438.951	-729
439.024	134
439.096	-1561
439.169	-1221
439.241	-1282
439.314	-1721
439.386	-627
439.459	41
439.531	-65
439.604	-1380
439.676	-828
439.749	-1545
439.821	-1305
439.893	-1357
439.966	-1289
440.038	-2318
440.110	-1180
440.183	-740
440.255	-1265
440.327	-973
440.400	1107
440.472	13800
440.544	14568
440.617	1058
440.689	-738
440.761	-1075
440.833	-531
440.905	-603
440.978	-1795
441.050	-1494
441.122	-1409
441.194	-1556
441.266	-1412
441.338	-1937
441.411	-866
441.483	2184
441.555	6073
441.627	296
441.699	-204
441.771	-892
441.843	-1196
441.915	-1368
441.987	-1908
442.059	-1084
442.131	-1116
442.203	-440
442.275	-563
442.347	160
442.419	-1224
442.491	204
442.563	4591
442.635	3354
442.706	1751
442.778	2948
442.850	-1717
442.922	-1207
442.994	-1801
443.066	-1145
443.137	-827
443.209	-1821
443.281	-653
443.353	76
443.425	2087
443.496	9507
443.568	11795
443.640	3779
443.711	-385
443.783	-1871
443.855	-1600
443.926	-1111
443.998	-1525
444.070	-700
444.141	-1058
444.213	-917
444.285	-462
444.356	-1568
444.428	-576
444.499	-1145
444.571	-1652
444.642	-1687
444.714	-1671
444.785	-1403
444.857	-811
444.928	2260
445.000	241
445.071	769
445.143	790
445.214	-839
445.285	57
445.357	4975
445.428	8472
445.500	22547
445.571	18879
445.642	7387
445.714	2234
445.785	5303
445.856	609
445.928	-349
445.999	-1158
446.070	-950
446.141	-1509
446.213	-358
446.284	-929
446.355	-1210
446.426	-947
446.497	-1036
446.569	-1207
446.640	-263
446.711	-1049
446.782	-1251
446.853	-1159
446.924	-496
446.995	-968
447.066	-1105
447.138	-41
447.209	-374
447.280	-1680
447.351	-1303
447.422	-1667
447.493	-1274
447.564	-572
447.635	-968
447.706	-1071
447.777	-1809
447.847	-1642
447.918	-2280
447.989	-1584
448.060	36
448.131	240
448.202	1257
448.273	-260
448.344	-583
448.414	-1357
448.485	-1402
448.556	-1892
448.627	-1967
448.698	-1070
448.768	-1401
448.839	-1708
448.910	-1005
448.981	-422
449.051	-1043
449.122	-976
449.193	-1188
449.263	-1322
449.334	-1518
449.405	-1271
449.475	-88
449.546	-506
449.616	471
449.687	529
449.758	-908
449.828	-1157
449.899	-674
449.969	-1605
450.040	-947
450.110	-1206
450.181	-1111
450.251	-1153
450.322	-844
450.392	-1140
450.463	-866
450.533	-1064
450.604	-1482
450.674	-1506
450.744	-1631
450.815	-1810
450.885	-1277
450.955	-724
451.026	-1691
451.096	-887
451.166	-1103
451.237	-574
451.307	3385
451.377	1001
451.447	-1226
451.518	-762
451.588	-1449
451.658	-757
451.728	-957
451.799	2481
451.869	5953
451.939	320
452.009	-1062
452.079	-1843
452.149	-905
452.219	-703
452.289	4150
452.360	3357
452.430	-334
452.500	-980
452.570	-1374
452.640	-593
452.710	1244
452.780	4012
452.850	1811
452.920	1229
452.990	-143
453.060	-796
453.129	-299
453.199	-680
453.269	3940
453.339	16269
453.409	28651
453.479	21084
453.549	33208
453.619	37429
453.688	18824
453.758	2122
453.828	-200
453.898	-543
453.968	-678
454.037	-1059
454.087	-1132
454.107	-1171
454.168	-1144
454.177	-1150
454.247	-1539
454.249	-1527
454.316	-1383
454.330	-1296
454.386	-998
454.411	-488
454.456	318
454.492	1906
454.525	3334
454.574	1721
454.595	1019
454.655	-574
454.665	-837
454.734	-891
454.736	-868
454.804	-235
454.817	556
454.873	3839
454.898	4597
454.943	5941
454.979	3533
455.013	1366
455.060	764
455.082	496
455.141	-532
455.152	-719
455.221	2295
455.222	2355
455.291	7042
455.303	6805
455.360	5554
455.384	8387
455.430	13251
455.465	11066
455.499	8946
455.546	6021
455.569	4756
455.627	3304
455.638	3013
455.707	-408
455.708	-407
455.777	-1071
455.789	-1029
455.846	-840
455.869	-734
455.916	-534
455.950	-399
455.985	-259
456.031	-493
456.054	-619
456.112	-836
456.124	-893
456.193	-547
456.193	-552
456.262	-829
456.274	-717
456.332	-493
456.355	-421
456.401	-85
456.436	-288
456.470	-574
456.516	-490
456.540	-455
456.597	-855
456.609	-933
456.678	-917
456.678	-922
456.747	-535
456.759	-654
456.817	-1398
456.840	-1287
456.886	-1029
456.920	-912
456.955	-738
457.001	-625
457.024	-647
457.082	-695
457.093	-641
457.162	-160
457.163	-154
457.232	-567
457.243	-675
457.301	-1165
457.324	-1189
457.370	-1169
457.405	-840
457.439	-488
457.485	-792
457.508	-946
457.566	-663
457.577	-625
457.646	-533
457.647	-529
457.715	-540
457.727	-632
457.784	-813
457.808	-393
457.853	253
457.889	446
457.922	450
457.969	-346
457.991	-583
458.050	-272
458.060	-215
458.129	411
458.130	413
458.198	82
458.211	44
458.267	-245
458.292	-428
458.336	-667
458.372	-673
458.405	-549
458.453	-508
458.474	-546
458.533	197
458.543	328
458.611	924
458.614	949
458.680	1081
458.694	778
458.749	-359
458.775	-343
458.818	-112
458.855	-277
458.887	-363
458.936	-182
458.955	-241
459.016	-548
459.024	-552
459.093	-195
459.097	-199
459.162	-638
459.177	-654
459.230	-422
459.257	-171
459.299	129
459.338	18
459.368	-38
459.418	306
459.437	267
459.499	-178
459.505	-167
459.574	-244
459.579	-219
459.643	-1
459.659	69
459.711	-22
459.740	-198
459.780	-156
459.820	127
459.849	94
459.900	-357
459.917	-342
459.981	-539
459.986	-583
460.054	313
460.061	287
460.123	-42
460.141	-128
460.191	-55
460.222	40
460.260	24
460.302	340
460.328	375
460.382	328
460.397	397
460.462	-83
460.465	-109
460.534	130
460.543	143
460.602	1348
460.623	1926
460.671	3958
460.703	6707
460.739	7777
460.783	7976
460.808	7809
460.864	2875
460.876	2238
460.944	479
460.945	450
461.013	-81
461.024	-157
461.081	-217
461.104	-157
461.150	45
461.184	44
461.218	-204
461.264	-490
461.286	-430
461.345	-213
461.355	-215
461.423	22
461.425	17
461.491	-42
461.505	-6
461.559	245
461.585	437
461.628	1379
461.665	2313
461.696	2740
461.745	4220
461.764	4214
461.825	2322
461.832	2274
461.901	827
461.905	827
461.969	322
461.985	142
462.037	101
462.065	389
462.105	566
462.145	379
462.173	497
462.225	939
462.241	1176
462.305	2338
462.310	2273
462.378	1598
462.385	1366
462.446	606
462.465	411
462.514	119
462.545	174
462.582	117
462.625	96
462.650	165
462.705	454
462.718	508
462.785	300
462.786	298
462.854	656
462.865	722
462.922	1283
462.945	1434
462.990	1049
463.025	632
463.058	819
463.104	939
463.126	568
463.184	-108
463.194	-12
463.262	629
463.264	658
463.330	129
463.344	-19
463.398	960
463.424	1274
463.466	876
463.504	880
463.533	719
463.583	192
463.601	341
463.663	735
463.669	749
463.737	1156
463.743	1191
463.805	1369
463.823	1418
463.873	2134
463.903	2664
463.940	3189
463.982	4114
464.008	3748
464.062	1851
464.076	1615
464.142	647
464.144	635
464.211	264
464.221	265
464.279	-111
464.301	-361
464.347	244
464.381	910
464.414	1051
464.461	1078
464.482	881
464.540	794
464.550	916
464.617	1118
464.620	1127
464.685	1356
464.699	1401
464.753	1434
464.779	1537
464.820	1350
464.859	1153
464.888	1218
464.938	1260
464.956	1424
465.018	1935
465.023	1917
465.091	1725
465.098	1687
465.158	1465
465.177	1455
465.226	1209
465.257	1046
465.293	1207
465.336	1297
465.361	1227
465.416	1110
465.428	1271
465.495	2202
465.496	2211
465.563	3040
465.575	3222
465.631	4303
465.654	4932
465.698	4095
465.734	2939
465.765	2162
465.813	721
465.833	763
465.893	1436
465.900	1384
465.968	890
465.972	852
466.035	1602
466.052	1817
466.102	1560
466.131	1420
466.170	1379
466.210	1257
466.237	1434
466.290	1896
466.304	1856
466.369	1504
466.372	1516
466.439	1924
466.449	1971
466.506	2119
466.528	2187
466.573	2636
466.607	2915
466.641	3910
466.687	5407
466.708	6044
466.766	7873
466.775	7490
466.842	4532
466.845	4384
466.909	2856
466.925	2540
466.977	2276
467.004	2161
467.044	2485
467.083	2821
467.111	2907
467.163	3050
467.178	2972
467.242	2670
467.245	2634
467.312	1907
467.321	1816
467.379	1672
467.400	1618
467.446	2354
467.480	2891
467.559	2030
467.638	2276
467.717	1685
467.796	1880
467.875	1428
467.955	1525
468.034	2897
468.113	4920
468.192	8493
468.271	2688
468.350	1629
468.429	2714
468.508	1145
468.588	1497
468.667	1623
468.746	1715
468.825	1772
468.904	1825
468.983	1278
469.062	2145
469.141	2550
469.220	1940
469.299	1145
469.378	639
469.456	1929
469.535	1619
469.614	1757
469.693	103
469.772	1854
469.851	2465
469.930	1763
470.009	798
470.088	1584
470.166	1512
470.245	1728
470.324	1377
470.403	1050
470.482	1265
470.560	1192
470.639	1559
470.718	958
470.797	958
470.875	1006
470.954	1807
471.033	2479
471.111	910
471.190	424
471.269	959
471.347	1211
471.426	1409
471.505	674
471.583	1501
471.662	547
471.740	1175
471.819	760
471.898	788
471.976	919
472.055	1044
472.133	889
472.212	1632
472.290	1954
472.369	1686
472.447	926
472.526	771
472.604	1322
472.683	1562
472.761	1240
472.839	1655
472.918	514
472.996	1291
473.075	2128
473.153	1142
473.231	334
473.310	931
473.388	1519
473.466	930
473.545	742
473.623	1106
473.701	1401
473.780	1349
473.858	258
473.936	1530
474.014	1177
474.093	924
474.171	1631
474.249	2254
474.327	1805
474.405	435
474.484	1128
474.562	32
474.640	119
474.718	806
474.796	996
474.874	2135
474.952	902
475.030	88
475.108	906
475.187	1535
475.265	1632
475.343	1698
475.421	2444
475.499	778
475.577	1945
475.655	1648
475.733	2627
475.811	4855
475.889	3808
475.966	2956
476.044	1168
476.122	1407
476.200	1545
476.278	1260
476.356	1389
476.434	1023
476.512	1023
476.590	1487
476.667	1521
476.745	475
476.823	248
476.901	1312
476.979	583
477.056	611
477.134	746
477.212	511
477.290	774
477.367	841
477.445	530
477.523	529
477.601	683
477.678	708
477.756	1444
477.834	1446
477.911	-496
477.989	1281
478.066	427
478.144	911
478.222	1240
478.299	2047
478.377	2057
478.454	1479
478.532	874
478.609	280
478.687	1121
478.764	234
478.842	179
478.919	725
478.997	332
479.074	290
479.152	588
479.229	1304
479.307	1375
479.384	409
479.461	1178
479.539	20
479.616	-71
479.694	788
479.771	496
479.848	300
479.926	568
480.003	1503
480.080	903
480.157	562
480.235	112
480.312	726
480.389	443
480.467	1105
480.544	2114
480.621	605
480.698	1179
480.775	784
480.853	1130
480.930	293
481.007	464
481.084	182
481.161	965
481.238	1188
481.315	101
481.392	725
481.470	865
481.547	414
481.624	717
481.701	1270
481.778	-74
481.855	1565
481.932	1414
482.009	2338
482.086	1018
482.163	868
482.240	513
482.317	2565
482.393	2211
482.470	507
482.547	664
482.624	435
482.701	259
482.778	1171
482.855	591
482.932	1435
483.009	290
483.085	691
483.162	132
483.239	1124
483.316	-5
483.393	958
483.469	481
483.546	617
483.623	669
483.699	599
483.776	144
483.853	1041
483.930	318
484.006	3680
484.083	7498
484.160	4441
484.236	6060
484.313	4273
484.389	2951
484.466	3108
484.543	2697
484.619	2123
484.696	3366
484.772	2471
484.849	2406
484.925	2133
485.002	2411
485.078	2435
485.155	2940
485.231	1861
485.308	2696
485.384	2303
485.461	2560
485.537	3371
485.614	6104
485.690	2967
485.766	2552
485.843	1920
485.919	1975
485.995	2494
486.072	2049
486.148	2165
486.224	1451
486.301	2179
486.377	1703
486.453	1837
486.530	2486
486.606	3044
486.682	3211
486.758	3574
486.835	4544
486.911	2535
486.987	6670
487.063	5404
487.139	5720
487.215	4578
487.292	3218
487.368	2100
487.444	1858
487.520	2987
487.596	2477
487.672	2895
487.748	2852
487.824	4691
487.900	2782
487.976	2593
488.052	1807
488.128	2583
488.204	1276
488.280	2572
488.356	1963
488.432	4703
488.508	8029
488.584	2511
488.660	2177
488.736	1727
488.812	1256
488.888	2193
488.964	2261
489.039	4785
489.115	7739
489.191	5082
489.267	2444
489.343	2030
489.418	1594
489.494	1635
489.570	1044
489.646	1416
489.722	1567
489.797	1216
489.873	2270
489.949	5222
490.024	4869
490.100	1144
490.176	1806
490.251	1067
490.327	2291
490.403	1381
490.478	1398
490.554	1515
490.629	2275
490.705	660
490.781	1367
490.856	646
490.932	1078
491.007	940
491.083	763
491.158	1668
491.234	2007
491.309	3591
491.385	4021
491.460	1181
491.536	1781
491.611	952
491.686	1694
491.762	2527
491.837	3123
491.913	4899
491.988	6824
492.063	9306
492.139	3974
492.214	2175
492.289	613
492.365	445
492.440	1017
492.515	1280
492.590	1123
492.666	86
492.741	1384
492.816	1583
492.891	980
492.967	893
493.042	554
493.117	313
493.192	667
493.267	2500
493.342	10168
493.418	19857
493.493	3220
493.568	1016
493.643	870
493.718	1702
493.793	1570
493.868	1934
493.943	1484
494.018	632
494.093	1203
494.168	704
494.243	611
494.318	1658
494.393	1399
494.468	1105
494.543	505
494.618	926
494.693	506
494.768	-8
494.842	1053
494.917	343
494.992	152
495.067	545
495.142	749
495.217	227
495.292	558
495.366	475
495.441	967
495.516	2137
495.591	1695
495.665	5033
495.740	15098
495.815	8397
495.890	1342
495.964	476
496.039	2102
496.114	735
496.188	454
496.263	852
496.338	1274
496.412	1292
496.487	1750
496.561	1936
496.636	1927
496.710	1373
496.785	1209
496.860	2288
496.934	1274
497.009	1017
497.083	1167
497.158	1642
497.232	2151
497.307	2593
497.381	2144
497.455	1833
497.530	3716
497.604	2641
497.679	3442
497.753	4666
497.827	5653
497.902	6681
497.976	6436
498.050	11533
498.125	40897
498.199	58283
498.273	11948
498.348	7926
498.422	6382
498.496	5290
498.570	4342
498.645	3157
498.719	2890
498.793	3827
498.867	5187
498.941	6151
499.016	13573
499.090	46735
499.164	23760
499.238	2784
499.312	1984
499.386	1935
499.460	1853
499.534	1766
499.609	2347
499.683	4229
499.757	3997
499.831	5588
499.905	25970
499.979	34954
500.053	5648
500.127	3859
500.201	2333
500.275	2346
500.349	1457
500.422	1816
500.496	2571
500.570	3942
500.644	13123
500.718	31839
500.792	9366
500.866	1988
500.940	2680
501.013	1428
501.087	1950
501.161	3117
501.235	3111
501.309	6785
501.382	22268
501.456	27890
501.530	5536
501.603	7534
501.677	3323
501.751	-224
501.825	2080
501.898	2551
501.972	8773
502.046	7144
502.119	708
502.193	2884
502.266	9964
502.340	7037
502.413	3817
502.487	8660
502.561	4930
502.634	1417
502.708	-265
502.781	404
502.855	786
502.928	552
503.002	464
503.075	-50
503.149	338
503.222	97
503.295	438
503.369	1603
503.442	1385
503.516	4917
503.589	16666
503.662	13709
503.736	2716
503.809	7072
503.882	6267
503.956	8580
504.029	9958
504.102	2611
504.175	2726
504.249	-13
504.322	694
504.395	1711
504.468	1170
504.542	62
504.615	-673
504.688	611
504.761	-71
504.834	1622
504.907	1337
504.980	1028
505.053	135
505.127	-902
505.200	2244
505.273	785
505.346	156
505.419	-771
505.492	1411
505.565	1
505.638	139
505.711	-451
505.784	-441
505.857	-34
505.930	1072
506.003	-766
506.076	970
506.149	711
506.221	841
506.294	796
506.367	1968
506.440	11268
506.513	9663
506.586	1066
506.659	-62
506.731	-340
506.804	367
506.877	49
506.950	859
507.022	1090
507.095	267
507.168	380
507.241	919
507.313	-179
507.386	-1259
507.459	-44
507.531	396
507.604	-120
507.677	423
507.749	-544
507.822	960
507.894	901
507.967	2168
508.040	730
508.112	1076
508.185	637
508.257	-737
508.330	1630
508.402	168
508.475	220
508.547	744
508.620	146
508.692	689
508.765	920
508.837	402
508.909	195
508.982	-372
509.054	452
509.127	-64
509.199	190
509.271	206
509.344	-179
509.416	91
509.488	67
509.560	505
509.633	-665
509.705	-184
509.777	434
509.849	448
509.922	-619
509.994	502
510.066	978
510.138	-893
510.210	1555
510.283	2022
510.355	1103
510.427	1101
510.499	483
510.571	249
510.643	257
510.715	1166
510.787	227
510.859	813
510.931	814
511.003	908
511.076	1252
511.148	689
511.219	-711
511.291	1066
511.363	1366
511.435	-210
511.507	-516
511.579	337
511.651	583
511.723	1227
511.795	746
511.867	299
511.939	653
512.010	695
512.082	1922
512.154	167
512.226	179
512.298	730
512.369	1945
512.441	929
512.513	1305
512.585	0
512.656	-54
512.728	724
512.800	626
512.871	283
512.943	322
513.015	-684
513.086	-123
513.158	802
513.230	20
513.301	190
513.373	1928
513.444	509
513.516	519
513.588	100
513.659	-198
513.731	907
513.802	77
513.874	1529
513.945	2527
514.016	101
514.088	-10
514.159	12
514.231	682
514.302	1650
514.374	1201
514.445	-514
514.516	3155
514.588	1921
514.659	443
514.730	1131
514.802	1643
514.873	-46
514.944	2667
515.016	1816
515.087	490
515.158	1713
515.229	2892
515.301	1665
515.372	3838
515.443	1344
515.514	1079
515.585	367
515.656	1794
515.728	1122
515.799	-290
515.870	1031
515.941	492
516.012	-935
516.083	440
516.154	-597
516.225	2084
516.296	937
516.367	963
516.438	990
516.509	531
516.580	1604
516.651	4939
516.722	17727
516.793	13359
516.864	1924
516.935	1830
517.006	2821
517.077	2727
517.148	6182
517.219	17421
517.289	38512
517.360	15876
517.431	7626
517.502	825
517.573	1262
517.643	90
517.714	374
517.785	1054
517.856	-186
517.926	2075
517.997	1887
518.068	1233
518.138	2862
518.209	3224
518.280	9729
518.350	53598
518.421	29128
518.492	2512
518.562	1649
518.633	780
518.703	-579
518.774	2013
518.845	2452
518.915	2823
518.986	610
519.056	2070
519.127	2539
519.197	4303
519.268	11146
519.338	12301
519.408	1797
519.479	1686
519.549	652
519.620	2006
519.690	800
519.760	268
519.831	29
519.901	-597
519.971	569
520.042	-40
520.112	-306
520.182	1107
520.253	352
520.323	179
520.393	251
520.463	3133
520.534	-788
520.604	3805
520.674	1651
520.744	156
520.814	1605
520.885	3315
520.955	3385
521.025	15799
521.095	9010
521.165	1014
521.235	651
521.305	-701
521.375	22
521.445	692
521.515	-256
521.585	400
521.655	-88
521.725	1169
521.795	1047
521.865	-1678
521.935	1745
522.005	-112
522.075	230
522.145	467
522.215	133
522.285	67
522.355	119
522.424	3025
522.494	1964
522.564	853
522.634	1032
522.704	5956
522.774	2249
522.843	472
522.913	25
522.983	-200
523.053	-548
523.122	357
523.192	-411
523.262	1622
523.331	2046
523.401	367
523.471	-589
523.540	358
523.610	-1459
523.680	101
523.749	720
523.819	740
523.888	155
523.958	-277
524.027	194
524.097	-143
524.166	-202
524.236	-723
524.305	643
524.375	163
524.444	-756
524.514	790
524.583	-55
524.653	-319
524.722	534
524.791	-1197
524.861	268
524.930	-367
524.999	-320
525.069	1329
525.138	267
525.207	-501
525.277	927
525.346	-376
525.415	605
525.484	-504
525.554	-491
525.623	-195
525.692	-386
525.761	158
525.830	153
525.900	-64
525.969	146
526.038	508
526.107	-301
526.176	4164
526.245	2509
526.314	1723
526.383	2356
526.452	1230
526.522	5730
526.591	6600
526.660	2965
526.729	648
526.797	2153
526.867	3072
526.935	18207
527.004	23324
527.073	10846
527.142	331
527.211	97
527.280	1168
527.349	491
527.418	-1097
527.487	373
527.555	-1114
527.624	-264
527.693	-1281
527.762	438
527.831	-1671
527.899	-131
527.968	-416
528.037	-794
528.106	-61
528.174	1252
528.243	445
528.312	430
528.380	704
528.449	-952
528.518	482
528.586	-1127
528.655	359
528.723	-546
528.792	-1135
528.861	-321
528.929	-1313
528.998	546
529.066	-92
529.135	-456
529.203	31
529.272	-1427
529.340	128
529.409	9
529.477	-501
529.545	-1312
529.614	499
529.682	-957
529.751	-304
529.819	1406
529.887	375
529.956	-1042
530.024	445
530.092	-1522
530.161	162
530.229	269
530.297	-1231
530.365	929
530.434	138
530.502	-320
530.570	166
530.638	-2110
530.707	-446
530.775	352
530.843	-1257
530.911	-519
530.979	-673
531.047	-1741
531.115	539
531.183	-499
531.252	231
531.320	-752
531.388	-399
531.456	-247
531.524	-1402
531.592	-64
531.660	515
531.728	-1585
531.796	-884
531.864	-590
531.932	-488
532.000	-768
532.067	-542
532.135	-1049
532.203	465
532.271	-1123
532.339	590
532.407	1416
532.475	1562
532.542	291
532.610	703
532.678	-303
532.746	3693
532.814	14698
532.881	3851
532.949	201
533.017	-427
533.084	538
533.152	-687
533.220	-202
533.287	-893
533.355	48
533.423	-510
533.490	-185
533.558	-601
533.625	-1058
533.693	-1170
533.761	-264
533.828	286
533.896	-2246
533.963	708
534.031	1232
534.098	1286
534.166	272
534.233	-1023
534.300	134
534.368	-157
534.435	-927
534.503	318
534.570	628
534.637	-873
534.705	-290
534.772	258
534.840	-742
534.907	1235
534.974	2235
535.041	0
535.109	491
535.176	-1166
535.243	-576
535.310	-149
535.378	-1443
535.445	-467
535.512	-671
535.579	113
535.646	-881
535.714	-36
535.781	-225
535.848	-52
535.915	353
535.982	-589
536.049	-490
536.116	579
536.183	-485
536.250	-77
536.317	-226
536.384	-406
536.451	170
536.518	701
536.585	-1575
536.652	574
536.719	267
536.786	317
536.853	-720
536.920	752
536.987	681
537.053	269
537.120	5799
537.187	7970
537.254	-213
537.321	-1348
537.388	268
537.454	-789
537.521	-711
537.588	-645
537.654	351
537.721	-288
537.788	220
537.855	-834
537.921	-930
537.988	-820
538.055	356
538.121	-649
538.188	-387
538.254	893
538.321	657
538.388	874
538.454	-513
538.521	-796
538.587	268
538.654	-1560
538.720	-547
538.787	-460
538.853	-299
538.920	-657
538.986	580
539.053	20
539.119	-393
539.185	4
539.252	356
539.318	-126
539.385	803
539.451	-1037
539.517	431
539.583	492
539.650	452
539.716	4466
539.782	1127
539.849	-404
539.915	539
539.981	-686
540.047	-543
540.114	-322
540.180	246
540.246	-611
540.312	-460
540.378	379
540.444	2153
540.510	1354
540.576	5277
540.643	1765
540.709	-1377
540.775	284
540.841	138
540.907	856
540.973	300
541.039	1282
541.105	778
541.171	-152
541.237	-336
541.303	841
541.369	258
541.435	-54
541.500	932
541.566	-154
541.632	237
541.698	-759
541.764	143
541.830	-144
541.896	-1269
541.961	-541
542.027	29
542.093	95
542.159	202
542.224	-780
542.290	516
542.356	-138
542.421	1901
542.487	437
542.553	-313
542.618	-417
542.684	-261
542.750	236
542.815	617
542.881	663
542.947	3876
543.012	4969
543.078	-856
543.143	-1354
543.209	300
543.274	-738
543.340	349
543.405	1303
543.471	1950
543.536	33
543.602	-648
543.667	-880
543.732	752
543.798	-1285
543.863	6
543.928	-814
543.994	-362
544.059	43
544.124	9
544.190	-556
544.255	527
544.320	163
544.386	-1483
544.451	293
544.516	-202
544.581	-127
544.646	1466
544.712	5477
544.777	1378
544.842	278
544.907	-149
544.972	-101
545.037	270
545.102	-355
545.168	302
545.233	382
545.298	817
545.363	203
545.428	1134
545.493	1988
545.558	2504
545.623	2057
545.688	-515
545.753	755
545.818	386
545.883	797
545.947	-222
546.012	609
546.077	-290
546.142	1538
546.207	-470
546.272	435
546.337	245
546.401	-232
546.466	201
546.531	-335
546.596	618
546.661	-275
546.725	1371
546.790	-680
546.855	881
546.919	-1300
546.984	568
547.049	438
547.113	-98
547.178	22
547.243	1130
547.307	1249
547.372	364
547.436	556
547.501	202
547.565	273
547.630	1362
547.695	730
547.759	858
547.823	567
547.888	777
547.952	605
548.017	115
548.081	511
548.146	725
548.210	1455
548.274	509
548.339	328
548.403	1145
548.468	906
548.532	63
548.596	663
548.660	-177
548.725	852
548.789	509
548.853	1457
548.917	204
548.982	882
549.046	1605
549.110	199
549.174	134
549.238	380
549.303	-200
549.367	1760
549.431	865
549.495	-35
549.559	-323
549.623	767
549.687	927
549.751	1366
549.815	-329
549.879	2024
549.943	164
550.007	1257
550.071	652
550.135	1722
550.199	407
550.263	671
550.327	1157
550.391	764
550.455	495
550.519	276
550.582	1069
550.646	1840
550.710	952
550.774	1433
550.838	1536
550.901	680
550.965	1664
551.029	1597
551.093	2197
551.156	1708
551.220	3557
551.284	4848
551.347	2785
551.411	4057
551.475	7085
551.538	2203
551.602	1753
551.666	938
551.729	108
551.793	974
551.856	1027
551.920	932
551.983	634
552.047	436
552.110	1393
552.174	961
552.237	277
552.301	935
552.364	1806
552.428	372
552.491	576
552.554	931
552.618	1311
552.681	700
552.745	388
552.808	1301
552.871	2496
552.934	1383
552.998	601
553.061	-142
553.124	1440
553.187	1436
553.251	1564
553.314	2169
553.377	1549
553.440	3582
553.503	7742
553.567	19800
553.630	4774
553.693	467
553.756	1274
553.819	170
553.882	742
553.945	1244
554.008	1366
554.071	491
554.134	728
554.197	511
554.260	989
554.323	1302
554.386	1431
554.449	203
554.512	1648
554.575	510
554.638	579
554.701	932
554.764	850
554.827	775
554.889	952
554.952	268
555.015	261
555.078	1104
555.141	1693
555.203	557
555.266	930
555.329	411
555.391	-149
555.454	898
555.517	1211
555.580	796
555.642	587
555.705	153
555.768	609
555.830	1001
555.893	73
555.955	952
556.018	511
556.080	613
556.143	103
556.206	57
556.268	575
556.330	1107
556.393	1169
556.455	579
556.518	1260
556.580	2023
556.643	1099
556.705	953
556.767	-59
556.830	1433
556.892	729
556.955	864
557.017	1698
557.079	1413
557.142	-120
557.204	833
557.266	1769
557.328	2588
557.391	-101
557.453	335
557.515	248
557.577	875
557.639	691
557.701	531
557.764	-379
557.826	267
557.888	898
557.950	343
558.012	1051
558.074	684
558.136	1875
558.198	4487
558.260	3439
558.322	668
558.384	1000
558.446	2055
558.508	2309
558.570	2534
558.632	3551
558.694	5995
558.756	4743
558.818	9831
558.880	29461
558.942	13893
559.003	5349
559.065	4388
559.127	1757
559.189	1685
559.251	2022
559.312	2699
559.374	4545
559.436	15953
559.498	13343
559.559	1961
559.621	1770
559.683	1958
559.744	3606
559.806	7073
559.868	14542
559.929	4537
559.991	2675
560.052	2039
560.114	4630
560.176	4313
560.237	3463
560.299	5749
560.360	2271
560.422	1972
560.483	1291
560.545	1593
560.606	1339
560.667	1551
560.729	567
560.790	876
560.852	1373
560.913	1411
560.974	1566
561.036	734
561.097	1148
561.158	1980
561.220	1739
561.281	1586
561.342	1731
561.403	2226
561.465	1484
561.526	3935
561.587	6385
561.648	1808
561.709	1499
561.771	1070
561.832	789
561.893	1053
561.954	1738
562.015	1313
562.076	1339
562.137	1820
562.198	1473
562.259	2185
562.320	1351
562.381	1678
562.442	1632
562.503	2501
562.564	2144
562.625	1267
562.686	1890
562.747	968
562.808	2355
562.869	1371
562.930	2788
562.991	2637
563.051	2037
563.112	1904
563.173	1574
563.234	1245
563.294	2525
563.355	1169
563.416	2159
563.477	2081
563.537	1587
563.598	2287
563.659	2088
563.720	1322
563.780	1968
563.841	2331
563.901	2483
563.962	1962
564.023	2502
564.083	2291
564.144	2467
564.204	2168
564.265	1437
564.325	3015
564.386	4461
564.446	4237
564.507	2316
564.567	3163
564.628	2176
564.688	1988
564.749	2079
564.809	2205
564.869	3191
564.930	2615
564.990	3310
565.050	1974
565.111	2220
565.171	2440
565.231	2318
565.292	4385
565.352	2114
565.412	3415
565.472	2974
565.532	3257
565.593	2759
565.653	3517
565.713	3662
565.773	4295
565.833	3242
565.893	5129
565.953	4658
566.013	3507
566.074	5307
566.134	5940
566.194	6466
566.254	6791
566.314	6776
566.374	5204
566.434	5868
566.494	5961
566.554	6009
566.614	7356
566.673	6923
566.733	8200
566.793	7964
566.853	8942
566.913	9127
566.973	9202
567.033	9998
567.092	9067
567.152	8614
567.212	10634
567.272	9810
567.331	10128
567.391	10729
567.451	11823
567.511	11412
567.570	12929
567.630	10935
567.690	10181
567.749	11070
567.809	11866
567.868	13590
567.928	15917
567.988	18657
568.047	21816
568.107	28397
568.166	34314
568.226	45490
568.285	61975
568.345	63447
568.404	58555
568.464	53861
568.523	52587
568.582	52630
568.642	55511
568.701	62312
568.761	77032
568.820	103943
568.879	113599
568.939	99839
568.998	83200
569.057	69372
569.116	58142
569.176	49226
569.235	43032
569.294	37078
569.353	30457
569.413	28533
569.472	24878
569.531	22187
569.590	18663
569.649	18230
569.708	16472
569.767	15057
569.827	14459
569.886	13266
569.945	11467
570.004	10512
570.063	10701
570.122	10447
570.181	10614
570.240	9150
570.299	8458
570.358	8390
570.417	7266
570.475	6979
570.534	6903
570.593	6993
570.652	7100
570.711	5996
570.770	4999
570.829	6353
570.887	5259
570.946	6257
571.005	5866
571.064	4997
571.122	5954
571.181	5727
571.240	5645
571.299	5468
571.357	5408
571.416	5661
571.475	5653
571.533	6776
571.592	4956
571.650	5675
571.709	4635
571.768	4276
571.826	4682
571.885	4102
571.943	5258
572.002	4090
572.060	5459
572.119	4036
572.177	4654
572.236	3833
572.294	4490
572.352	5137
572.411	4438
572.469	3638
572.528	3919
572.586	4077
572.644	4220
572.703	5341
572.761	4586
572.819	3783
572.877	4242
572.936	4053
572.994	3766
573.052	3787
573.110	3720
573.169	4314
573.227	4065
573.285	4201
573.343	3374
573.401	4193
573.459	3723
573.517	3367
573.576	3843
573.634	3528
573.692	4474
573.750	3983
573.808	4151
573.866	4256
573.924	5433
573.982	5211
574.040	4084
574.098	4478
574.155	3284
574.213	3786
574.271	3394
574.329	4114
574.387	3580
574.445	4139
574.503	4427
574.560	4378
574.618	4519
574.676	3341
574.734	3635
574.792	3380
574.849	4051
574.907	3224
574.965	4426
575.022	2707
575.080	4308
575.138	4237
575.195	3849
575.253	4315
575.311	4139
575.368	4850
575.426	3166
575.483	4965
575.541	4433
575.598	4185
575.656	4445
575.713	3836
575.771	3954
575.828	4705
575.886	4605
575.943	5123
576.001	4110
576.058	3630
576.115	5581
576.173	5150
576.230	4611
576.287	5663
576.345	5429
576.402	5564
576.459	4621
576.517	4756
576.574	5095
576.631	5116
576.688	5070
576.746	5501
576.803	5260
576.860	4526
576.917	5657
576.974	5590
577.031	5030
577.089	5041
577.146	4848
577.203	5458
577.260	5262
577.317	5062
577.374	5621
577.431	5999
577.488	5398
577.545	5981
577.602	6496
577.659	5760
577.716	5881
577.773	6466
577.830	6116
577.886	6148
577.943	6435
578.000	5595
578.057	5767
578.114	6739
578.171	6585
578.227	8095
578.284	8595
578.341	7601
578.398	8009
578.454	6641
578.511	6956
578.568	7303
578.625	6702
578.681	5786
578.738	5741
578.794	6549
578.851	5572
578.908	6245
578.964	6719
579.021	7083
579.077	6149
579.134	6160
579.190	7256
579.247	5810
579.303	6138
579.360	5413
579.416	5453
579.473	5895
579.529	6237
579.586	6531
579.642	6829
579.698	6977
579.755	7758
579.811	7211
579.867	6804
579.924	7943
579.980	8383
580.036	8740
580.093	10047
580.149	11725
580.205	13101
580.261	13134
580.317	10927
580.374	9700
580.430	10068
580.486	8966
580.542	8303
580.598	7802
580.619	8144
580.654	8747
580.692	8137
580.710	7853
580.765	7833
580.767	7839
580.823	7694
580.838	7877
580.879	8405
580.911	8515
580.935	8604
580.984	7819
580.991	7719
581.047	8966
581.057	8919
581.103	8768
581.130	8922
581.159	9093
581.203	9065
581.215	9068
581.270	9249
581.276	9243
581.326	9267
581.349	9041
581.382	8676
581.422	8612
581.438	8624
581.494	8909
581.494	8914
581.550	9865
581.567	9759
581.606	9618
581.640	8832
581.661	8346
581.713	9309
581.717	9393
581.773	8802
581.786	8823
581.829	8904
581.859	9246
581.885	9541
581.932	9254
581.940	9208
581.996	9597
582.004	9477
582.052	8908
582.077	9257
582.107	9608
582.150	9233
582.163	9144
582.219	9125
582.223	9185
582.274	9896
582.296	10037
582.330	10338
582.368	10302
582.386	10266
582.441	10063
582.441	10065
582.497	9711
582.514	9973
582.552	10652
582.587	10620
582.608	10591
582.659	10871
582.663	10884
582.719	10976
582.732	10804
582.774	10461
582.805	10650
582.830	10692
582.877	11081
582.885	11169
582.941	11145
582.950	11209
582.996	11504
583.023	11547
583.052	11715
583.095	12208
583.107	12321
583.162	14310
583.168	14315
583.218	14352
583.240	14203
583.273	13884
583.313	13786
583.328	13704
583.384	12898
583.385	12883
583.439	12810
583.458	12724
583.494	12475
583.531	12353
583.549	12340
583.603	12533
583.605	12527
583.660	12188
583.676	12427
583.715	13334
583.748	13450
583.770	13435
583.820	12919
583.825	12879
583.881	13424
583.893	13471
583.936	13665
583.965	13693
583.991	13411
584.038	13456
584.046	13568
584.101	14627
584.110	14454
584.156	13320
584.183	13958
584.211	14696
584.255	14692
584.266	14659
584.321	14219
584.328	14196
584.376	14074
584.400	14496
584.431	15013
584.472	15020
584.486	15076
584.541	15162
584.545	15201
584.596	15521
584.617	15701
584.651	16220
584.689	16610
584.706	16625
584.761	16804
584.762	16806
584.816	16574
584.834	16704
584.871	16856
584.906	16810
584.926	16834
584.978	16996
584.980	17001
585.035	18330
585.051	18527
585.090	19010
585.123	19398
585.145	19503
585.195	18847
585.200	18843
585.254	20815
585.267	21120
585.309	21595
585.340	22165
585.364	22740
585.412	23110
585.419	23034
585.473	22637
585.484	22739
585.528	23804
585.556	24282
585.583	25303
585.628	28007
585.637	29044
585.692	36931
585.700	38715
585.747	48227
585.772	49092
585.801	42995
585.845	30946
585.856	29204
585.910	26170
585.917	25870
585.965	25708
585.989	26285
586.019	26936
586.061	27227
586.074	27253
586.128	27563
586.133	27649
586.183	28759
586.205	29311
586.237	29808
586.277	30499
586.292	30741
586.346	31109
586.349	31151
586.401	31434
586.421	32013
586.455	32969
586.493	34249
586.509	35309
586.564	38639
586.565	38779
586.618	45419
586.637	47521
586.672	46629
586.709	43392
586.727	42028
586.781	40095
586.781	40048
586.835	40507
586.853	40851
586.889	41734
586.925	42426
586.944	42745
586.996	45413
586.998	45428
587.052	47135
587.068	47815
587.106	49097
587.140	50069
587.161	50646
587.212	53507
587.215	53583
587.269	55987
587.284	56885
587.323	58977
587.356	60571
587.377	61350
587.427	64380
587.431	64496
587.485	67469
587.499	68626
587.539	71809
587.571	74127
587.593	75791
587.643	80869
587.648	81238
587.702	87504
587.715	89227
587.755	93793
587.786	97026
587.810	99333
587.858	106882
587.864	107650
587.917	117367
587.930	120110
587.971	128628
588.001	135311
588.025	140758
588.073	153065
588.079	154374
588.133	171645
588.145	175843
588.187	190541
588.217	201889
588.241	212107
588.288	236558
588.295	239598
588.348	269785
588.360	277164
588.402	306720
588.431	330238
588.456	351722
588.503	395918
588.510	402771
588.564	466578
588.575	481253
588.617	551971
588.646	602945
588.671	662545
588.718	778778
588.725	804083
588.778	1002715
588.789	1039414
588.832	1213870
588.861	1314412
588.886	1307827
588.932	1267474
588.939	1237005
588.993	994552
589.004	957233
589.047	1197602
589.075	1370622
589.100	1354304
589.147	1285976
589.154	1262052
589.207	1027555
589.218	977156
589.261	885648
589.290	829026
589.314	830520
589.361	842413
589.368	857956
589.421	997504
589.433	1025335
589.475	1182562
589.504	1276718
589.528	1244341
589.576	1157032
589.582	1158031
589.635	1199074
589.647	1212898
589.689	1158204
589.718	1091118
589.742	970638
589.790	701776
589.795	684349
589.849	523454
589.861	488086
589.902	418595
589.932	370044
589.955	340498
590.004	285195
590.009	280439
590.062	238523
590.075	229526
590.115	207583
590.146	192150
590.168	182204
590.218	163455
590.222	161687
590.275	145444
590.289	141910
590.328	132111
590.360	125102
590.381	120134
590.431	110334
590.435	109493
590.488	101179
590.503	99380
590.541	94392
590.574	90357
590.594	87795
590.645	83375
590.647	82885
590.700	76349
590.716	74599
590.753	71278
590.787	69062
590.806	67607
590.859	64428
590.859	64163
590.912	60213
590.930	59299
590.965	57596
591.001	56142
591.018	54914
591.071	51798
591.072	51934
591.124	51057
591.143	50839
591.177	48287
591.214	46129
591.230	45777
591.283	45025
591.285	45127
591.336	43453
591.356	43077
591.389	42187
591.427	41303
591.442	40591
591.495	38303
591.498	38259
591.547	37254
591.569	37070
591.600	36470
591.640	35713
591.653	35345
591.706	34307
591.711	34310
591.759	33609
591.782	33384
591.811	33548
591.853	34050
591.864	33588
591.917	31597
591.924	31417
591.969	30380
591.995	29859
592.022	29451
592.066	29082
592.075	29126
592.127	29914
592.137	30142
592.180	31148
592.208	31901
592.233	30869
592.279	29048
592.285	28782
592.338	27126
592.350	26827
592.390	25757
592.421	25065
592.443	24899
592.491	24783
592.495	24708
592.548	24604
592.562	24645
592.600	24026
592.633	23610
592.653	23294
592.704	22533
592.705	22639
592.775	21624
592.846	22231
592.916	21878
592.987	21702
593.058	22408
593.128	20287
593.199	20776
593.270	19916
593.341	19192
593.411	19775
593.482	19760
593.553	19238
593.623	18348
593.694	18887
593.764	19238
593.835	18761
593.906	16626
593.976	17670
594.047	17929
594.117	19992
594.188	20491
594.258	17370
594.329	16665
594.399	16613
594.470	16376
594.540	16501
594.611	15508
594.681	16052
594.751	16307
594.822	15921
594.892	15856
594.963	16998
595.033	15943
595.103	15665
595.174	17222
595.244	20604
595.314	26733
595.384	17832
595.455	15430
595.525	15979
595.595	14995
595.665	15933
595.736	15162
595.806	15840
595.876	15054
595.946	15023
596.016	14001
596.087	15547
596.157	14940
596.227	15263
596.297	15017
596.367	15964
596.437	16791
596.507	19690
596.577	25677
596.647	18346
596.717	15561
596.787	16112
596.857	16025
596.927	15837
596.997	15413
597.067	15817
597.137	17598
597.207	18032
597.277	14776
597.347	15858
597.417	15288
597.487	15682
597.557	15736
597.626	15342
597.696	15608
597.766	18471
597.836	23045
597.906	18443
597.975	14663
598.045	14778
598.115	14118
598.185	15156
598.254	15666
598.324	16154
598.394	16110
598.464	15487
598.533	15676
598.603	15195
598.672	14076
598.742	15816
598.812	14748
598.881	14401
598.951	14213
599.020	13383
599.090	14073
599.159	15171
599.229	14323
599.299	13606
599.368	13968
599.437	14814
599.507	13635
599.576	14338
599.646	14726
599.715	16004
599.785	13449
599.854	13589
599.924	15807
599.993	14718
600.062	13291
600.132	14464
600.201	13274
600.270	15181
600.340	15142
600.409	14166
600.478	14398
600.547	14878
600.617	13913
600.686	13315
600.755	12417
600.824	13124
600.894	13588
600.963	12642
601.032	12048
601.101	12929
601.170	12661
601.239	12580
601.308	13042
601.378	13500
601.447	11524
601.516	12324
601.585	12503
601.654	13934
601.723	12677
601.792	12267
601.861	13055
601.930	15161
601.999	13514
602.068	12731
602.137	12984
602.206	13768
602.275	12710
602.343	13558
602.412	13096
602.481	12162
602.550	11087
602.619	12520
602.688	12262
602.756	11793
602.825	11958
602.894	12144
602.963	12499
603.032	12503
603.100	11418
603.169	12019
603.238	12434
603.307	13005
603.375	12060
603.444	11845
603.513	12114
603.581	12023
603.650	12352
603.719	11631
603.787	11972
603.856	11611
603.924	12027
603.993	12701
604.061	12626
604.130	12689
604.198	12999
604.267	13011
604.335	12549
604.404	12093
604.472	12975
604.541	13130
604.609	13065
604.678	13515
604.746	12460
604.815	12924
604.883	13998
604.951	13398
605.020	13072
605.088	14220
605.156	13190
605.225	13664
605.293	13332
605.361	13180
605.429	12679
605.498	13572
605.566	13800
605.634	13403
605.702	14537
605.771	14602
605.839	14807
605.907	14389
605.975	13787
606.043	13464
606.111	14209
606.180	13859
606.248	15809
606.316	18624
606.384	14802
606.452	15687
606.520	15839
606.588	14643
606.656	14105
606.724	13619
606.792	12909
606.860	12153
606.928	11954
606.996	11483
607.064	10621
607.132	10575
607.200	11736
607.267	11355
607.335	10991
607.403	11537
607.471	10542
607.539	10940
607.607	11907
607.674	10525
607.742	11620
607.810	11352
607.878	10776
607.946	10041
608.013	10638
608.081	11026
608.149	11177
608.216	11127
608.284	11733
608.352	11687
608.419	11718
608.487	14963
608.555	14025
608.622	11496
608.690	11372
608.757	12087
608.825	12407
608.893	12498
608.960	13010
609.028	13986
609.095	16311
609.163	13864
609.230	10813
609.298	11418
609.365	9288
609.432	10688
609.500	11763
609.567	12055
609.635	12605
609.702	14054
609.769	14646
609.837	13759
609.904	12150
609.971	10555
610.039	13479
610.106	15401
610.173	26556
610.241	62935
610.308	71302
610.375	41927
610.442	16318
610.509	11662
610.577	11720
610.644	11113
610.711	10958
610.778	11812
610.845	11887
610.912	12082
610.980	14044
611.047	18390
611.114	17752
611.181	11900
611.248	11280
611.315	12505
611.382	10637
611.449	12560
611.516	12765
611.583	12134
611.650	12634
611.717	12071
611.784	12428
611.851	12630
611.918	14120
611.984	15761
612.051	23822
612.118	48372
612.185	122495
612.252	124075
612.319	25721
612.386	15901
612.452	14411
612.519	15600
612.586	17701
612.653	17891
612.719	14189
612.786	13250
612.853	12556
612.919	11259
612.986	13077
613.053	12310
613.120	11113
613.186	11029
613.253	12521
613.319	12447
613.386	11156
613.453	11318
613.519	13265
613.586	13221
613.652	16819
613.719	14870
613.785	14460
613.852	11767
613.918	11635
613.985	13522
614.051	16535
614.118	30913
614.184	41666
614.250	15636
614.317	12700
614.383	11815
614.449	11156
614.516	13055
614.582	12387
614.648	12255
614.715	11422
614.781	12005
614.847	12310
614.914	12644
614.980	12835
615.046	12684
615.112	12974
615.179	13222
615.245	15242
615.311	20439
615.377	38724
615.443	57425
615.509	28407
615.575	17495
615.642	15295
615.708	14614
615.774	15822
615.840	19082
615.906	25309
615.972	42246
616.038	90159
616.104	142650
616.170	185828
616.236	224495
616.302	47864
616.368	25111
616.434	19143
616.500	17989
616.565	17251
616.631	20526
616.697	17609
616.763	16476
616.829	20855
616.895	36416
616.961	40771
617.026	22756
617.092	14363
617.158	14014
617.224	13184
617.289	13064
617.355	12816
617.421	13549
617.487	13142
617.552	12014
617.618	11843
617.684	11597
617.749	12129
617.815	11136
617.880	11251
617.946	12452
618.012	10217
618.077	11644
618.143	11277
618.208	11758
618.274	11638
618.339	13566
618.405	10484
618.470	12170
618.536	11562
618.601	13356
618.667	12251
618.732	11394
618.798	12307
618.863	11052
618.928	10335
618.994	11965
619.059	11485
619.124	14096
619.190	12448
619.255	10850
619.320	10911
619.386	11120
619.451	10328
619.516	10550
619.581	10332
619.647	10518
619.712	10807
619.777	11312
619.842	10283
619.907	11209
619.972	10789
620.038	11253
620.103	10392
620.168	10791
620.233	10930
620.298	10272
620.363	9540
620.428	10751
620.493	10366
620.558	11312
620.623	10012
620.688	10574
620.753	9590
620.818	10143
620.883	11063
620.948	11012
621.013	10175
621.078	11021
621.143	9414
621.207	12353
621.272	10264
621.337	11613
621.402	12660
621.467	15655
621.532	17114
621.596	14019
621.661	11910
621.726	11349
621.791	11576
621.855	12272
621.920	12685
621.985	12661
622.049	15290
622.114	15119
622.179	13205
622.243	13204
622.308	13476
622.373	14087
622.437	13583
622.502	13205
622.566	13137
622.631	12579
622.695	12826
622.760	13306
622.824	12266
622.889	12666
622.953	12162
623.018	15502
623.082	17378
623.147	13250
623.211	12200
623.276	12625
623.340	11713
623.404	12052
623.469	11655
623.533	11705
623.597	11569
623.662	11593
623.726	10676
623.790	11137
623.854	10494
623.919	11094
623.983	10003
624.047	11865
624.111	10566
624.176	11858
624.240	11286
624.304	12787
624.368	10781
624.432	10681
624.496	11141
624.560	11097
624.625	12591
624.689	12054
624.753	11538
624.817	10911
624.881	10479
624.945	10493
625.009	10606
625.073	9943
625.137	10246
625.201	12399
625.265	12320
625.329	11057
625.393	10857
625.456	10938
625.520	10859
625.584	11982
625.648	13410
625.712	19946
625.776	43918
625.839	60532
625.903	31541
625.967	12561
626.031	17121
626.095	33406
626.158	16006
626.222	9413
626.286	8756
626.349	8640
626.413	7478
626.477	9833
626.540	8118
626.604	8506
626.668	8490
626.731	7774
626.795	8263
626.858	9035
626.922	8139
626.986	8300
627.049	7395
627.113	7714
627.176	7343
627.240	7553
627.303	6734
627.366	7890
627.430	7316
627.493	9264
627.557	7334
627.620	8407
627.684	7741
627.747	7489
627.810	7620
627.874	7562
627.937	6181
628.000	8685
628.064	7122
628.127	7767
628.190	6632
628.253	6836
628.317	6018
628.380	6780
628.443	7503
628.506	7250
628.569	6424
628.632	6423
628.696	6489
628.759	6140
628.822	6078
628.885	5917
628.948	5761
629.011	5966
629.074	5412
629.137	5980
629.200	6258
629.263	6754
629.326	5895
629.389	6044
629.452	5809
629.515	6435
629.578	5664
629.641	6441
629.704	6550
629.767	6609
629.830	5828
629.892	6077
629.955	5279
630.018	6723
630.081	5428
630.144	6979
630.207	5418
630.269	7009
630.332	6564
630.395	6941
630.458	5146
630.520	5460
630.583	6279
630.646	5535
630.708	5172
630.771	5629
630.834	5564
630.896	5435
630.959	5147
631.021	4589
631.084	5530
631.146	6238
631.209	7334
631.272	5332
631.334	5879
631.397	4958
631.459	4482
631.522	4975
631.584	4650
631.646	5252
631.709	5216
631.771	6696
631.834	6366
631.896	5901
631.958	3275
632.021	4986
632.083	4269
632.145	5457
632.208	4530
632.270	5534
632.332	4287
632.395	3550
632.457	5338
632.519	4576
632.581	5348
632.643	4145
632.706	5022
632.768	4523
632.830	4623
632.892	4539
632.954	5169
633.016	5433
633.078	4616
633.141	5089
633.203	4789
633.265	4816
633.327	4810
633.389	3721
633.451	4947
633.513	5143
633.575	5309
633.637	4980
633.698	5407
633.760	5083
633.822	4467
633.884	4658
633.946	4365
634.008	5084
634.070	5255
634.132	5910
634.193	6147
634.255	4410
634.317	4163
634.379	5527
634.441	4900
634.502	4043
634.564	4861
634.626	4545
634.687	3636
634.749	4611
634.811	4622
634.873	3778
634.934	3369
634.996	4550
635.057	3537
635.119	3527
635.181	3766
635.242	4168
635.304	2211
635.365	5070
635.427	3398
635.488	3376
635.550	3836
635.611	4088
635.673	2340
635.734	5563
635.796	4207
635.857	5453
635.918	4459
635.980	4790
636.041	4462
636.102	5125
636.164	4558
636.225	4425
636.286	2977
636.348	4691
636.409	3142
636.470	3285
636.531	3537
636.593	3710
636.654	4753
636.715	3509
636.776	3397
636.838	2350
636.899	3455
636.960	3763
637.021	2979
637.082	3878
637.143	3838
637.204	3410
637.265	2687
637.326	3516
637.387	2560
637.448	2655
637.509	3811
637.570	4006
637.631	3509
637.692	2404
637.753	2396
637.814	3551
637.875	3085
637.936	3699
637.997	2723
638.058	3373
638.119	3472
638.179	2968
638.240	2341
638.301	3567
638.362	2034
638.423	2492
638.483	3514
638.544	1770
638.605	3568
638.666	2149
638.726	3443
638.787	3619
638.848	2444
638.908	2909
638.969	3321
639.030	2906
639.090	2513
639.151	2721
639.211	2760
639.272	3334
639.332	5245
639.393	4875
639.453	2626
639.514	3552
639.574	2713
639.635	2772
639.695	3397
639.756	2626
639.816	3150
639.877	1945
639.937	4567
639.997	6454
640.058	3460
640.118	3094
640.178	2902
640.239	2467
640.299	2073
640.359	1727
640.420	2827
640.480	2781
640.540	2195
640.600	2338
640.661	2871
640.721	1628
640.781	3525
640.841	2634
640.901	3143
640.961	2571
641.021	2708
641.082	2506
641.142	3145
641.202	3673
641.262	1142
641.322	3285
641.382	1968
641.442	2450
641.502	1603
641.562	2708
641.622	2300
641.682	2602
641.742	2317
641.802	3517
641.861	2547
641.921	2712
641.981	3129
642.041	2766
642.101	3290
642.161	2178
642.221	2272
642.280	2079
642.340	2165
642.400	1870
642.460	2585
642.519	2654
642.579	1933
642.639	2677
642.698	808
642.758	3991
642.818	1811
642.877	1985
642.937	2193
642.997	2688
643.056	3764
643.116	2644
643.175	2418
643.235	2394
643.294	1919
643.354	2852
643.414	2433
643.473	3312
643.532	2705
643.592	3712
643.651	5188
643.711	10759
643.770	19241
643.830	43374
643.889	129512
643.948	56637
644.008	5327
644.067	3537
644.126	2045
644.186	2396
644.245	2301
644.304	1232
644.363	3404
644.423	2516
644.482	1403
644.541	2003
644.600	22
644.659	2531
644.719	2064
644.778	3576
644.837	3790
644.896	9010
644.955	20007
645.014	12945
645.073	4488
645.132	2827
645.191	2570
645.250	521
645.309	2884
645.368	1880
645.427	2027
645.486	2354
645.545	4989
645.604	2438
645.663	2143
645.722	1198
645.781	1704
645.840	2140
645.898	2427
645.957	2739
646.016	3700
646.075	8989
646.134	16124
646.192	38997
646.251	93446
646.310	21740
646.369	3299
646.427	3299
646.486	1538
646.545	1764
646.603	2120
646.662	1451
646.721	1573
646.779	1311
646.838	674
646.896	1630
646.955	1806
647.014	2554
647.072	4679
647.131	11652
647.189	9828
647.248	1818
647.306	2495
647.365	1897
647.423	262
647.481	2262
647.540	14
647.598	1747
647.657	1101
647.715	2342
647.773	661
647.832	1578
647.890	424
647.948	656
648.007	1626
648.065	756
648.123	824
648.181	2546
648.240	1398
648.298	2081
648.356	1212
648.414	1571
648.472	1303
648.531	2276
648.589	1672
648.647	816
648.705	1027
648.763	746
648.821	1054
648.879	1220
648.937	1196
648.995	1663
649.053	1439
649.111	2046
649.169	3337
649.227	6120
649.285	11007
649.343	35733
649.401	32737
649.459	8181
649.516	6671
649.574	4750
649.632	9617
649.690	18308
649.748	6415
649.806	4667
649.863	11484
649.921	10188
649.979	8668
650.037	2247
650.094	269
650.152	1316
650.210	1853
650.268	1716
650.325	1546
650.383	1035
650.440	439
650.498	966
650.556	2012
650.613	1363
650.671	624
650.728	455
650.786	1425
650.843	1714
650.901	-49
650.958	1176
651.016	1508
651.073	1569
651.131	641
651.188	-146
651.246	1278
651.303	866
651.360	1346
651.418	1165
651.475	1131
651.532	646
651.590	1393
651.647	343
651.704	914
651.762	1195
651.819	1438
651.876	947
651.933	1337
651.990	996
652.048	113
652.105	477
652.162	1165
652.219	452
652.276	351
652.333	755
652.390	310
652.448	1187
652.505	1250
652.562	1048
652.619	1273
652.676	2882
652.733	4768
652.790	1091
652.847	-233
652.904	1301
652.961	-177
653.017	-295
653.074	1158
653.131	924
653.188	-569
653.245	863
653.302	553
653.359	253
653.415	958
653.472	1136
653.529	1203
653.586	767
653.642	139
653.699	1269
653.756	-176
653.813	467
653.869	1415
653.926	619
653.983	-647
654.039	1305
654.096	774
654.152	2170
654.209	-551
654.266	797
654.322	274
654.379	756
654.435	427
654.492	322
654.548	1144
654.605	3367
654.661	2220
654.717	426
654.774	1279
654.830	986
654.887	704
654.943	1059
655.000	714
655.056	1227
655.112	85
655.168	632
655.225	609
655.281	1421
655.337	1048
655.394	3448
655.450	2905
655.506	2380
655.562	1973
655.618	5356
655.675	-217
655.731	979
655.787	611
655.843	1585
655.899	-329
655.955	1333
656.011	465
656.067	-473
656.123	793
656.179	765
656.235	1323
656.291	-590
656.347	1343
656.403	635
656.459	265
656.515	809
656.571	813
656.627	1204
656.683	267
656.739	1037
656.795	6
656.850	970
656.906	526
656.962	1143
657.018	-288
657.074	337
657.129	-49
657.185	1339
657.241	1263
657.297	1065
657.352	519
657.408	-149
657.464	1847
657.519	746
657.575	-233
657.630	1483
657.686	830
657.742	239
657.797	217
657.853	186
657.908	871
657.964	-1035
658.019	341
658.075	592
658.130	708
658.186	-158
658.241	199
658.297	254
658.352	195
658.407	1804
658.463	369
658.518	-101
658.573	601
658.629	-511
658.684	485
658.739	1106
658.795	-743
658.850	399
658.905	639
658.960	709
659.016	-765
659.071	695
659.126	267
659.181	385
659.236	1006
659.291	2540
659.346	412
659.401	754
659.457	1888
659.512	2667
659.567	2348
659.622	566
659.677	252
659.732	-99
659.787	84
659.842	1327
659.897	1719
659.952	720
660.007	189
660.061	457
660.116	-108
660.171	-425
660.226	-91
660.281	533
660.336	33
660.391	905
660.445	204
660.500	1132
660.555	-164
660.610	-81
660.664	845
660.719	-722
660.774	933
660.828	203
660.883	514
660.938	158
660.992	-643
661.047	226
661.101	-105
661.156	-215
661.211	455
661.265	471
661.320	115
661.374	141
661.429	-201
661.483	916
661.538	-107
661.592	-267
661.647	208
661.701	778
661.755	-2
661.810	356
661.864	-534
661.919	147
661.973	439
662.027	397
662.081	-441
662.136	-190
662.190	247
662.244	527
662.299	-114
662.353	365
662.407	-932
662.461	225
662.515	267
662.569	-139
662.624	719
662.678	222
662.732	217
662.786	-113
662.840	771
662.894	676
662.948	-582
663.002	779
663.056	695
663.110	-584
663.164	228
663.218	888
663.272	-145
663.326	424
663.380	227
663.434	135
663.488	-551
663.542	263
663.595	472
663.649	20
663.703	-33
663.757	312
663.811	-141
663.864	-124
663.918	165
663.972	-619
664.026	-106
664.079	-772
664.133	918
664.187	753
664.240	128
664.294	561
664.348	180
664.401	102
664.455	314
664.508	-287
664.562	-720
664.615	543
664.669	-1018
664.722	-27
664.776	10
664.829	712
664.883	-447
664.936	-605
664.990	330
665.043	282
665.097	-250
665.150	1439
665.203	467
665.257	1694
665.310	718
665.363	-220
665.417	1063
665.470	584
665.523	676
665.576	727
665.630	26
665.683	262
665.736	741
665.789	1060
665.842	84
665.895	-72
665.949	468
666.002	1111
666.055	99
666.108	880
666.161	273
666.214	216
666.267	390
666.320	922
666.373	544
666.426	463
666.479	104
666.532	1036
666.585	180
666.638	309
666.691	-87
666.744	1697
666.796	389
666.849	311
666.902	941
666.955	247
667.008	19
667.060	212
667.113	-301
667.166	-294
667.219	-570
667.271	-391
667.324	5
667.377	330
667.430	523
667.482	1002
667.535	1059
667.587	424
667.640	777
667.693	725
667.745	1038
667.798	2264
667.850	62
667.903	-300
667.955	-221
668.008	117
668.060	-115
668.113	1005
668.165	861
668.218	782
668.270	703
668.322	606
668.375	1133
668.427	769
668.479	190
668.532	1227
668.584	447
668.636	192
668.689	54
668.741	18
668.793	948
668.845	313
668.898	521
668.950	676
669.002	18
669.054	-429
669.106	-186
669.158	1274
669.211	614
669.263	873
669.315	919
669.367	2092
669.419	559
669.471	1926
669.523	1424
669.575	2705
669.627	1667
669.679	901
669.731	895
669.783	1073
669.835	1438
669.886	1720
669.938	1179
669.990	1114
670.042	56
670.094	645
670.146	388
670.197	1163
670.249	1413
670.301	1587
670.353	2972
670.404	5022
670.456	6096
670.508	11047
670.560	21501
670.611	41362
670.663	75169
670.715	156609
670.766	355224
670.818	155482
670.869	18461
670.921	8199
670.972	5144
671.024	3304
671.075	2597
671.127	2073
671.178	725
671.230	1387
671.281	1593
671.333	918
671.384	765
671.436	1148
671.487	1122
671.538	1302
671.590	818
671.641	2474
671.692	3156
671.744	5553
671.795	4963
671.846	2045
671.897	1069
671.949	1382
672.000	841
672.051	440
672.102	1351
672.153	134
672.204	395
672.256	1198
672.307	228
672.358	1215
672.409	151
672.460	116
672.511	443
672.562	618
672.613	457
672.664	792
672.715	439
672.766	557
672.817	143
672.868	370
672.919	694
672.970	160
673.021	267
673.071	82
673.122	437
673.173	424
673.224	664
673.275	676
673.326	-442
673.376	-62
673.427	179
673.478	215
673.528	700
673.579	655
673.630	463
673.680	802
673.731	104
673.782	-180
673.832	-4
673.883	669
673.934	-402
673.984	242
674.035	-36
674.085	590
674.136	892
674.186	1517
674.237	820
674.287	2100
674.338	995
674.388	-188
674.438	-459
674.489	81
674.539	804
674.589	870
674.640	789
674.690	1035
674.740	-311
674.791	563
674.841	-42
674.891	672
674.942	-139
674.992	630
675.042	-675
675.092	421
675.142	432
675.193	39
675.243	-783
675.293	60
675.343	-299
675.393	349
675.443	341
675.493	655
675.543	118
675.593	145
675.643	487
675.693	132
675.743	577
675.793	-196
675.843	-470
675.893	607
675.943	-374
675.993	-56
676.043	217
676.093	215
676.142	-1132
676.192	609
676.242	-153
676.292	-603
676.341	97
676.391	319
676.441	97
676.491	-155
676.540	724
676.590	-341
676.640	-524
676.689	391
676.739	-365
676.789	433
676.838	-805
676.888	-10
676.937	-595
676.987	-493
677.037	-145
677.086	-317
677.136	-1087
677.185	-402
677.235	327
677.284	-1171
677.333	137
677.383	128
677.432	-319
677.482	429
677.531	619
677.580	73
677.630	-258
677.679	-611
677.728	-456
677.778	-414
677.827	-185
677.876	-298
677.925	-243
677.975	186
678.024	-245
678.073	35
678.122	-446
678.171	101
678.220	-315
678.269	-314
678.319	-285
678.368	-625
678.417	102
678.466	664
678.515	-249
678.564	-463
678.613	-320
678.662	229
678.711	170
678.760	105
678.809	132
678.857	-89
678.906	-151
678.955	293
679.004	178
679.053	-558
679.102	-84
679.151	145
679.199	-1031
679.248	-97
679.297	-243
679.346	-439
679.394	-317
679.443	-289
679.492	-473
679.540	-98
679.589	-77
679.638	226
679.686	-553
679.735	205
679.784	-762
679.832	-906
679.881	-418
679.929	-472
679.978	-1137
680.026	-612
680.075	-710
680.123	690
680.172	-484
680.220	-826
680.268	-500
680.317	-594
680.365	-833
680.414	-409
680.462	-731
680.510	-247
680.559	-215
680.607	40
680.655	-459
680.703	-1000
680.752	-816
680.800	-195
680.848	-667
680.896	-944
680.945	-658
680.993	-713
681.041	-168
681.089	-277
681.137	-1005
681.185	136
681.233	-751
681.258	-499
681.281	-286
681.329	-1332
681.377	86
681.380	107
681.425	-43
681.473	202
681.502	-185
681.521	-505
681.569	381
681.617	-515
681.624	-392
681.665	199
681.713	517
681.745	29
681.761	-244
681.809	-271
681.857	362
681.867	249
681.904	-283
681.952	351
681.989	407
682.000	405
682.048	-185
682.096	381
682.111	388
682.143	286
682.191	774
682.233	1749
682.239	1863
682.286	1016
682.334	258
682.354	318
682.382	375
682.430	875
682.476	631
682.477	602
682.525	1214
682.572	667
682.598	815
682.620	868
682.667	774
682.715	1660
682.720	1641
682.763	1286
682.810	1329
682.841	1234
682.857	1158
682.905	1256
682.952	1385
682.963	1468
683.000	1607
683.047	827
683.085	1716
683.095	1937
683.142	1790
683.190	1442
683.206	1372
683.237	1198
683.284	2431
683.328	1667
683.332	1578
683.379	2474
683.426	1425
683.449	1710
683.473	1994
683.521	1507
683.568	1995
683.571	1987
683.615	1561
683.662	2389
683.693	2030
683.709	1818
683.757	1859
683.804	2055
683.814	2275
683.851	2934
683.898	2691
683.936	2650
683.945	2636
683.992	2694
684.039	2732
684.057	2755
684.086	2713
684.133	2252
684.179	2572
684.180	2567
684.227	2290
684.274	2963
684.300	3178
684.321	3294
684.368	2688
684.415	3380
684.422	3330
684.462	2967
684.509	3724
684.543	3619
684.556	3555
684.603	2976
684.649	2961
684.665	2924
684.696	2857
684.743	3400
684.786	3548
684.790	3546
684.837	3274
684.883	4460
684.908	4137
684.930	3880
684.977	4636
685.023	4369
685.029	4443
685.070	4531
685.117	3410
685.150	4057
685.164	4412
685.210	4569
685.257	4062
685.272	4312
685.303	4633
685.350	4624
685.393	4398
685.396	4381
685.443	4356
685.490	4975
685.514	4764
685.536	4480
685.583	4865
685.629	4741
685.636	4722
685.675	4642
685.722	5172
685.757	5107
685.768	5073
685.815	4788
685.861	5341
685.878	5353
685.908	5329
685.954	4821
686.000	5283
686.000	5287
686.047	5635
686.093	5834
686.121	6042
686.139	6065
686.185	5471
686.232	5749
686.242	5805
686.278	5867
686.324	5766
686.363	5884
686.370	5931
686.416	5207
686.463	5468
686.484	5673
686.509	5891
686.555	5717
686.601	5285
686.606	5337
686.647	5708
686.693	6021
686.727	5964
686.739	5928
686.785	5271
686.831	5959
686.848	5896
686.877	5898
686.923	5626
686.969	5469
686.969	5466
687.015	5929
687.061	6014
687.090	5984
687.107	5930
687.153	6065
687.199	5870
687.211	5697
687.245	5334
687.291	5525
687.332	5690
687.336	5731
687.382	6790
687.428	6609
687.453	6955
687.474	6958
687.520	6405
687.565	6267
687.574	6084
687.611	5676
687.657	6068
687.695	6048
687.702	6069
687.748	7089
687.794	6653
687.816	7123
687.839	7365
687.885	6830
687.931	6498
687.937	6441
687.976	6389
688.022	6629
688.058	6816
688.067	6863
688.113	7177
688.158	6650
688.179	6728
688.204	6906
688.249	6699
688.295	7447
688.300	7445
688.340	7321
688.386	7596
688.421	7273
688.431	7152
688.477	7541
688.522	7249
688.542	7203
688.567	7343
688.613	7078
688.658	7267
688.663	7280
688.703	7225
688.749	7446
688.784	7121
688.794	7090
688.839	7405
688.884	8105
688.905	7969
688.930	7740
688.975	7547
689.020	7904
689.026	7861
689.065	7705
689.110	8052
689.146	7766
689.155	7664
689.201	7774
689.246	7452
689.267	7255
689.291	7208
689.336	7870
689.381	8074
689.388	8072
689.426	8012
689.471	8135
689.509	7936
689.516	7912
689.561	7959
689.606	8007
689.630	7719
689.651	7429
689.696	7277
689.741	8142
689.750	7969
689.785	7670
689.830	8236
689.871	8287
689.875	8282
689.920	8279
689.965	8384
689.992	8216
690.010	8110
690.054	8046
690.099	8388
690.112	8274
690.144	8177
690.189	8204
690.233	8359
690.233	8373
690.278	8408
690.323	8582
690.354	8490
690.367	8566
690.412	8823
690.457	9409
690.474	9449
690.501	9474
690.546	9763
690.590	9573
690.595	9610
690.635	10151
690.680	9750
690.716	10371
690.724	10715
690.769	11715
690.813	13383
690.836	13765
690.857	14604
690.902	16734
690.946	19305
690.957	19835
690.991	26147
691.035	34642
691.077	42825
691.080	43218
691.124	48233
691.168	53411
691.198	56837
691.213	53563
691.257	43938
691.301	34092
691.318	30301
691.346	27425
691.390	22192
691.434	16992
691.439	16386
691.478	15183
691.522	14148
691.559	12998
691.567	12917
691.611	12442
691.655	12118
691.680	11523
691.699	11316
691.743	11195
691.787	11481
691.800	11428
691.831	11273
691.875	10983
691.919	10695
691.921	10666
691.964	10844
692.008	11091
692.041	11114
692.052	11105
692.096	11078
692.139	10826
692.162	10747
692.183	10636
692.227	10667
692.271	10711
692.282	10609
692.315	10561
692.359	10544
692.402	10553
692.403	10576
692.447	10345
692.490	10476
692.523	10510
692.534	10604
692.578	10717
692.622	10810
692.643	10982
692.666	11069
692.709	10799
692.753	10976
692.763	10886
692.797	10803
692.840	10612
692.884	10913
692.884	10942
692.928	11249
692.971	11710
693.004	11811
693.015	11834
693.059	12042
693.102	12137
693.124	12196
693.146	12357
693.189	12688
693.233	12591
693.245	12753
693.276	13417
693.320	13589
693.363	14023
693.365	14002
693.407	14984
693.450	16298
693.485	17091
693.493	17555
693.537	19995
693.580	22088
693.605	23347
693.624	25897
693.667	31911
693.710	38251
693.725	40255
693.753	52685
693.797	72327
693.840	92064
693.845	94262
693.883	105391
693.926	117043
693.966	128417
693.970	126364
694.013	101671
694.056	77101
694.086	59983
694.099	56723
694.142	45703
694.185	35178
694.206	29939
694.229	28099
694.272	24454
694.315	21013
694.326	19956
694.358	18910
694.401	17909
694.444	16784
694.446	16675
694.487	15663
694.530	14646
694.566	13817
694.573	13807
694.616	13625
694.659	13284
694.686	13073
694.702	12905
694.745	12380
694.787	11860
694.806	11642
694.830	11913
694.873	12091
694.916	12306
694.926	12332
694.959	12276
695.002	12231
695.044	12288
695.046	12251
695.087	12103
695.130	11838
695.166	11807
695.172	11856
695.215	11768
695.258	11799
695.286	11683
695.301	11695
695.343	11724
695.386	11908
695.406	11891
695.428	11766
695.471	11478
695.514	11083
695.526	10926
695.556	11082
695.599	11493
695.641	11775
695.646	11781
695.684	11766
695.726	11780
695.766	11648
695.769	11673
695.811	11639
695.854	11416
695.886	11395
695.896	11466
695.938	11486
695.981	11586
696.005	11593
696.023	11614
696.065	11489
696.108	11546
696.125	11467
696.150	11609
696.192	11957
696.235	12178
696.245	12212
696.277	12194
696.319	12094
696.361	11999
696.365	11958
696.404	12138
696.446	12333
696.485	12381
696.488	12425
696.530	12665
696.572	12742
696.604	12904
696.614	12862
696.656	12317
696.698	11867
696.724	11629
696.740	11771
696.783	12049
696.825	12236
696.844	12259
696.867	12118
696.909	11715
696.951	11575
696.964	11438
696.992	11472
697.034	11581
697.076	11641
697.083	11611
697.118	11592
697.160	11563
697.202	11492
697.203	11459
697.244	11700
697.286	11745
697.323	11788
697.327	11818
697.369	11802
697.411	11716
697.442	11763
697.453	11907
697.494	12090
697.536	12443
697.562	12615
697.578	12559
697.620	12273
697.661	11994
697.682	11843
697.703	11739
697.744	11459
697.786	11172
697.801	11011
697.828	11431
697.869	12055
697.911	12728
697.921	12844
697.952	12425
697.994	11874
698.035	11341
698.040	11232
698.077	11413
698.118	11653
698.160	11868
698.160	11834
698.201	11921
698.243	11914
698.279	11911
698.284	11956
698.325	12052
698.367	12127
698.399	12144
698.408	12198
698.449	12291
698.491	12397
698.518	12405
698.532	12390
698.573	12253
698.614	12118
698.638	11998
698.656	12234
698.697	12705
698.738	13182
698.757	13368
698.779	13230
698.820	12880
698.862	12545
698.877	12381
698.903	12425
698.944	12444
698.985	12461
698.996	12431
699.026	12351
699.067	12192
699.116	11970
699.235	11669
699.354	12482
699.474	12443
699.593	12469
699.713	13565
699.832	11748
699.951	13067
700.070	12898
700.190	11829
700.309	11217
700.428	12647
700.547	11690
700.667	11614
700.786	12221
700.905	12526
701.024	11632
701.143	12361
701.262	10758
701.381	12000
701.500	11339
701.619	12034
701.738	11335
701.857	11097
701.976	10639
702.095	9947
702.214	11460
702.333	11249
702.452	10725
702.571	11040
702.690	10843
702.809	10471
702.928	9780
703.047	10979
703.165	10353
703.284	10641
703.403	9770
703.522	10878
703.640	10830
703.759	11846
703.878	14162
703.997	12196
704.115	10764
704.234	10780
704.353	9953
704.471	10466
704.590	9111
704.708	10246
704.827	9705
704.946	10454
705.064	9924
705.183	10850
705.301	9916
705.420	15408
705.538	15084
705.656	14064
705.775	13092
705.893	21043
706.012	35309
706.130	15277
706.249	13143
706.367	12794
706.485	12740
706.604	12978
706.722	12708
706.840	13424
706.958	15083
707.077	14586
707.195	11735
707.313	11735
707.431	11583
707.549	11887
707.668	11364
707.786	11277
707.904	10530
708.022	11874
708.140	11410
708.258	11184
708.376	11664
708.494	11619
708.612	11545
708.730	15359
708.848	16270
708.966	14721
709.084	13573
709.202	13625
709.320	12976
709.438	14054
709.556	13463
709.674	13586
709.791	13453
709.909	13072
710.027	13071
710.145	13062
710.263	13981
710.380	12892
710.498	13455
710.616	13810
710.733	12853
710.851	13302
710.969	13038
711.086	12377
711.204	12397
711.322	12675
711.439	12043
711.557	13112
711.674	12576
711.792	12825
711.909	13725
712.027	14455
712.144	12538
712.262	12076
712.379	12405
712.497	16755
712.614	18519
712.732	15205
712.849	13925
712.966	14727
713.084	15987
713.201	15273
713.318	15293
713.436	15011
713.553	14326
713.670	14652
713.787	14365
713.905	15433
714.022	14572
714.139	13453
714.256	14445
714.373	14758
714.490	17493
714.608	22917
714.725	63607
714.842	126663
714.959	21388
715.076	13341
715.193	13137
715.310	12526
715.427	11908
715.544	12206
715.661	11580
715.778	12588
715.895	12362
716.011	13404
716.128	13163
716.245	12611
716.362	12902
716.479	14411
716.596	12428
716.713	12650
716.829	11762
716.946	11274
717.063	11244
717.180	12156
717.296	11431
717.413	10886
717.530	10611
717.646	11538
717.763	11040
717.880	10070
717.996	10381
718.113	11161
718.229	10292
718.346	10790
718.462	10190
718.579	10890
718.695	13339
718.812	14327
718.928	12086
719.045	11770
719.161	9351
719.277	10026
719.394	10307
719.510	11076
719.626	10026
719.743	11184
719.859	11755
719.975	12284
720.092	20611
720.208	53367
720.324	19728
720.440	11141
720.557	10307
720.673	12797
720.789	15558
720.905	29317
721.021	19831
721.137	9356
721.253	9251
721.369	9679
721.486	11088
721.602	13365
721.718	10384
721.834	8442
721.950	9011
722.066	8793
722.181	8428
722.297	8611
722.413	8581
722.529	8288
722.645	8611
722.761	8492
722.877	8564
722.993	8614
723.108	8490
723.224	8847
723.340	7701
723.456	8690
723.571	8570
723.687	8752
723.803	8040
723.918	7216
724.034	8184
724.150	8228
724.265	8103
724.381	11806
724.497	19444
724.612	9129
724.728	7626
724.843	6652
724.959	8072
725.074	11174
725.190	17468
725.305	8569
725.421	7516
725.536	7231
725.651	7342
725.767	7633
725.882	6769
725.997	7642
726.113	7245
726.228	6803
726.343	7810
726.459	7530
726.574	6602
726.689	7194
726.804	6581
726.920	7104
727.035	7436
727.150	7254
727.265	6122
727.380	7288
727.495	6955
727.610	6500
727.725	6228
727.841	7413
727.956	12276
728.071	15301
728.186	7445
728.301	6913
728.416	6204
728.531	6530
728.645	6538
728.760	7116
728.875	6634
728.990	6407
729.105	6879
729.220	5816
729.335	6537
729.449	5950
729.564	5918
729.679	5951
729.794	6116
729.908	6282
730.023	7063
730.138	6588
730.253	5558
730.367	6194
730.482	6290
730.596	5679
730.711	5842
730.826	6183
730.940	5923
731.055	6569
731.169	5269
731.284	5760
731.398	6486
731.513	6069
731.627	5615
731.742	6478
731.856	6798
731.970	5933
732.085	5446
732.199	6512
732.313	6770
732.428	9498
732.542	19334
732.656	20866
732.771	6736
732.885	6431
732.999	6492
733.113	6011
733.227	5402
733.342	5041
733.456	6232
733.570	5161
733.684	4858
733.798	5385
733.912	5065
734.026	4098
734.140	4853
734.254	5714
734.368	7051
734.482	10992
734.596	5202
734.710	4734
734.824	4941
734.938	4884
735.052	4050
735.166	5978
735.280	5596
735.393	4477
735.507	4832
735.621	5847
735.735	8457
735.849	7149
735.962	4849
736.076	4783
736.190	4879
736.303	5157
736.417	8364
736.531	5544
736.644	4180
736.758	4305
736.872	4305
736.985	5227
737.099	4642
737.212	3869
737.326	4575
737.439	4556
737.553	4466
737.666	4625
737.780	4602
737.893	4595
738.007	4120
738.120	4799
738.233	4822
738.347	4541
738.460	4582
738.573	5182
738.687	4464
738.800	5334
738.913	4939
739.026	4483
739.140	4659
739.253	5653
739.366	4387
739.479	4065
739.592	3755
739.705	4162
739.818	4190
739.932	4724
740.045	3967
740.158	4010
740.271	4514
740.384	4639
740.497	3589
740.610	5407
740.723	4655
740.836	4929
740.949	3725
741.062	5404
741.174	4933
741.287	4238
741.400	3997
741.513	4793
741.626	4221
741.739	3972
741.851	3926
741.964	4520
742.077	3450
742.189	4447
742.302	3941
742.415	4881
742.527	3789
742.640	4012
742.753	3858
742.865	3892
742.978	4527
743.090	4209
743.203	3944
743.316	3580
743.428	3648
743.541	4281
743.653	3418
743.766	4139
743.878	3617
743.990	5106
744.103	4933
744.215	3535
744.327	3827
744.440	4275
744.552	4818
744.664	4859
744.777	3913
744.889	4169
745.001	4116
745.113	3017
745.226	3187
745.338	3521
745.450	3763
745.562	4539
745.674	3838
745.786	3403
745.898	3853
746.010	3993
746.122	3846
746.234	3579
746.347	3612
746.459	3514
746.570	3694
746.682	3618
746.794	3819
746.906	3420
747.018	3737
747.130	3722
747.242	3044
747.354	3725
747.466	4249
747.577	3198
747.689	3970
747.801	3553
747.913	3654
748.024	3614
748.136	2619
748.248	2814
748.359	3620
748.471	3627
748.583	3179
748.694	3970
748.806	5201
748.918	4430
749.029	3663
749.141	3248
749.252	4197
749.364	3884
749.475	4655
749.587	6001
749.698	3892
749.809	3850
749.921	3641
750.032	4158
750.144	3351
750.255	3386
750.366	3510
750.478	4114
750.589	3852
750.700	4490
750.811	3792
750.923	4100
751.034	5281
751.145	7322
751.256	4040
751.367	3311
751.479	3573
751.590	4227
751.701	3777
751.812	3297
751.923	3285
752.034	3700
752.145	4008
752.256	3037
752.367	3380
752.478	3754
752.589	3955
752.700	4251
752.811	3602
752.922	3635
753.032	4038
753.143	4378
753.254	3344
753.365	3724
753.476	3385
753.586	3804
753.697	2944
753.808	4036
753.919	3409
754.029	4433
754.140	3648
754.251	4392
754.361	3198
754.472	3825
754.582	3387
754.693	3822
754.804	3308
754.914	3610
755.025	2962
755.135	3999
755.246	3772
755.356	3376
755.466	3761
755.577	4186
755.687	3833
755.798	3180
755.908	3337
756.018	4000
756.129	3500
756.239	4169
756.349	3815
756.460	4189
756.570	3710
756.680	3551
756.790	4223
756.900	4217
757.011	4163
757.121	4640
757.231	3399
757.341	4001
757.451	3958
757.561	4085
757.671	3770
757.781	3856
757.891	4810
758.001	4572
758.111	4577
758.221	3887
758.331	4237
758.441	4607
758.551	4368
758.661	4868
758.771	4383
758.880	4675
758.990	5173
759.100	4486
759.210	5258
759.320	5259
759.429	5230
759.539	4843
759.649	4562
759.758	5172
759.868	5186
759.978	4884
760.087	5533
760.197	5682
760.307	5525
760.416	5120
760.526	4125
760.635	5831
760.745	5385
760.854	6392
760.964	6169
761.073	6411
761.182	6210
761.292	6079
761.401	6551
761.511	6823
761.620	6677
761.729	7388
761.839	6664
761.948	7195
762.057	7903
762.166	7984
762.276	7505
762.385	8452
762.494	8113
762.603	8436
762.712	8857
762.822	9045
762.931	9297
763.040	8834
763.149	10123
763.258	9403
763.367	10358
763.476	11960
763.585	12338
763.694	13186
763.803	13146
763.912	14961
764.021	15606
764.130	15749
764.238	15529
764.347	18048
764.456	18887
764.565	20926
764.674	22004
764.783	25027
764.891	26125
765.000	30351
765.109	33933
765.217	38878
765.326	44709
765.435	53661
765.543	65156
765.652	79058
765.761	100972
765.869	135807
765.978	188353
766.086	274664
766.195	421088
766.303	652053
766.412	774808
766.520	586069
766.629	780112
766.737	535514
766.846	333978
766.954	224151
767.062	159168
767.171	120058
767.279	90561
767.387	71065
767.496	57756
767.604	49207
767.712	42878
767.820	37480
767.928	34636
768.037	31849
768.145	30173
768.253	29703
768.361	27405
768.469	26726
768.577	28179
768.685	29128
768.793	30450
768.901	33505
769.009	40053
769.117	46184
769.225	58021
769.333	77541
769.441	112632
769.549	178302
769.657	312206
769.765	556351
769.873	640466
769.981	646356
770.088	448803
770.196	239536
770.304	145361
770.412	101643
770.519	73859
770.627	58381
770.735	47138
770.842	39315
770.950	33462
771.058	29043
771.165	25616
771.273	22900
771.380	20715
771.488	18672
771.595	17336
771.703	16508
771.810	15264
771.918	13467
772.025	12893
772.133	13165
772.240	11524
772.348	11840
772.455	10522
772.562	10270
772.670	9801
772.777	9780
772.884	8731
772.991	7824
773.099	8783
773.206	7706
773.313	7713
773.420	7843
773.528	6753
773.635	6394
773.742	6616
773.849	7066
773.956	6488
774.063	6095
774.170	6246
774.277	6477
774.384	6085
774.491	6053
774.598	5493
774.705	6193
774.812	5593
774.919	5832
775.026	4555
775.133	5358
775.239	5241
775.346	5011
775.453	4581
775.560	5197
775.667	4939
775.773	4314
775.880	4793
775.987	4667
776.093	5101
776.200	4669
776.307	4288
776.413	4479
776.520	4534
776.627	4251
776.733	3736
776.840	4041
776.946	4662
777.053	4304
777.159	4142
777.266	3411
777.372	4346
777.478	4681
777.585	3619
777.691	2856
777.798	3769
777.904	4322
778.010	4526
778.117	6047
778.223	3206
778.329	2680
778.435	3205
778.542	4244
778.648	3349
778.754	2472
778.860	3315
778.966	3639
779.072	3297
779.178	3925
779.284	4113
779.391	3742
779.497	3279
779.603	5199
779.708	5660
779.815	12337
779.920	33502
780.026	116680
780.132	43112
780.238	6357
780.344	4390
780.450	4770
780.556	3426
780.661	3862
780.767	2634
780.873	2646
780.979	2991
781.085	2453
781.190	2857
781.296	2028
781.402	1431
781.507	2310
781.613	2638
781.719	2047
781.824	2628
781.930	3300
782.035	2602
782.141	2634
782.246	2925
782.352	2632
782.457	2931
782.563	2127
782.668	2004
782.773	1768
782.879	1495
782.984	3190
783.090	2530
783.195	2730
783.300	2475
783.405	2839
783.511	2541
783.616	2395
783.721	1506
783.826	2273
783.932	2012
784.037	2946
784.142	2502
784.247	2588
784.352	2037
784.457	1896
784.562	1617
784.667	2854
784.772	2409
784.877	2420
784.982	2456
785.087	1745
785.192	2202
785.297	2366
785.402	1424
785.507	1965
785.611	2265
785.716	2197
785.821	2043
785.926	2572
786.031	1769
786.135	1904
786.240	1435
786.345	1048
786.450	2431
786.554	1834
786.659	2103
786.763	1588
786.868	2569
786.973	2575
787.077	1091
787.182	2179
787.286	2134
787.391	2068
787.495	2024
787.600	1996
787.704	1819
787.809	1073
787.913	1801
788.017	2365
788.122	2168
788.226	2005
788.330	1500
788.435	2181
788.539	877
788.643	2361
788.747	1789
788.852	1809
788.956	2121
789.060	2183
789.164	1313
789.268	1514
789.372	2151
789.476	2236
789.580	1399
789.684	893
789.788	1513
789.892	1540
789.996	2607
790.100	2417
790.204	1505
790.308	1432
790.412	1719
790.516	2622
790.620	2339
790.724	2417
790.828	1266
790.931	1849
791.035	1504
791.139	1640
791.242	1294
791.346	2358
791.450	1428
791.554	1663
791.657	624
791.761	3051
791.864	2163
791.968	1582
792.072	743
792.175	1897
792.279	1182
792.382	1592
792.486	2179
792.589	1545
792.693	1932
792.796	929
792.899	1941
793.003	1764
793.106	910
793.209	1668
793.313	2099
793.416	796
793.519	813
793.623	1768
793.726	2412
793.829	2157
793.932	1970
794.035	827
794.138	1368
794.242	2322
794.345	2192
794.448	4348
794.551	5928
794.654	18119
794.757	61610
794.860	26563
794.963	3212
795.066	2244
795.169	1952
795.272	2042
795.375	1561
795.477	1107
795.580	1181
795.683	1014
795.786	731
795.889	387
795.991	1858
796.094	1910
796.197	918
796.300	1307
796.402	605
796.505	1432
796.608	1425
796.710	1336
796.813	608
796.915	885
797.018	1294
797.120	1551
797.223	697
797.326	914
797.428	1031
797.530	980
797.633	485
797.735	2251
797.838	1509
797.940	3073
798.042	964
798.145	1214
798.247	896
798.349	1011
798.452	831
798.554	1047
798.656	1063
798.758	1634
798.860	552
798.962	907
799.065	570
799.167	754
799.269	1662
799.371	1973
799.473	1654
799.575	1410
799.677	1876
799.779	2059
799.881	599
799.983	1930
800.085	635
800.187	1010
800.289	457
800.390	1011
800.492	367
800.594	1853
800.696	643
800.798	1125
800.899	876
801.001	1173
801.103	-197
801.205	572
801.306	1948
801.408	268
801.509	733
801.611	1445
801.713	1632
801.814	1552
801.916	669
802.017	947
802.119	841
802.220	266
802.322	-538
802.423	2377
802.525	1035
802.626	1414
802.727	519
802.829	1614
802.930	-214
803.031	1790
803.133	955
803.234	1308
803.335	1146
803.436	680
803.538	169
803.639	-57
803.740	841
803.841	135
803.942	676
804.043	863
804.144	974
804.245	823
804.346	853
804.447	899
804.548	1207
804.649	2466
804.750	939
804.851	786
804.952	756
805.053	897
805.154	600
805.255	1525
805.355	877
805.456	836
805.557	644
805.658	715
805.758	1161
805.859	1109
805.960	727
806.061	834
806.161	-303
806.262	1300
806.362	387
806.463	843
806.564	1176
806.664	541
806.765	1442
806.865	1923
806.966	426
807.066	1693
807.166	1684
807.267	2082
807.367	736
807.468	1487
807.568	-296
807.668	1656
807.769	847
807.869	808
807.969	1291
808.069	1101
808.170	692
808.270	639
808.370	252
808.470	437
808.570	-347
808.670	954
808.770	740
808.870	1242
808.970	1025
809.070	1161
809.170	707
809.271	395
809.370	787
809.470	656
809.570	463
809.670	141
809.770	254
809.870	1676
809.970	1128
810.070	868
810.169	533
810.269	368
810.369	1526
810.469	552
810.568	897
810.668	841
810.768	-68
810.867	828
810.967	427
811.066	1717
811.166	823
811.265	1203
811.365	123
811.464	952
811.564	656
811.663	691
811.763	-80
811.862	630
811.962	940
812.061	609
812.160	473
812.260	1362
812.359	1585
812.458	864
812.557	2670
812.657	5667
812.756	2817
812.855	891
812.954	548
813.053	1413
813.153	1382
813.252	293
813.351	1575
813.450	1684
813.549	684
813.648	1837
813.747	451
813.846	2030
813.945	1376
814.044	2244
814.143	1987
814.242	2099
814.341	463
814.439	2086
814.538	1620
814.637	1631
814.736	1298
814.835	3288
814.933	1575
815.032	2203
815.131	1341
815.229	2272
815.328	1985
815.427	2539
815.525	2946
815.624	2842
815.722	2587
815.821	3204
815.919	3063
816.018	3596
816.116	3545
816.215	4239
816.313	3381
816.412	3515
816.510	3939
816.609	5925
816.707	5403
816.805	5366
816.904	6252
817.002	6676
817.100	7730
817.198	9055
817.296	9799
817.395	12077
817.493	15098
817.591	17954
817.689	22816
817.787	29715
817.885	44308
817.983	70740
818.081	124407
818.179	240941
818.277	471387
818.375	601596
818.473	369759
818.571	176774
818.669	103060
818.767	78212
818.865	72100
818.963	77419
819.061	95971
819.158	137975
819.256	224588
819.354	389871
819.452	624125
819.549	654613
819.647	438347
819.745	238255
819.842	137239
819.940	90195
820.038	63920
820.135	48530
820.233	37510
820.330	30105
820.428	24661
820.525	21301
820.623	18570
820.720	15651
820.818	13708
820.915	12863
821.012	10970
821.110	8521
821.207	8465
821.304	6943
821.402	7349
821.499	8228
821.596	6144
821.693	6025
821.791	5886
821.888	5076
821.985	5398
822.082	5400
822.179	4753
822.276	3255
822.373	3593
822.470	3415
822.567	3563
822.664	2759
822.761	3399
822.858	2356
822.955	2333
823.052	2603
823.149	1833
823.246	1801
823.343	2202
823.440	2533
823.536	986
823.633	1745
823.730	1203
823.827	2350
823.923	1842
824.020	2698
824.117	449
824.213	920
824.310	1989
824.407	1449
824.503	2127
824.600	2110
824.696	1160
824.793	1750
824.889	634
824.986	1085
825.082	646
825.179	1904
825.275	79
825.371	636
825.468	881
825.564	590
825.660	1019
825.757	1055
825.853	1922
825.949	556
826.045	437
826.142	283
826.238	469
826.334	996
826.430	-207
826.526	1194
826.622	619
826.718	21
826.814	-359
826.910	1645
827.006	316
827.102	-63
827.198	906
827.294	-38
827.390	720
827.486	726
827.582	-59
827.678	263
827.774	987
827.869	-122
827.965	1398
828.061	-87
828.157	-412
828.252	613
828.348	221
828.444	1315
828.539	88
828.635	143
828.731	181
828.826	-32
828.922	301
829.017	220
829.113	825
829.208	190
829.304	-715
829.399	958
829.495	-405
829.590	454
829.685	-907
829.781	875
829.876	-61
829.971	47
830.066	691
830.162	608
830.257	182
830.352	-115
830.447	1576
830.543	319
830.638	-733
830.733	738
830.828	-128
830.923	118
831.018	-298
831.113	841
831.208	-203
831.303	551
831.398	57
831.493	165
831.588	643
831.683	325
831.778	-253
831.873	466
831.967	15
832.062	244
832.157	-1686
832.252	737
832.346	375
832.441	1262
832.536	-26
832.631	1209
832.725	2142
832.820	448
832.914	-29
833.009	637
833.104	208
833.198	325
833.293	455
833.387	553
833.482	-628
833.576	-548
833.670	1210
833.765	596
833.859	-900
833.954	823
834.048	150
834.142	607
834.237	-456
834.331	24
834.425	43
834.519	-324
834.613	359
834.708	-310
834.802	-522
834.896	-128
834.990	242
835.084	-151
835.178	-316
835.272	28
835.366	-264
835.460	563
835.554	-55
835.648	-19
835.742	103
835.836	538
835.930	-1998
836.024	-53
836.117	80
836.211	63
836.305	677
836.399	1276
836.493	-732
836.586	694
836.680	-801
836.774	-113
836.867	706
836.961	-955
837.055	-662
837.148	57
837.242	-860
837.335	-506
837.429	65
837.522	591
837.616	-27
837.709	1415
837.803	1070
837.896	167
837.989	-99
838.083	792
838.176	928
838.269	1903
838.363	704
838.456	112
838.549	173
838.642	343
838.735	1949
838.829	1625
838.922	146
839.015	-356
839.108	-377
839.201	-349
839.294	-183
839.387	352
839.480	-320
839.573	925
839.666	357
839.759	486
839.852	-647
839.945	270
840.038	-1280
840.131	-702
840.223	-131
840.316	442
840.409	-1226
840.502	-458
840.594	-468
840.687	-511
840.780	449
840.873	48
840.965	-785
841.058	617
841.150	360
841.243	1485
841.336	329
841.428	-123
841.521	-595
841.613	124
841.706	-433
841.798	-786
841.890	-8
841.983	-431
842.075	-254
842.167	-127
842.260	249
842.352	244
842.444	-140
842.537	1591
842.629	3176
842.721	1127
842.813	137
842.905	-422
842.997	-520
843.090	-298
843.182	404
843.274	470
843.366	3116
843.458	7625
843.550	7200
843.642	1673
843.734	312
843.826	-221
843.918	200
844.009	232
844.101	-668
844.193	-187
844.285	-700
844.377	82
844.469	745
844.560	-402
844.652	-306
844.744	-47
844.835	498
844.927	4
845.019	-15
845.110	-325
845.202	160
845.293	-284
845.385	-698
845.476	669
845.568	504
845.659	15
845.751	63
845.842	-699
845.934	-1439
846.025	-32
846.116	-677
846.208	-823
846.299	-502
846.390	-790
846.482	-140
846.573	-30
846.664	-188
846.755	-24
846.846	634
846.937	-704
847.029	-342
847.120	-481
847.211	-334
847.302	1259
847.393	-891
847.484	-113
847.575	-354
847.666	227
847.757	-248
847.847	-683
847.938	528
848.029	-469
848.120	-1132
848.211	186
848.302	-720
848.392	-311
848.483	-405
848.574	-438
848.664	-292
848.755	178
848.846	-390
848.936	6
849.027	-482
849.118	-593
849.208	-1064
849.299	-83
849.389	-278
849.480	-19
849.570	249
849.661	432
849.751	1697
849.841	711
849.932	-603
850.022	-635
850.112	-247
850.203	-394
850.293	-591
850.383	-985
850.474	-419
850.564	64
850.654	-729
850.744	-365
850.834	-452
850.924	-120
851.014	-756
851.104	-495
851.194	-816
851.284	-63
851.374	-43
851.464	-799
851.554	-400
851.644	122
851.734	588
851.824	960
851.914	283
852.004	1426
852.094	792
852.183	527
852.273	-204
852.363	-452
852.452	19
852.542	1
852.632	70
852.721	-242
852.811	-314
852.901	-503
852.990	395
853.080	-299
853.169	-686
853.259	249
853.348	-536
853.438	-97
853.527	-343
853.617	-347
853.706	-141
853.795	262
853.885	2169
853.974	4320
854.063	7946
854.152	15690
854.242	10344
854.331	1068
854.420	-510
854.509	-9
854.598	-492
854.687	-757
854.777	-355
854.866	47
854.955	161
855.044	-491
855.133	-1101
855.222	334
855.311	-745
855.400	-115
855.488	-986
855.577	-735
855.666	536
855.755	601
855.844	-104
855.933	-107
856.021	-72
856.110	-525
856.199	-1376
856.288	-236
856.376	-446
856.465	-465
856.554	210
856.642	-343
856.731	-736
856.819	159
856.908	-1260
856.996	164
857.085	-954
857.173	-589
857.262	-794
857.350	-422
857.438	-494
857.527	268
857.615	-313
857.703	-129
857.792	-1903
857.880	-831
857.968	-1379
858.056	-277
858.145	-411
858.233	-1266
858.321	-1029
858.409	91
858.497	-1016
858.585	-381
858.673	-211
858.761	-1193
858.849	-835
858.937	-1068
859.025	-545
859.113	-237
859.201	-228
859.289	446
859.377	-619
859.465	220
859.552	-485
859.640	-1051
859.728	-303
859.816	40
859.903	106
859.991	-712
860.079	-562
860.166	-599
860.254	-858
860.342	460
860.429	-430
860.517	410
860.604	-756
860.692	-141
860.779	-620
860.867	-607
860.954	-1450
861.042	-986
861.129	-362
861.216	-475
861.304	-456
861.391	66
861.478	-275
861.565	-466
861.653	-121
861.740	-1419
861.827	-1513
861.914	185
862.001	-1034
862.089	-1063
862.176	-186
862.263	144
862.350	-1281
862.437	-930
862.524	-1230
862.611	-301
862.698	-188
862.785	-345
862.871	-159
862.958	-736
863.045	-675
863.132	-211
863.219	-910
863.306	-1286
863.392	-308
863.479	-670
863.566	-1349
863.652	-814
863.739	-947
863.826	-684
863.912	-769
863.999	-1144
864.086	-923
864.172	-514
864.259	-688
864.345	48
864.432	-868
864.518	-296
864.604	-572
864.691	-697
864.777	-802
864.863	-450
864.950	-666
865.036	-1386
865.122	-500
865.209	-385
865.295	-801
865.381	-908
865.467	-1039
865.553	-768
865.639	-1077
865.726	-191
865.812	229
865.898	1765
865.984	2805
866.070	5737
866.156	9532
866.242	3031
866.328	-296
866.414	-386
866.499	-202
866.585	193
866.671	-772
866.757	-378
866.843	-993
866.928	-840
867.014	-630
867.100	499
867.186	-1117
867.271	34
867.357	-134
867.442	301
867.528	-109
867.614	-676
867.699	-699
867.785	-148
867.870	-816
867.956	280
868.041	-207
868.127	-506
868.212	-573
868.297	-56
868.383	-1357
868.468	-211
868.553	156
868.639	-320
868.724	1054
868.809	2194
868.894	990
868.979	-520
869.065	-177
869.150	-1136
869.235	-59
869.320	48
869.405	-743
869.490	-800
869.575	-1174
869.660	-547
869.745	-548
869.830	-695
869.915	-1039
870.000	-414
870.085	-1121
870.169	139
870.254	-285
870.339	-1148
870.424	-880
870.509	-605
870.593	-659
870.678	-292
870.763	-892
870.847	22
870.932	-1449
871.016	-742
871.101	-1021
871.186	-927
871.270	-915
871.355	-133
871.439	-680
871.523	-628
871.608	-64
871.692	-933
871.777	-430
871.861	-780
871.945	-1414
872.030	-660
872.114	-1187
872.198	-1083
872.282	-803
872.367	-458
872.451	-1461
872.535	-172
872.619	-647
872.703	-967
872.787	-1001
872.871	-314
872.955	-979
873.039	-1094
873.123	-1515
873.207	-630
873.291	-1241
873.375	-367
873.459	-1199
873.543	-769
873.627	-904
873.711	-532
873.794	-1099
873.878	-1554
873.962	-1441
874.045	-555
874.129	-1369
874.137	-1385
874.213	-1547
874.245	-1321
874.296	-956
874.352	-859
874.380	-810
874.460	-768
874.464	-768
874.547	-717
874.568	-841
874.631	-1211
874.676	-728
874.714	-319
874.784	-903
874.798	-1017
874.881	462
874.892	263
874.965	-1147
874.999	-1164
875.048	-1197
875.107	-941
875.131	-815
875.215	-335
875.215	-335
875.298	-808
875.323	-770
875.381	-720
875.430	-876
875.465	-945
875.538	-128
875.548	-22
875.631	-921
875.646	-798
875.714	-164
875.753	-331
875.798	-587
875.861	-1113
875.881	-1254
875.964	-1400
875.968	-1362
876.047	-716
876.076	-730
876.130	-711
876.183	-464
876.213	-368
876.291	-736
876.296	-753
876.379	-718
876.398	-724
876.462	-906
876.506	-719
876.545	-510
876.613	-541
876.628	-508
876.711	-996
876.721	-915
876.794	-512
876.828	-432
876.877	-351
876.935	-865
876.960	-1029
877.043	-576
877.043	-575
877.125	-377
877.150	-354
877.208	-345
877.258	-605
877.291	-801
877.365	172
877.374	311
877.456	-512
877.472	-562
877.539	-995
877.579	-861
877.622	-629
877.687	-284
877.704	-235
877.787	-570
877.794	-546
877.869	-4
877.901	-206
877.952	-698
878.008	-516
878.034	-401
878.115	-747
878.117	-752
878.199	-544
878.222	-318
878.282	195
878.329	-19
878.364	-154
878.437	-397
878.447	-423
878.529	-403
878.544	-364
878.611	-348
878.651	-528
878.694	-613
878.758	-318
878.776	-298
878.858	74
878.865	-20
878.941	-768
878.972	-550
879.023	-331
879.078	-381
879.105	-371
879.185	-645
879.187	-654
879.269	-761
879.292	-925
879.351	-984
879.399	-730
879.433	-709
879.506	-146
879.516	-80
879.598	-949
879.613	-871
879.680	-325
879.720	-561
879.762	-770
879.827	-381
879.844	-313
879.926	-1060
879.933	-975
880.007	-193
880.040	-428
880.089	-634
880.147	-596
880.171	-674
880.253	-565
880.254	-565
880.335	-157
880.360	-56
880.417	-79
880.467	-227
880.499	-165
880.574	787
880.580	877
880.662	-367
880.680	-243
880.744	-144
880.787	-413
880.825	-582
880.893	-288
880.907	-222
880.989	-271
881.000	-310
881.070	-528
881.106	-521
881.152	-620
881.213	-718
881.233	-646
881.315	-513
881.319	-497
881.396	-360
881.426	-334
881.478	-395
881.532	-435
881.559	-426
881.639	-339
881.641	-336
881.722	-403
881.745	-471
881.803	-819
881.852	-1066
881.885	-1034
881.958	-568
881.966	-550
882.047	-606
882.064	-561
882.129	133
882.171	192
882.210	-115
882.277	146
882.291	208
882.372	-247
882.383	-281
882.454	-309
882.489	-396
882.535	-417
882.596	-425
882.616	-505
882.697	-893
882.702	-876
882.778	-493
882.808	-736
882.859	-1107
882.914	-677
882.940	-488
883.020	-999
883.021	-1000
883.102	-538
883.127	-534
883.183	-332
883.233	126
883.264	233
883.339	-571
883.345	-641
883.426	-509
883.445	-621
883.507	-640
883.551	-433
883.587	-335
883.657	-408
883.668	-383
883.749	17
883.763	54
883.830	-102
883.869	-255
883.910	-379
883.975	-676
883.991	-792
884.072	-736
884.081	-784
884.152	-599
884.187	-351
884.233	-50
884.292	-43
884.314	-157
884.394	-288
884.398	-312
884.475	-295
884.504	-45
884.555	-5
884.610	-566
884.636	-676
884.716	-514
884.716	-513
884.797	-866
884.821	-909
884.877	-460
884.927	32
884.958	-10
885.033	-532
885.038	-556
885.118	-721
885.139	-795
885.199	-499
885.244	-264
885.279	-280
885.350	-425
885.359	-436
885.439	-354
885.456	-357
885.520	-356
885.561	-280
885.600	-203
885.667	-290
885.680	-281
885.760	-214
885.773	-171
885.840	-244
885.878	-268
885.920	6
885.984	215
886.000	46
886.080	-899
886.089	-973
886.160	-216
886.195	136
886.240	-163
886.300	-510
886.320	-381
886.400	-248
886.406	-210
886.480	-301
886.511	-444
886.560	-281
886.616	-24
886.640	-121
886.720	-631
886.722	-642
886.800	-162
886.827	27
886.879	48
886.932	149
886.959	255
887.038	287
887.039	289
887.119	212
887.143	134
887.198	-228
887.248	-462
887.278	-437
887.354	-555
887.358	-545
887.437	-346
887.459	-284
887.517	-275
887.564	-184
887.596	-255
887.669	-655
887.676	-638
887.755	-240
887.774	-205
887.835	-295
887.880	-198
887.914	-33
887.985	67
887.994	13
888.073	-367
888.090	-451
888.153	-268
888.195	-166
888.232	90
888.300	496
888.311	420
888.391	-25
888.405	-114
888.470	-76
888.510	-83
888.549	-236
888.615	-470
888.628	-418
888.708	-120
888.720	-67
888.787	145
888.825	249
888.866	-45
888.930	-512
888.945	-521
889.024	-516
889.035	-523
889.103	-480
889.140	-436
889.182	-494
889.245	-576
889.261	-504
889.340	-148
889.349	-105
889.419	16
889.454	68
889.498	-15
889.559	-124
889.577	-244
889.656	-753
889.664	-799
889.735	-65
889.768	293
889.814	50
889.873	-274
889.978	384
890.083	-173
890.187	204
890.292	-486
890.397	537
890.501	99
890.606	88
890.710	-215
890.815	15
890.919	-316
891.024	-686
891.128	227
891.233	118
891.337	-266
891.442	252
891.546	-475
891.650	-1004
891.755	-30
891.859	1105
891.963	48
892.068	-97
892.172	-134
892.276	589
892.380	-642
892.484	-670
892.589	-280
892.693	-226
892.797	-99
892.901	286
893.005	-934
893.109	710
893.213	236
893.317	429
893.421	-76
893.525	-496
893.629	-500
893.733	39
893.837	-119
893.941	-96
894.045	284
894.148	-880
894.252	-210
894.356	-9
894.460	-41
894.564	401
894.667	-31
894.771	352
894.875	-495
894.978	-540
895.082	-163
895.186	-120
895.289	-52
895.393	37
895.496	42
895.600	185
895.703	-140
895.807	-554
895.910	-487
896.014	-315
896.117	-641
896.221	324
896.324	-659
896.427	-29
896.531	-288
896.634	455
896.737	-405
896.840	111
896.944	-488
897.047	-33
897.150	-406
897.253	-695
897.356	-43
897.460	-299
897.563	-252
897.666	-198
897.769	-268
897.872	321
897.975	-425
898.078	-766
898.181	-680
898.284	-229
898.387	-325
898.490	7
898.593	144
898.695	-352
898.798	-708
898.901	100
899.004	-372
899.107	207
899.209	83
899.312	-246
899.415	235
899.518	625
899.620	-354
899.723	185
899.826	-457
899.928	179
900.031	-763
900.133	-73
900.236	-915
900.338	-966
900.441	-539
900.543	-520
900.646	-203
900.748	-311
900.851	-309
900.953	141
901.055	-1331
901.158	-950
901.260	138
901.362	-105
901.465	-3
901.567	-480
901.669	-1132
901.771	-942
901.873	-938
901.976	-476
902.078	-562
902.180	-135
902.282	-1376
902.384	90
902.486	152
902.588	207
902.690	-772
902.792	-587
902.894	-301
902.996	-240
903.098	-279
903.200	-392
903.302	122
903.404	-165
903.505	-683
903.607	124
903.709	-515
903.811	2
903.913	-17
904.014	-497
904.116	-1424
904.218	-66
904.319	-836
904.421	-233
904.523	-614
904.624	-218
904.726	109
904.827	-177
904.929	-1010
905.030	-1367
905.132	-602
905.233	-474
905.335	-838
905.436	-237
905.537	-866
905.639	-664
905.740	-661
905.841	-236
905.943	-232
906.044	-167
906.145	-79
906.247	-838
906.348	-522
906.449	29
906.550	-1007
906.651	525
906.752	-834
906.854	736
906.955	-938
907.056	-885
907.157	-500
907.258	-746
907.359	-621
907.460	-60
907.561	-1115
907.662	-345
907.762	-518
907.863	-320
907.964	-1640
908.065	-312
908.166	-214
908.267	-288
908.367	-1237
908.468	-420
908.569	-699
908.670	-674
908.770	-1083
908.871	-431
908.971	-791
909.072	-261
909.173	-485
909.273	-1479
909.374	-176
909.474	-682
909.575	-736
909.675	-390
909.776	-737
909.876	-818
909.977	-1280
910.077	-213
910.177	-1809
910.278	-916
910.378	-192
910.478	260
910.579	-593
910.679	-136
910.779	-227
910.879	-419
910.980	279
911.080	-950
911.180	-815
911.280	-384
911.380	-666
911.480	150
911.580	-295
911.680	-987
911.780	-409
911.880	-286
911.980	-607
912.080	-658
912.180	-524
912.280	-176
912.380	-707
912.480	-844
912.580	-529
912.679	-1139
912.779	-797
912.879	-1354
912.979	27
913.078	-534
913.178	-925
913.278	-683
913.377	-786
913.477	-625
913.577	-554
913.676	-541
913.776	-795
913.875	-309
913.975	-631
914.074	-259
914.174	-300
914.273	-1085
914.373	-622
914.472	-191
914.572	-1371
914.671	-720
914.770	-283
914.870	-1000
914.969	-791
915.068	151
915.167	-402
915.267	-101
915.366	-1079
915.465	-428
915.564	-1180
915.663	-760
915.763	-1277
915.862	-1251
915.961	-1260
916.060	-165
916.159	-854
916.258	-1018
916.357	-1095
916.456	60
916.555	-891
916.654	-1589
916.752	-468
916.851	-1480
916.950	-1460
917.049	-215
917.148	-1377
917.247	-346
917.345	-662
917.444	-540
917.543	-712
917.642	-98
917.740	-1639
917.839	-1325
917.937	-461
918.036	-737
918.135	-578
918.233	-492
918.332	-411
918.430	-956
918.529	-982
918.627	-182
918.726	-947
918.824	44
918.923	-754
919.021	-93
919.119	-713
919.218	-69
919.316	-641
919.414	-66
919.512	-837
919.611	-619
919.709	-976
919.807	-412
919.905	-655
920.003	-297
920.102	-477
920.200	-920
920.298	-973
920.396	-707
920.494	-840
920.592	-814
920.690	-644
920.788	-313
920.886	-545
920.984	-462
921.082	-1382
921.180	-1118
921.277	-655
921.375	-839
921.473	-728
921.571	-247
921.669	-1172
921.766	-958
921.864	-628
921.962	-127
922.060	-1024
922.157	639
922.255	-955
922.352	-295
922.450	-492
922.548	-1282
922.645	-354
922.743	-1157
922.840	-1151
922.938	-259
923.035	-667
923.133	-790
923.230	-641
923.327	-851
923.425	-533
923.522	-565
923.619	-944
923.717	-1034
923.814	-117
923.911	-1260
924.008	-657
924.106	-295
924.203	-1038
924.300	-1407
924.397	-166
924.494	-217
924.591	-1127
924.688	-389
924.786	-969
924.883	-455
924.979	-1157
925.077	-665
925.173	-1212
925.270	-99
925.367	-926
925.464	120
925.561	-791
925.658	-410
925.755	-655
925.852	-707
925.948	-898
926.045	-186
926.142	-971
926.239	-642
926.335	-458
926.432	-388
926.529	-589
926.625	-623
926.722	-746
926.818	-1105
926.915	-726
927.011	-942
927.108	-954
927.204	360
927.301	-1657
927.397	-188
927.494	-475
927.590	-196
927.687	-1172
927.783	-372
927.879	-221
927.976	-380
928.072	-598
928.168	-1133
928.264	-1146
928.361	-976
928.457	-1288
928.553	-1291
928.649	-865
928.745	-115
928.841	-228
928.937	-534
929.033	-283
929.129	-866
929.225	-1077
929.321	-546
929.417	-1043
929.513	-956
929.609	-207
929.705	-243
929.801	-1088
929.897	-993
929.993	-983
930.089	-904
930.184	-1132
930.280	-350
930.376	-1458
930.471	-1096
930.567	-1171
930.663	-319
930.758	-443
930.854	-389
930.950	-865
931.045	-1067
931.141	-242
931.236	-1298
931.332	-335
931.427	-801
931.523	-393
931.618	-673
931.714	-517
931.809	-250
931.905	-700
932.000	-476
932.095	-1302
932.191	-732
932.286	-971
932.381	-553
932.476	-524
932.572	-158
932.667	-669
932.762	-1405
932.857	-707
932.952	-414
933.047	-1278
933.142	-1276
933.237	-435
933.332	-351
933.427	22
933.522	-355
933.617	-901
933.712	-236
933.807	-458
933.902	-331
933.997	-1437
934.092	-1039
934.187	-1092
934.282	-760
934.376	-1849
934.471	-1453
934.566	-728
934.661	-15
934.755	-882
934.850	-757
934.945	-1327
935.039	-335
935.134	-667
935.228	-1271
935.323	-247
935.417	-753
935.512	-820
935.606	-266
935.701	-1118
935.795	150
935.890	-777
935.984	-664
936.079	-1385
936.173	-129
936.267	-451
936.362	-447
936.456	-1792
936.550	-253
936.644	-662
936.738	-304
936.833	-181
936.927	-273
937.021	-1016
937.115	-331
937.209	-938
937.303	-330
937.397	-974
937.491	-788
937.585	-881
937.679	-871
937.773	-905
937.867	-622
937.961	-877
938.055	-1424
938.149	-1211
938.243	-112
938.337	-309
938.430	-552
938.524	-1141
938.618	-694
938.712	-1253
938.805	-386
938.899	-716
938.993	-467
939.086	-362
939.180	-788
939.274	-627
939.367	312
939.461	-347
939.554	-754
939.648	-279
939.741	-727
939.835	-751
939.928	-313
940.022	-720
940.115	-811
940.208	-857
940.302	-657
940.395	-1469
940.488	-851
940.582	-789
940.675	-815
940.768	-657
940.861	485
940.954	-432
941.048	-918
941.141	-158
941.234	-784
941.327	-1252
941.420	-970
941.513	-1253
941.606	-871
941.699	-237
941.792	-302
941.885	-389
941.978	-352
942.071	-289
942.164	-946
942.257	-852
942.349	-265
942.442	-788
942.535	-414
942.628	-236
942.721	-1642
942.813	-940
942.906	-526
942.999	-151
943.091	-1087
943.184	-663
943.277	-1034
943.369	-208
943.462	-340
943.554	-521
943.647	-519
943.739	317
943.832	-947
943.924	-958
944.017	-433
944.109	-1153
944.201	-757
944.294	-670
944.386	-982
944.478	-712
944.571	-792
944.663	-543
944.755	-650
944.847	20
944.940	-776
945.032	-897
945.124	-755
945.216	-471
945.308	-447
945.400	-561
945.492	-49
945.584	-637
945.676	-609
945.768	-717
945.860	-384
945.952	-1739
946.044	-464
946.136	-1002
946.228	-831
946.320	-751
946.412	-829
946.503	-407
946.595	-860
946.687	-765
946.779	-1488
946.870	-1086
946.962	-1179
947.054	-25
947.145	-461
947.237	-423
947.329	-700
947.420	-1386
947.512	-900
947.603	-1162
947.695	-536
947.786	-1606
947.878	-1187
947.969	-274
948.061	-1013
948.152	-734
948.243	-796
948.335	-1389
948.426	-807
948.517	-1236
948.609	-789
948.700	-758
948.791	-881
948.882	-652
948.973	-870
949.065	-551
949.156	-583
949.247	-1084
949.338	-685
949.429	-1535
949.520	-451
949.611	-1118
949.702	-352
949.793	-232
949.884	-1097
949.975	-900
950.066	-743
950.157	-1265
950.247	-158
950.338	-1106
950.429	-781
950.520	-510
950.611	-980
950.701	-503
950.792	-671
950.883	-1093
950.973	-142
951.064	-2212
951.155	-1727
951.245	-598
951.336	240
951.427	-1714
951.517	199
951.608	-1849
951.698	189
951.788	-1359
951.879	339
951.969	-692
952.060	-1127
952.150	-348
952.240	-282
952.331	-1917
952.421	174
952.511	-1738
952.602	-872
952.692	-1314
952.782	-995
952.872	-1477
952.962	-147
953.052	-1209
953.143	-750
953.233	-888
953.323	-1366
953.413	-1319
953.503	-349
953.593	-811
953.683	-979
953.773	-1962
953.863	-738
953.953	-1101
954.042	-1056
954.132	-1217
954.222	-1200
954.312	-1648
954.402	-1086
954.492	-1104
954.581	-1483
954.671	-1298
954.761	-927
954.850	-125
954.940	-1005
955.030	-1104
955.119	-665
955.209	-551
955.298	-1355
955.388	-417
955.477	-759
955.567	-1635
955.656	-1160
955.746	-815
955.835	67
955.925	-1798
956.014	-1146
956.103	-1721
956.193	-1437
956.282	-218
956.371	-799
956.461	-1228
956.550	-325
956.639	-1342
956.728	-1269
956.817	-486
956.906	-1943
956.995	-777
957.085	-994
957.174	-1330
957.263	-1737
957.352	-1144
957.441	-1296
957.530	-632
957.619	-1405
957.708	-960
957.796	-886
957.885	-1274
957.974	-1015
958.063	-1170
958.152	-849
958.241	-396
958.329	-1062
958.418	-717
958.507	-981
958.596	-675
958.684	-1171
958.773	-553
958.861	-951
958.950	-1440
959.039	-860
959.127	-1347
959.216	-1130
959.304	-1354
959.393	-972
959.481	-1027
959.570	-1459
959.658	-1626
959.746	-1182
959.835	-861
959.923	-423
960.011	-1226
960.100	-457
960.188	-833
960.276	-108
960.365	-834
960.453	-1715
960.541	-1813
960.629	-1498
960.717	-1566
960.805	-1426
960.893	-309
960.981	-635
961.069	-1422
961.158	-1428
961.245	-26
961.333	-1195
961.421	-1079
961.509	-925
961.597	-696
961.685	-1345
961.773	-1724
961.861	-931
961.949	-270
962.036	-1612
962.124	-958
962.212	-562
962.299	-1617
962.387	-1400
962.475	-595
962.562	-932
962.650	-383
962.738	-1635
962.825	-1491
962.913	-1027
963.000	-1250
963.088	-1199
963.175	-1369
963.263	-1319
963.350	-1919
963.438	-695
963.525	-793
963.612	-24
963.700	-1877
963.787	-407
963.874	-901
963.962	-676
964.049	-837
964.136	-420
964.223	-1855
964.310	-816
964.398	-1251
964.485	-1617
964.572	-1091
964.659	-584
964.746	-1151
964.833	-630
964.920	-1513
965.007	-868
965.094	-1212
965.181	-1339
965.268	-1368
965.355	-958
965.441	-1366
965.528	-1295
965.615	-334
965.702	-1106
965.789	-1759
965.875	-1275
965.962	-1206
966.049	-1705
966.136	-1103
966.222	-1477
966.309	-1607
966.395	-1390
966.482	-457
966.569	-695
966.655	-612
966.742	-417
966.828	-1077
966.915	-237
967.001	-1774
967.087	-1878
967.174	-1188
967.260	-650
967.347	-1425
967.433	-1065
967.519	-1146
967.605	-1494
967.692	-1658
967.778	-1633
967.864	-1940
967.950	-772
968.036	-1384
968.123	-865
968.209	-1598
968.295	-1647
968.381	-956
968.467	-618
968.553	-2070
968.639	-586
968.725	-1472
968.811	-1769
968.897	-327
968.983	-1239
969.069	-1529
969.154	-1246
969.240	-1425
969.326	-1335
969.412	-1678
969.497	-1265
969.583	-1475
969.669	-119
969.755	-1244
969.840	-1484
969.926	-1475
970.012	-1727
970.097	-1268
970.183	-1559
970.268	-1391
970.354	-292
970.439	-555
970.525	-104
970.610	-2044
970.696	-1105
970.781	-1215
970.866	-1173
970.952	-1508
971.037	-965
971.122	-1212
971.208	-826
971.293	-2042
971.378	-1604
971.463	-750
971.549	-477
971.634	-1123
971.719	-541
971.804	-712
971.889	-779
971.974	-1142
972.059	-1434
972.144	-1004
972.229	-768
972.314	-1512
972.399	-1117
972.484	-1580
972.569	-356
972.654	-1961
972.739	-327
972.824	-1307
972.908	-584
972.993	-1649
973.078	-1574
973.163	-1141
973.247	-234
973.332	-1610
973.417	127
973.501	-2015
973.586	-1285
973.671	-593
973.755	-886
973.840	-767
973.924	-340
974.009	-1517
974.093	-1320
974.178	-460
974.262	-1279
974.346	-1378
974.431	-718
974.515	-1322
974.600	-1131
974.684	-1057
974.768	-1627
974.852	-848
974.937	-799
975.021	-1057
975.105	-867
975.189	-1430
975.273	-1086
975.358	-1017
975.442	-1643
975.526	-1038
975.610	-769
975.694	-1378
975.778	-1275
975.862	-1305
975.946	-2285
976.030	-228
976.114	-1490
976.198	-1108
976.281	-788
976.365	-1011
976.449	-709
976.533	-1113
976.617	-1363
976.700	-675
976.784	-930
976.868	-1128
976.951	-1053
977.035	-1633
977.119	-225
977.202	-1242
977.286	-781
977.369	-1638
977.453	-1294
977.536	-731
977.620	-1623
977.703	-932
977.787	-1727
977.870	-773
977.953	-679
978.037	-1493
978.120	-1474
978.203	-1567
978.287	-1401
978.370	-1255
978.453	-1106
978.536	-870
978.620	-733
978.703	-1811
978.786	-1392
978.869	-1519
978.952	-1771
979.035	225
979.118	-1196
979.201	-1009
979.284	-1348
979.367	-2174
979.450	-1275
979.533	-1570
979.616	-890
979.699	-1902
979.782	-949
979.865	-802
979.948	-1885
980.030	-1198
980.113	-606
980.196	-2029
980.279	-1073
980.361	-2343
980.444	-1888
980.526	-823
980.609	-1488
980.692	-1696
980.774	-1226
980.857	-2343
980.939	-1069
981.022	-1592
981.104	-929
981.187	-648
981.269	-858
981.352	-2238
981.434	-2038
981.516	-2135
981.599	75
981.681	-2402
981.763	-487
981.846	-1281
981.928	-720
982.010	-1964
982.092	-1563
982.174	-921
982.256	-871
982.339	-1454
982.421	-855
982.503	-1066
982.585	-1739
982.667	-1647
982.749	-247
982.831	-1828
982.913	-2448
982.995	-945
983.077	-1882
983.158	-1411
983.240	-2024
983.322	-1473
983.404	-787
983.486	-1722
983.568	-500
983.649	-1544
983.731	-1390
983.813	-2227
983.894	-566
983.976	-1789
984.058	-1621
984.139	-1579
984.221	-1228
984.302	-1447
984.384	-741
984.465	-1662
984.547	-1039
984.628	-1667
984.710	-475
984.791	-1794
984.872	-908
984.954	-2141
985.035	-1815
985.116	-1785
985.198	-1046
985.279	-1458
985.360	-1159
985.441	-1631
985.522	-1290
985.604	-1723
985.685	-1932
985.766	-367
985.847	-960
985.928	-1895
986.009	-1575
986.090	-2414
986.171	-1134
986.252	-1644
986.333	-1320
986.414	-1848
986.495	-1107
986.576	-1157
986.656	-1265
986.737	-1834
986.818	-2097
986.899	-1933
986.980	-1111
987.060	-1437
987.141	-1304
987.222	-1523
987.302	-2014
987.383	-1494
987.464	-1783
987.544	-1147
987.625	-1625
987.705	-1651
987.786	-680
987.866	-1940
987.947	-1415
988.027	-1337
988.108	-1296
988.188	-1364
988.268	-717
988.349	-1381
988.429	-1701
988.509	-1491
988.589	-1076
988.670	-2494
988.750	-431
988.830	-1548
988.910	-913
988.990	-2562
989.070	-1337
989.151	-970
989.231	-1634
989.311	-1469
989.391	-1043
989.471	-1826
989.551	-2139
989.631	-1931
989.711	-728
989.791	-1855
989.870	-1892
989.950	-1073
990.030	-1154
990.110	-1703
990.190	-2147
990.269	-1708
990.349	-1379
990.429	-1543
990.509	-754
990.588	-1948
990.668	-769
990.747	-1869
990.827	-1489
990.907	-1571
990.986	-1170
991.066	-1456
991.145	-1383
991.225	-652
991.304	-2078
991.383	-1378
991.463	-1490
991.542	-1592
991.622	-2127
991.701	-1507
991.780	-1555
991.859	-1471
991.939	-1832
992.018	-2016
992.097	-1170
992.176	-1362
992.256	-1504
992.335	-2331
992.414	-766
992.493	-1535
992.572	-1073
992.651	-1108
992.730	-815
992.809	-1801
992.888	-1098
992.967	-1998
993.046	-1160
993.125	-1951
993.203	-612
993.282	-1668
993.361	-981
993.440	-1603
993.519	-1941
993.597	-1022
993.676	-1173
993.755	-1647
993.834	-1923
993.912	-1478
993.991	-1086
994.069	-1789
994.148	-1178
994.226	-1745
994.305	-994
994.384	-1808
994.462	-1166
994.540	-2180
994.619	-1886
994.697	-1583
994.776	-1491
994.854	-1325
994.932	-1782
995.011	-1780
995.089	-2000
995.167	-1593
995.245	-909
995.324	-2585
995.402	-762
995.480	-1438
995.558	-819
995.636	-2197
995.714	-2299
995.792	-1322
995.870	-2206
995.948	-1365
996.026	-1289
996.104	-2340
996.182	-1769
996.260	-1006
996.338	-1514
996.416	-2387
996.494	-1667
996.572	-1039
996.649	-2085
996.727	-1577
996.805	-1043
996.883	-1565
996.960	-1577
997.038	-1711
997.116	-1447
997.193	-1719
997.271	-1616
997.348	-1547
997.426	-1499
997.504	-2231
997.581	-745
997.658	-868
997.736	-1043
997.813	-2016
997.891	-624
997.968	-2041
998.046	-1050
998.123	-1730
998.200	-1543
998.277	-2211
998.355	-1156
998.432	-2644
998.509	-1514
998.586	-426
998.663	-982
998.741	-1404
998.818	-1790
998.895	-1410
998.972	-1059
999.049	-1410
999.126	-2272
999.203	-1341
999.280	-970
999.357	-2013
999.434	-1742
999.511	-833
999.587	-1066
999.664	-2186
999.741	-1012
999.818	-1522
999.895	-1466
999.971	-1767
1000.048	-1318
1000.125	-695
1000.202	-2233
1000.278	-1848
1000.355	-1982
1000.431	-1504
1000.508	-1022
1000.584	-2126
1000.661	-411
1000.738	-2186
1000.814	-1046
1000.890	-1060
1000.967	-900
1001.043	-1115
1001.120	-1283
1001.196	-1261
1001.272	-1743
1001.349	-1302
1001.425	-713
1001.501	-1722
1001.577	-1568
1001.654	-2171
1001.730	-1554
1001.806	-1497
1001.882	-2000
1001.958	-1400
1002.034	-1293
1002.110	-1555
1002.186	-1564
1002.262	-1786
1002.338	-2131
1002.414	-960
1002.490	-1538
1002.566	-1285
1002.642	-842
1002.718	-1259
1002.794	-1389
1002.870	-1645
1002.945	-988
1003.021	-1263
1003.097	-1280
1003.173	-1333
1003.248	-2074
1003.324	-1246
1003.400	-1252
1003.475	-1285
1003.551	-1129
1003.626	-2262
1003.702	-1894
1003.777	-763
1003.853	-1158
1003.928	-1531
1004.004	-1188
1004.079	-1274
1004.155	-1676
1004.230	-2836
1004.305	-522
1004.381	-1453
1004.456	-1272
1004.531	-435
1004.607	-1541
1004.682	-1402
1004.757	-769
1004.832	-1315
1004.907	-1363
1004.982	-1446
1005.057	-1411
1005.133	-1339
1005.208	-2051
1005.283	-1666
1005.358	-1033
1005.433	-2288
1005.508	-1646
1005.583	-1475
1005.657	-2197
1005.732	-1762
1005.807	-1401
1005.882	-1364
1005.957	-722
1006.032	-899
1006.106	-1504
1006.181	-1203
1006.256	-822
1006.331	-1680
1006.405	-1804
1006.480	-1376
1006.554	-1915
1006.629	-1637
1006.704	-1704
1006.778	-1930
1006.853	-929
1006.927	-1531
1007.002	-1020
1007.076	-1495
1007.150	-1424
1007.225	-1404
1007.299	-569
1007.373	-1814
1007.448	-1162
1007.522	-1301
1007.596	-1168
1007.671	-2432
1007.745	-1264
1007.819	-1895
1007.893	-1981
1007.967	-1138
1008.041	-1969
1008.115	-1254
1008.190	-1621
1008.264	-1175
1008.338	-1972
1008.412	-1779
1008.486	-2058
1008.560	-1337
1008.633	-1770
1008.707	-1200
1008.781	-657
1008.855	-1694
1008.929	-1260
1009.003	-1838
1009.076	-2746
1009.150	-1330
1009.224	-1310
1009.298	-1216
1009.371	-899
1009.445	-1133
1009.519	-1661
1009.592	-2240
1009.666	-908
1009.739	-2279
1009.813	-1769
1009.886	-724
1009.960	-1448
1010.033	-1368
1010.107	-1245
1010.180	-1409
1010.253	-1709
1010.327	-1990
1010.400	-1908
1010.473	-2314
1010.547	-910
1010.620	-1857
1010.693	-1206
1010.766	-1398
1010.840	-868
1010.913	-1586
1010.986	-1869
1011.059	-1677
1011.132	-1415
1011.205	-1963
1011.278	-1611
1011.351	-1610
1011.424	-1887
1011.497	-1432
1011.570	-1125
1011.643	-1839
1011.716	-1703
1011.789	-1491
1011.862	-1943
1011.934	-1201
1012.007	-2299
1012.080	-2055
1012.153	-1456
1012.225	-1947
1012.298	-1980
1012.371	-1796
1012.443	-1371
1012.516	-1460
1012.588	-2163
1012.661	-1599
1012.733	-2091
1012.806	-1278
1012.879	-1876
1012.951	-1585
1013.023	-1704
1013.096	-1039
1013.168	-1729
1013.241	-1468
1013.313	-1473
1013.385	-1992
1013.458	-1642
1013.530	-1184
1013.602	-1804
1013.674	-1260
1013.746	-1619
1013.819	-2430
1013.891	-1639
1013.963	-1380
1014.035	-1034
1014.107	-1282
1014.179	-1933
1014.251	-2434
1014.323	-2127
1014.395	-2007
1014.467	-1387
1014.539	-902
1014.611	-2198
1014.683	-1369
1014.754	-818
1014.826	-2592
1014.898	-1308
1014.970	-2217
1015.042	-1298
1015.113	-1891
1015.185	-1478
1015.257	-3008
1015.328	-1107
1015.400	-2786
1015.471	-1393
1015.543	-2313
1015.615	-1742
1015.686	-1647
1015.757	-981
1015.829	-1828
1015.901	-1923
1015.972	-1636
1016.043	-2071
1016.115	-1443
1016.186	-2391
1016.257	-1994
1016.328	-1000
1016.400	-956
1016.471	-1969
1016.542	-2477
1016.613	-1406
1016.685	-1827
1016.756	-1643
1016.827	-2486
1016.898	-1790
1016.969	-1002
1017.040	-1975
1017.111	-1242
1017.182	-2344
1017.253	-2422
1017.324	-2128
1017.395	-1300
1017.466	-2216
1017.537	-2577
1017.608	-2539
1017.678	-2478
1017.749	-2411
1017.820	-1989
1017.891	-1953
1017.961	-1909
1018.032	-1967
1018.103	-1565
1018.173	-1476
1018.244	-2044
1018.315	-2292
1018.385	-1746
1018.456	-1721
1018.526	-2575
1018.597	-2545
1018.667	-2028
1018.738	-2670
1018.808	-2269
1018.878	-2028
1018.949	-1808
1019.019	-1370
1019.089	-1887
1019.160	-1683
1019.230	-1618
1019.300	-1180
1019.371	-3070
1019.441	-1585
1019.511	-2202
1019.581	-2684
1019.651	-2234
1019.721	-1455
1019.791	-2473
1019.861	-2005
1019.931	-1864
1020.001	-2389
1020.071	-1369
1020.141	-2409
1020.211	-1785
1020.281	-1881
1020.351	-2566
1020.421	-1878
1020.491	-2312
1020.560	-2115
1020.630	-2597
1020.700	-2523
1020.770	-2868
1020.839	-1651
1020.909	-2433
1020.979	-1683
1021.048	-2788
1021.118	-1604
1021.187	-1997
1021.257	-1861
1021.326	-2143
1021.396	-2161
1021.465	-1759
1021.535	-1888
1021.604	-2748
1021.674	-2049
1021.743	-1700
1021.812	-1842
1021.882	-2589
1021.951	-1261
1022.020	-2553
1022.089	-1129
1022.159	-2173
1022.228	-1779
1022.297	-2433
1022.366	-2574
1022.435	-2482
1022.504	-2457
1022.573	-2527
1022.642	-1791
1022.711	-2978
1022.781	-1641
1022.849	-2413
1022.918	-2576
1022.987	-2632
1023.056	-2827
1023.125	-2441
1023.194	-2140
1023.263	-2504
1023.331	-2174
1023.400	-3170
1023.469	-2407
1023.538	-1957
1023.606	-2326
1023.675	-2312
1023.744	-1756
1023.812	-2480
1023.881	-1707
1023.949	-2009
1024.018	-2304
1024.086	-2513
1024.155	-1709
1024.223	-3297
1024.292	-2654
1024.360	-2954
1024.429	-2214
1024.497	-2329
1024.565	-2298
1024.634	-2311
1024.702	-1872
1024.770	-1953
1024.838	-1545
1024.907	-2512
1024.975	-2767
1025.043	-1927
1025.111	-2060
1025.179	-2301
1025.247	-2489
1025.315	-2870
1025.383	-1431
1025.451	-2719
1025.519	-2942
1025.587	-2224
1025.655	-2402
1025.723	-2431
1025.791	-2471
1025.859	-1669
1025.927	-1937
1025.995	-3003
1026.062	-2332
1026.130	-2281
1026.198	-1833
1026.266	-2347
1026.333	-1388
1026.401	-1688
1026.469	-1758
1026.536	-2042
1026.604	-1918
1026.671	-3322
1026.739	-2364
1026.806	-2560
1026.874	-1784
1026.941	-2544
1027.009	-2994
1027.076	-2833
1027.144	-2437
1027.211	-1769
1027.278	-2867
1027.345	-1711
1027.413	-2188
1027.480	-2326
1027.547	-2233
1027.614	-2794
1027.682	-1394
1027.749	-2329
1027.816	-2661
1027.883	-2345
1027.950	-1999
1028.017	-2764
1028.084	-1984
1028.151	-2742
1028.218	-1602
1028.285	-2752
1028.352	-2134
1028.419	-2618
1028.486	-2062
1028.553	-2209
1028.619	-2353
1028.686	-1975
1028.753	-2584
1028.820	-2644
1028.886	-2689
1028.953	-2041
1029.020	-1416
1029.086	-2552
1029.153	-2478
1029.220	-2866
1029.286	-2417
1029.353	-3115
1029.419	-2170
1029.486	-2777
1029.552	-1809
1029.619	-2655
1029.685	-1832
1029.751	-2694
1029.818	-1708
1029.884	-2770
1029.951	-2336
1030.017	-2375
1030.083	-1637
1030.149	-3007
1030.216	-1901
1030.282	-1769
1030.348	-2526
1030.414	-2549
1030.480	-2064
1030.546	-2895
1030.612	-1969
1030.678	-2466
1030.744	-1875
1030.810	-3027
1030.876	-2260
1030.942	-2964
1031.008	-2278
1031.074	-2205
1031.140	-1925
1031.206	-2759
1031.272	-2323
1031.337	-2234
1031.403	-2502
1031.469	-2941
1031.534	-1479
1031.600	-2277
1031.666	-2040
1031.731	-2564
1031.797	-3005
1031.863	-1872
1031.928	-2365
1031.994	-2513
1032.059	-1810
1032.125	-2258
1032.190	-2204
1032.256	-2138
1032.321	-2884
1032.386	-2351
1032.452	-2423
1032.517	-2775
1032.582	-2757
1032.647	-3017
1032.713	-2134
1032.778	-2675
1032.843	-1807
1032.908	-1914
1032.974	-1831
1033.039	-2459
1033.104	-2669
1033.169	-2717
1033.234	-1964
1033.299	-1968
1033.364	-1501
1033.429	-1924
1033.494	-2368
1033.559	-2401
1033.624	-2941
1033.688	-2596
1033.753	-2000
1033.818	-2085
1033.883	-1285
1033.948	-1889
1034.013	-2602
1034.077	-1392
1034.142	-2379
1034.207	-2562
1034.271	-2040
1034.336	-3144
1034.400	-1528
1034.465	-2130
1034.530	-1615
1034.594	-2552
1034.658	-2781
1034.723	-2145
1034.787	-2908
1034.852	-2100
1034.916	-2738
1034.981	-2816
1035.045	-1773
1035.109	-2430
1035.173	-2407
1035.238	-2444
1035.302	-1371
1035.366	-2639
1035.430	-1595
1035.495	-3053
1035.559	-2344
1035.623	-3198
1035.687	-2896
1035.751	-1771
1035.815	-2304
1035.879	-2338
1035.943	-2493
1036.007	-3174
1036.071	-1915
1036.135	-2444
1036.198	-1702
1036.262	-2997
1036.326	-1863
1036.390	-2662
1036.454	-2137
1036.517	-2776
1036.581	-2643
1036.645	-2373
1036.709	-2453
1036.772	-2696
1036.836	-2113
1036.900	-2572
1036.963	-2023
1037.026	-2731
1037.090	-2213
1037.154	-2215
1037.217	-1714
1037.280	-2402
1037.344	-2154
1037.407	-1870
1037.471	-1947
1037.534	-2103
1037.597	-2362
1037.661	-2174
1037.724	-2307
1037.787	-2808
1037.850	-1886
1037.913	-2453
1037.977	-2237
1038.040	-2322
1038.103	-2215
1038.166	-2957
1038.229	-2188
1038.292	-2983
1038.355	-2705
1038.418	-2654
1038.481	-1767
1038.544	-3322
1038.607	-2063
1038.670	-2381
1038.732	-3135
1038.795	-2646
1038.858	-2307
1038.921	-2333
1038.984	-1628
1039.046	-2451
1039.109	-2460
1039.172	-2420
1039.234	-3122
1039.297	-2312
1039.360	-1577
1039.422	-1542
1039.485	-2288
1039.547	-2536
1039.610	-2222
1039.672	-2742
1039.734	-2200
1039.797	-1934
1039.859	-2138
1039.922	-2731
1039.984	-2353
1040.046	-2186
1040.109	-1689
1040.171	-2563
1040.233	-2614
1040.295	-2298
1040.358	-2366
1040.420	-2478
1040.482	-2817
1040.544	-2692
1040.606	-1449
1040.668	-3076
1040.730	-2765
1040.792	-1780
1040.854	-2138
1040.916	-2259
1040.978	-1988
1041.040	-2068
1041.102	-2146
1041.164	-2920
1041.225	-2078
1041.287	-2701
1041.349	-2231
1041.411	-2992
1041.472	-2544
1041.534	-2704
1041.596	-2528
1041.657	-2157
1041.719	-2385
1041.781	-2636
1041.842	-2199
1041.904	-2992
1041.965	-2783
1042.027	-2511
1042.088	-2067
1042.150	-2227
1042.211	-2510
1042.272	-3014
1042.334	-1740
1042.395	-2354
1042.456	-2733
1042.518	-2702
1042.579	-2700
1042.640	-2379
1042.701	-2197
1042.763	-3144
1042.824	-2135
1042.885	-2363
1042.946	-2512
1043.007	-2481
1043.068	-2795
1043.129	-2860
1043.190	-2556
1043.251	-1907
1043.312	-2385
1043.373	-2602
1043.434	-2569
1043.495	-3258
1043.556	-2469
1043.616	-2605
1043.677	-2957
1043.738	-2860
1043.799	-2593
1043.859	-2352
1043.920	-2518
1043.981	-2340
1044.041	-1703
1044.102	-2126
1044.162	-2434
1044.223	-2850
1044.284	-2462
1044.344	-2750
1044.405	-2188
1044.465	-2490
1044.525	-2391
1044.586	-2378
1044.646	-1751
1044.707	-2858
1044.767	-1646
1044.827	-3051
1044.887	-2787
1044.948	-2164
1045.008	-1831
1045.068	-2679
1045.128	-2770
1045.188	-3077
1045.249	-2350
1045.309	-2569
1045.369	-2297
1045.429	-2706
1045.489	-2532
1045.549	-2343
1045.609	-2130
1045.669	-2520
1045.729	-2080
1045.789	-2730
1045.848	-1945
1045.908	-2454
1045.968	-1775
1046.028	-2121
1046.088	-2378
1046.147	-3370
1046.207	-2569
1046.267	-2236
1046.326	-1858
1046.386	-1996
1046.446	-2296
1046.505	-2064
1046.565	-1197
1046.624	-1757
1046.684	-1634
1046.743	-1686
1046.803	-115
1046.862	-934
1046.922	0
