'Start Wavelength	183.907
'End Wavelength	1046.922
'Gate Delay	5.000
'Gate Width (ms)	1.050
'Laser Output Level	0.000
'X Position	0.000
'Y Position	0.000
'Z Position	0.000
'Grid Point Number	1.000
'Shot Number	100.000
183.907	301.000
183.977	-434.000
184.047	71
184.116	11
184.186	149
184.256	-410
184.325	-221
184.395	-267
184.465	566
184.534	-557
184.604	-575
184.674	-582
184.743	-570
184.813	-118
184.883	779
184.952	143
185.022	515
185.092	-107
185.161	50
185.231	10
185.301	-170
185.370	317
185.440	-520
185.509	-53
185.579	-426
185.649	-710
185.718	192
185.788	855
185.857	-265
185.927	-988
185.996	73
186.066	-936
186.136	-305
186.205	-192
186.275	950
186.344	-345
186.414	546
186.483	-389
186.553	438
186.622	398
186.692	-202
186.761	-945
186.831	710
186.900	-27
186.970	899
187.039	-463
187.109	784
187.178	-408
187.248	144
187.317	-9
187.387	-78
187.456	-246
187.526	-59
187.595	-613
187.664	-224
187.734	-345
187.803	-341
187.873	-380
187.942	-399
188.012	-441
188.081	144
188.150	-402
188.220	78
188.289	-45
188.358	-675
188.428	-105
188.497	-227
188.567	233
188.636	614
188.705	1
188.775	-388
188.844	-667
188.913	541
188.983	-258
189.052	497
189.121	99
189.191	369
189.260	312
189.329	-661
189.399	-432
189.468	-439
189.537	-240
189.606	-117
189.676	-23
189.745	-180
189.814	483
189.883	-296
189.953	-263
190.022	253
190.091	324
190.161	744
190.230	990
190.299	216
190.368	-569
190.437	-547
190.507	240
190.576	-555
190.645	98
190.714	-748
190.783	-477
190.853	603
190.922	-397
190.991	62
191.060	115
191.129	-786
191.198	-238
191.268	143
191.337	-1212
191.406	258
191.475	253
191.544	-189
191.613	-822
191.682	-294
191.752	-195
191.821	57
191.890	-559
191.959	482
192.028	-766
192.097	539
192.166	349
192.235	-173
192.304	38
192.373	216
192.442	-753
192.511	74
192.580	278
192.650	142
192.719	-480
192.788	581
192.857	244
192.926	-403
192.995	-570
193.064	270
193.133	232
193.202	844
193.271	66
193.340	1114
193.409	-5
193.478	660
193.547	-473
193.615	-503
193.684	1259
193.753	44
193.822	-445
193.891	0
193.960	-198
194.029	-621
194.098	270
194.167	224
194.236	302
194.305	216
194.374	-324
194.443	-198
194.512	-669
194.580	-177
194.649	421
194.718	25
194.787	356
194.856	143
194.925	737
194.994	-5
195.062	77
195.131	-115
195.200	335
195.269	964
195.338	-16
195.407	230
195.475	298
195.544	969
195.613	-714
195.682	67
195.751	69
195.819	-507
195.888	-560
195.957	1005
196.026	-547
196.094	536
196.163	-61
196.232	377
196.301	299
196.369	771
196.438	630
196.507	-224
196.576	198
196.644	521
196.713	112
196.782	-298
196.850	-641
196.919	-290
196.988	-150
197.056	-296
197.125	-730
197.194	558
197.262	-294
197.331	-54
197.400	671
197.468	157
197.537	-322
197.606	-321
197.674	422
197.743	1363
197.812	-39
197.880	805
197.949	-245
198.017	374
198.086	399
198.155	204
198.223	752
198.292	97
198.360	102
198.429	491
198.497	-78
198.566	26
198.635	566
198.703	657
198.772	-388
198.840	977
198.909	119
198.977	-366
199.046	-612
199.114	-385
199.183	-3
199.251	-68
199.320	-648
199.388	-154
199.457	-282
199.525	-50
199.594	-124
199.662	-292
199.731	792
199.799	649
199.867	430
199.936	206
200.004	-335
200.073	813
200.141	-395
200.210	-488
200.278	-364
200.346	-248
200.415	6
200.483	449
200.552	311
200.620	-319
200.688	-65
200.757	9
200.825	71
200.893	-508
200.962	-314
201.030	-13
201.098	-322
201.167	-35
201.235	672
201.303	-86
201.372	778
201.440	151
201.508	110
201.577	54
201.645	355
201.713	312
201.781	-369
201.850	394
201.918	350
201.986	648
202.055	265
202.123	-116
202.191	680
202.259	575
202.327	-176
202.396	612
202.464	203
202.532	391
202.600	-380
202.669	312
202.737	643
202.805	-481
202.873	-207
202.941	1124
203.009	-498
203.078	15
203.146	-64
203.214	353
203.282	-471
203.350	914
203.418	-150
203.487	182
203.555	-283
203.623	501
203.691	-384
203.759	-137
203.827	-672
203.895	189
203.963	-84
204.031	-484
204.099	212
204.168	166
204.236	148
204.304	476
204.372	19
204.440	854
204.508	-465
204.576	-747
204.644	-714
204.712	-128
204.780	-224
204.848	55
204.916	-25
204.984	-64
205.052	-441
205.120	8
205.188	-954
205.256	-341
205.324	-439
205.392	20
205.460	371
205.528	63
205.596	665
205.664	37
205.732	694
205.799	241
205.867	1221
205.935	-523
206.003	239
206.071	243
206.139	170
206.207	200
206.275	-485
206.343	286
206.411	-283
206.478	87
206.546	40
206.614	246
206.682	356
206.750	-475
206.818	-57
206.885	263
206.953	-922
207.021	829
207.089	-383
207.157	-591
207.225	49
207.292	385
207.360	248
207.428	-426
207.496	224
207.563	-337
207.631	-121
207.699	696
207.767	158
207.834	509
207.902	-171
207.970	303
208.038	-794
208.105	-404
208.173	-599
208.241	558
208.309	373
208.376	36
208.444	507
208.512	105
208.579	-658
208.647	354
208.715	668
208.782	-103
208.850	171
208.918	390
208.985	547
209.053	182
209.120	449
209.188	19
209.256	-127
209.323	-213
209.391	295
209.459	912
209.526	413
209.594	506
209.661	-372
209.729	395
209.796	529
209.864	-270
209.932	-1421
209.999	937
210.067	126
210.134	314
210.202	571
210.269	642
210.337	-595
210.404	617
210.472	636
210.539	540
210.607	-653
210.674	287
210.742	769
210.809	-19
210.877	364
210.944	1098
211.012	-206
211.079	1626
211.146	432
211.214	303
211.281	237
211.349	97
211.416	46
211.484	141
211.551	-196
211.618	528
211.686	1116
211.753	333
211.821	303
211.888	-137
211.955	390
212.023	586
212.090	82
212.157	808
212.225	129
212.292	1361
212.359	2017
212.427	4500
212.494	1823
212.561	1313
212.629	636
212.696	1080
212.763	555
212.831	712
212.898	287
212.965	667
213.032	499
213.100	507
213.167	453
213.234	650
213.301	655
213.369	726
213.436	-15
213.503	316
213.570	677
213.638	561
213.705	253
213.772	-142
213.839	789
213.906	926
213.973	1108
214.041	-63
214.108	504
214.175	976
214.242	-244
214.309	421
214.376	343
214.444	835
214.511	757
214.578	1015
214.645	528
214.712	-434
214.779	-22
214.846	394
214.913	1177
214.980	1208
215.048	1751
215.115	717
215.182	627
215.249	926
215.316	-100
215.383	912
215.450	488
215.517	-55
215.584	180
215.651	375
215.718	249
215.785	-4
215.852	535
215.919	818
215.986	48
216.053	-153
216.120	331
216.187	572
216.254	305
216.321	-77
216.388	601
216.455	395
216.522	441
216.589	321
216.656	1483
216.722	766
216.789	997
216.856	1358
216.923	966
216.990	952
217.057	498
217.124	90
217.191	540
217.258	1193
217.324	1092
217.391	1736
217.458	1182
217.525	635
217.592	233
217.659	-433
217.725	868
217.792	997
217.859	955
217.926	-131
217.993	12
218.059	927
218.126	-88
218.193	184
218.260	-554
218.327	478
218.393	516
218.460	68
218.527	432
218.594	649
218.660	620
218.727	1344
218.794	230
218.860	593
218.927	235
218.994	738
219.061	-85
219.127	1032
219.194	825
219.261	573
219.327	-122
219.394	302
219.461	-163
219.527	663
219.594	813
219.661	189
219.727	-519
219.794	869
219.860	-210
219.927	79
219.994	116
220.060	1382
220.127	472
220.193	1323
220.260	1157
220.326	2486
220.393	1421
220.460	2355
220.526	1170
220.593	958
220.659	1717
220.726	1017
220.792	2830
220.859	2400
220.925	2976
220.992	4402
221.058	3941
221.125	3271
221.191	2248
221.258	29
221.324	683
221.391	663
221.457	1051
221.524	1483
221.590	1167
221.657	3536
221.723	2249
221.789	1571
221.856	1110
221.922	-21
221.989	940
222.055	-56
222.121	-102
222.188	942
222.254	138
222.321	470
222.387	67
222.453	209
222.520	1041
222.586	76
222.652	1436
222.719	-269
222.785	778
222.851	80
222.918	-644
222.984	205
223.050	-190
223.116	-368
223.183	740
223.249	-503
223.315	274
223.382	219
223.448	209
223.514	-31
223.580	491
223.647	561
223.713	-68
223.779	57
223.845	-239
223.911	414
223.978	-335
224.044	526
224.110	-355
224.176	881
224.242	286
224.309	145
224.375	719
224.441	282
224.507	-286
224.573	247
224.639	607
224.705	-854
224.772	242
224.838	364
224.904	620
224.970	-432
225.036	404
225.102	-405
225.168	573
225.234	751
225.300	-106
225.366	-299
225.432	584
225.499	542
225.565	-115
225.631	1071
225.697	-300
225.763	893
225.829	682
225.895	1397
225.961	849
226.027	1331
226.093	5
226.159	1167
226.225	2201
226.291	4284
226.357	6550
226.423	3471
226.489	2208
226.554	1166
226.620	561
226.686	580
226.752	2211
226.818	3353
226.884	8993
226.950	7817
227.016	3170
227.082	1328
227.148	1926
227.214	1381
227.279	165
227.345	492
227.411	642
227.477	582
227.543	1510
227.609	583
227.674	24
227.740	626
227.806	121
227.872	31
227.938	4
228.003	695
228.069	156
228.135	441
228.201	365
228.267	37
228.332	89
228.398	-557
228.464	533
228.530	114
228.595	279
228.661	-220
228.727	-135
228.792	741
228.858	301
228.924	-676
228.990	1784
229.055	-12
229.121	88
229.187	687
229.252	-176
229.318	-8
229.384	50
229.449	1209
229.515	-1353
229.581	-820
229.646	1308
229.712	-268
229.777	636
229.843	-3
229.909	1244
229.974	1662
230.040	684
230.105	206
230.171	169
230.236	1715
230.302	1109
230.368	642
230.433	219
230.499	808
230.564	1170
230.630	248
230.695	916
230.761	1427
230.826	-887
230.892	2208
230.957	-933
231.023	223
231.088	1057
231.154	222
231.219	682
231.284	194
231.350	1446
231.415	-293
231.481	-103
231.546	513
231.612	761
231.677	374
231.742	-559
231.808	528
231.873	-884
231.939	-774
232.004	1348
232.069	904
232.135	104
232.200	-458
232.265	-41
232.331	-343
232.396	-648
232.461	-623
232.527	177
232.592	-716
232.657	3
232.723	-18
232.788	432
232.853	248
232.918	157
232.984	-562
233.049	158
233.114	-600
233.179	650
233.245	1782
233.310	1374
233.375	-676
233.440	354
233.506	59
233.571	-394
233.636	279
233.701	-717
233.766	518
233.832	1000
233.897	-341
233.962	-1570
234.027	1083
234.092	560
234.157	420
234.222	-320
234.288	626
234.353	1949
234.418	2459
234.483	1548
234.548	1440
234.613	222
234.678	815
234.743	676
234.808	3653
234.873	58
234.938	1426
235.004	818
235.069	1070
235.134	-376
235.199	811
235.264	401
235.329	-905
235.394	1170
235.459	1466
235.524	-375
235.589	691
235.654	-271
235.719	-289
235.784	591
235.849	818
235.913	472
235.978	1354
236.043	2019
236.108	172
236.173	106
236.238	508
236.303	-295
236.368	741
236.433	1243
236.498	1629
236.563	1132
236.627	2756
236.692	10401
236.757	8938
236.822	3287
236.887	1764
236.952	2340
237.017	706
237.081	1781
237.146	1471
237.211	4372
237.276	10298
237.341	15535
237.405	7280
237.470	3215
237.535	2709
237.600	1810
237.664	1940
237.729	983
237.794	948
237.859	3851
237.923	2093
237.988	737
238.053	2368
238.118	862
238.182	3993
238.247	4243
238.312	762
238.376	1210
238.441	-492
238.506	1867
238.570	-512
238.635	1296
238.700	320
238.764	250
238.829	971
238.893	2213
238.958	1033
239.023	162
239.087	540
239.152	626
239.216	-51
239.281	827
239.346	395
239.410	509
239.475	434
239.539	4263
239.604	1967
239.668	1705
239.733	-221
239.797	-167
239.862	2190
239.926	2889
239.991	699
240.055	-108
240.120	402
240.184	-142
240.249	176
240.313	-225
240.378	-532
240.442	1653
240.507	3686
240.571	431
240.635	1492
240.700	1611
240.764	614
240.829	162
240.893	224
240.957	456
241.022	1471
241.086	3879
241.151	417
241.215	-484
241.279	936
241.344	388
241.408	279
241.472	848
241.537	1694
241.601	955
241.665	59
241.730	-143
241.794	1311
241.858	209
241.922	470
241.987	847
242.051	808
242.115	-337
242.179	-48
242.244	-590
242.308	1116
242.372	1244
242.436	60
242.501	231
242.565	-190
242.629	-293
242.693	1180
242.757	-255
242.822	-18
242.886	488
242.950	741
243.014	-654
243.078	918
243.142	3
243.206	65
243.271	602
243.335	82
243.399	1056
243.463	5088
243.527	15365
243.591	4002
243.655	2104
243.719	260
243.783	1158
243.847	1751
243.911	2131
243.975	1503
244.040	671
244.104	1894
244.168	329
244.232	622
244.296	798
244.360	2501
244.424	370
244.488	479
244.552	514
244.615	-86
244.679	282
244.743	1032
244.807	-539
244.871	773
244.935	721
244.999	-859
245.063	-188
245.127	1020
245.191	1266
245.255	776
245.319	1231
245.383	-426
245.446	918
245.510	-648
245.574	-90
245.638	554
245.702	-988
245.766	1947
245.829	1384
245.893	-202
245.957	-101
246.021	965
246.085	-353
246.149	863
246.212	3037
246.276	3372
246.340	743
246.404	1405
246.467	1923
246.531	546
246.595	1807
246.659	1135
246.722	-647
246.786	819
246.850	1030
246.913	1882
246.977	-504
247.041	821
247.104	646
247.168	1544
247.232	2336
247.295	5415
247.359	1984
247.423	506
247.486	2205
247.550	1255
247.614	194
247.677	714
247.741	-14
247.804	743
247.868	1991
247.932	1716
247.995	5136
248.059	685
248.122	-295
248.186	1697
248.249	1401
248.313	8502
248.376	8623
248.440	4152
248.503	1120
248.567	2575
248.630	1401
248.694	3234
248.757	5148
248.821	9299
248.884	5438
248.948	4664
249.011	6552
249.075	10836
249.138	8691
249.202	3908
249.265	1709
249.328	3245
249.392	1329
249.455	1831
249.519	1799
249.582	930
249.645	2766
249.709	1594
249.772	1628
249.835	1156
249.899	1828
249.962	1733
250.025	917
250.089	3601
250.152	4313
250.215	2403
250.279	594
250.342	2487
250.405	2179
250.468	1765
250.532	1639
250.595	4187
250.658	14537
250.721	25189
250.785	7605
250.848	4687
250.911	1702
250.974	2568
251.038	2825
251.101	5740
251.164	2064
251.227	3149
251.290	1978
251.354	5076
251.417	21115
251.480	20448
251.543	14414
251.606	39713
251.669	27211
251.732	11085
251.795	9272
251.859	10822
251.922	24304
251.985	13527
252.048	5398
252.111	2739
252.174	2790
252.237	4953
252.300	11389
252.363	12450
252.426	30212
252.489	11111
252.552	5878
252.615	3079
252.678	4390
252.741	9179
252.804	12280
252.867	30471
252.930	15174
252.993	8353
253.056	4735
253.119	2894
253.182	1991
253.245	4530
253.308	3949
253.371	1774
253.434	2040
253.497	2986
253.559	5675
253.622	2898
253.685	2778
253.748	3301
253.811	921
253.874	2687
253.937	694
254.000	1804
254.062	3121
254.125	4986
254.188	5343
254.251	3660
254.314	855
254.376	3064
254.439	3504
254.502	2833
254.565	2028
254.628	5840
254.690	3199
254.753	850
254.816	844
254.878	1356
254.941	3395
255.004	3613
255.067	498
255.129	699
255.192	297
255.255	-84
255.317	229
255.380	-14
255.443	-284
255.505	-235
255.568	93
255.631	28
255.693	-383
255.756	-386
255.819	872
255.881	-33
255.944	-80
256.006	-71
256.069	28
256.132	-335
256.194	348
256.257	2296
256.319	1751
256.382	988
256.444	1518
256.507	621
256.569	-218
256.632	825
256.694	434
256.757	5996
256.819	17114
256.882	5235
256.944	1745
257.007	2657
257.069	1620
257.132	966
257.194	1518
257.257	489
257.319	-162
257.381	-100
257.444	4881
257.506	19504
257.569	21085
257.631	6527
257.693	3334
257.756	2215
257.818	1084
257.880	1067
257.943	1934
258.005	-58
258.067	-145
258.130	605
258.192	99
258.254	1654
258.317	521
258.379	1824
258.441	1867
258.503	2766
258.566	3721
258.628	5254
258.690	-178
258.753	1521
258.815	1726
258.877	197
258.939	777
259.001	1497
259.064	46
259.126	249
259.188	447
259.250	1210
259.312	123
259.375	1631
259.437	1102
259.499	-4
259.561	-187
259.623	728
259.685	138
259.747	770
259.809	3033
259.872	6610
259.934	11661
259.996	9788
260.058	2964
260.120	631
260.182	864
260.244	262
260.306	-404
260.368	390
260.430	-699
260.492	1585
260.554	3914
260.616	1563
260.678	4080
260.740	6687
260.802	1186
260.864	890
260.926	-390
260.988	1869
261.050	196
261.112	2684
261.174	9413
261.236	6015
261.298	551
261.359	2392
261.421	3862
261.483	331
261.545	668
261.607	-603
261.669	107
261.731	795
261.793	3993
261.854	1014
261.916	1638
261.978	25
262.040	691
262.102	694
262.164	519
262.225	761
262.287	-469
262.349	1042
262.411	682
262.472	1305
262.534	696
262.596	3288
262.658	1815
262.719	-212
262.781	871
262.843	2283
262.904	992
262.966	1002
263.028	414
263.090	8718
263.151	23558
263.213	6900
263.275	2309
263.336	817
263.398	1245
263.459	-273
263.521	-404
263.583	1787
263.644	1273
263.706	200
263.767	-755
263.829	267
263.891	-50
263.952	-263
264.014	-60
264.075	421
264.137	2931
264.198	1629
264.260	-528
264.321	-116
264.383	755
264.444	5903
264.506	532
264.567	847
264.629	2135
264.690	4144
264.752	1759
264.813	137
264.875	-417
264.936	1817
264.998	-452
265.059	-545
265.120	540
265.182	943
265.243	9248
265.305	9045
265.366	685
265.427	576
265.489	204
265.550	-780
265.611	161
265.673	-950
265.734	-324
265.795	622
265.857	-544
265.918	-699
265.979	2002
266.040	14919
266.102	11348
266.163	3435
266.224	1287
266.286	899
266.347	-219
266.408	-279
266.469	323
266.530	-200
266.592	-147
266.653	880
266.714	840
266.775	-355
266.836	-23
266.898	-644
266.959	-109
267.020	279
267.081	726
267.142	526
267.203	-662
267.264	-1152
267.326	418
267.387	-46
267.448	-1097
267.509	422
267.570	-728
267.631	114
267.692	-1006
267.753	405
267.814	-1164
267.875	284
267.936	2750
267.997	2066
268.058	788
268.119	219
268.180	-527
268.241	-813
268.302	-708
268.363	-1297
268.424	-356
268.485	-642
268.546	-841
268.607	-463
268.668	-1074
268.729	-707
268.790	-283
268.851	199
268.912	1276
268.972	1006
269.033	324
269.094	-258
269.155	-284
269.216	-329
269.277	-277
269.338	509
269.398	-578
269.459	-1156
269.520	485
269.581	-286
269.642	535
269.702	-85
269.763	-41
269.824	-783
269.885	76
269.945	744
270.006	-786
270.067	-415
270.128	-22
270.188	-386
270.249	-919
270.310	-62
270.370	-871
270.431	-219
270.492	-1392
270.553	-42
270.613	397
270.674	2532
270.734	477
270.795	-746
270.856	512
270.916	-361
270.977	-155
271.038	611
271.098	-551
271.159	699
271.219	77
271.280	-96
271.340	127
271.401	-398
271.462	376
271.522	557
271.583	-36
271.643	-117
271.704	-659
271.764	-307
271.825	1306
271.885	7572
271.946	10610
272.006	2751
272.066	3637
272.127	9442
272.187	1382
272.248	311
272.308	989
272.369	5680
272.429	2996
272.489	1917
272.550	1630
272.610	2218
272.671	630
272.731	1168
272.791	1444
272.852	45
272.912	-226
272.972	-374
273.033	-368
273.093	50
273.153	1169
273.214	286
273.274	121
273.334	4364
273.394	8167
273.455	1671
273.515	1567
273.575	7123
273.635	2405
273.696	2659
273.756	7055
273.816	1911
273.876	848
273.936	2847
273.997	7291
274.057	-471
274.117	90
274.177	1492
274.237	9912
274.297	8939
274.358	4891
274.418	5783
274.478	4103
274.538	675
274.598	-243
274.658	4866
274.718	6173
274.778	2105
274.838	57
274.898	2065
274.958	8984
275.018	8279
275.078	4280
275.138	1319
275.198	-203
275.258	-223
275.318	-18
275.378	1258
275.438	949
275.498	380
275.558	3043
275.618	9350
275.678	4797
275.738	2318
275.798	1876
275.858	271
275.918	42
275.978	1128
276.038	-318
276.098	-409
276.157	805
276.217	5061
276.277	1189
276.337	305
276.397	-671
276.457	682
276.517	-110
276.576	-142
276.636	-463
276.696	442
276.756	2318
276.815	1283
276.875	-477
276.935	-562
276.995	-623
277.055	-64
277.114	122
277.174	699
277.234	3910
277.293	845
277.353	-131
277.413	308
277.472	367
277.532	-176
277.592	-172
277.651	1359
277.711	2284
277.771	684
277.830	4909
277.890	4144
277.950	2649
278.009	9495
278.069	2528
278.128	2113
278.188	2973
278.248	1019
278.307	3282
278.367	2366
278.426	14
278.486	-439
278.545	-810
278.605	716
278.664	-606
278.724	-123
278.783	3062
278.843	8944
278.902	1580
278.962	865
279.021	180
279.081	761
279.140	1058
279.199	575
279.259	1009
279.318	903
279.378	1082
279.437	2719
279.496	10806
279.556	40700
279.615	28891
279.675	6364
279.734	3589
279.793	5030
279.853	7710
279.912	2885
279.971	869
280.031	730
280.090	2270
280.149	5401
280.208	3961
280.268	27670
280.327	26580
280.386	5014
280.445	2933
280.505	3224
280.564	1448
280.623	1390
280.682	1553
280.742	3309
280.801	431
280.860	-375
280.919	-56
280.978	299
281.037	-585
281.097	-46
281.156	108
281.215	-237
281.274	45
281.333	5619
281.392	3779
281.451	-57
281.510	-471
281.569	-935
281.628	-127
281.688	202
281.747	-269
281.806	-877
281.865	-310
281.924	-48
281.983	479
282.042	-542
282.101	-787
282.160	-403
282.219	-411
282.278	-763
282.337	2218
282.396	1003
282.454	-893
282.513	-49
282.572	3897
282.631	2848
282.690	78
282.749	-741
282.808	-114
282.867	-11
282.926	-650
282.985	-582
283.043	-1020
283.102	-153
283.161	-608
283.220	1206
283.279	5164
283.338	753
283.396	-205
283.455	141
283.514	-307
283.573	877
283.631	595
283.690	-227
283.749	-374
283.808	1106
283.866	1600
283.925	-764
283.984	-285
284.043	251
284.101	-160
284.160	-668
284.219	477
284.277	265
284.336	533
284.395	6290
284.453	4574
284.512	659
284.570	875
284.629	512
284.688	-59
284.746	14
284.805	-88
284.863	907
284.922	1236
284.981	997
285.039	1635
285.098	4198
285.156	15517
285.215	49875
285.273	47633
285.332	22234
285.390	10068
285.449	5088
285.507	3412
285.566	1946
285.624	1227
285.683	1086
285.741	7
285.799	51
285.858	-73
285.916	-47
285.975	-254
286.033	-628
286.091	-1142
286.150	-1109
286.208	-676
286.267	-588
286.325	-690
286.383	383
286.442	188
286.500	-101
286.558	-1071
286.616	-606
286.675	883
286.733	236
286.791	166
286.850	619
286.908	-407
286.966	1339
287.024	-367
287.083	79
287.141	-817
287.199	177
287.257	17
287.315	-112
287.374	-367
287.432	2010
287.490	1658
287.548	-717
287.606	221
287.664	-360
287.723	466
287.781	1148
287.839	428
287.897	595
287.955	886
288.013	2318
288.071	8012
288.129	35299
288.187	95059
288.245	43834
288.303	12302
288.361	6467
288.419	4628
288.477	2755
288.535	1530
288.593	1040
288.651	380
288.709	-290
288.767	14
288.825	-55
288.883	149
288.941	-7
288.999	-775
289.057	440
289.115	-414
289.173	-24
289.231	-808
289.289	-505
289.346	-187
289.404	-152
289.462	79
289.520	901
289.578	3
289.636	-509
289.694	-678
289.751	-1156
289.809	-365
289.867	-667
289.925	-21
289.983	183
290.040	260
290.098	534
290.156	-539
290.214	-400
290.271	-178
290.329	-40
290.387	-865
290.444	-740
290.502	-824
290.560	-712
290.617	49
290.675	-741
290.733	-872
290.790	-443
290.848	-501
290.906	-677
290.963	-591
291.021	-758
291.078	-1228
291.136	-592
291.194	1971
291.251	6423
291.309	1433
291.366	-316
291.424	-868
291.481	-471
291.539	-860
291.596	0
291.654	-937
291.711	-1273
291.769	-904
291.826	184
291.884	-621
291.941	-362
291.999	-450
292.056	-205
292.114	-658
292.171	-856
292.228	-400
292.286	-122
292.343	749
292.401	702
292.458	-125
292.515	-152
292.573	3
292.630	-460
292.687	-399
292.745	-539
292.802	-42
292.859	3697
292.917	5914
292.974	3012
293.031	280
293.089	-632
293.146	-32
293.203	-671
293.260	-480
293.318	-353
293.375	80
293.432	-223
293.489	-449
293.546	-575
293.604	339
293.661	2325
293.718	10413
293.775	5462
293.832	725
293.889	1214
293.947	-255
294.004	9
294.061	-190
294.118	1863
294.175	7091
294.232	9807
294.289	2879
294.346	827
294.403	978
294.460	616
294.517	260
294.574	-546
294.631	457
294.688	736
294.745	2632
294.802	12780
294.859	15798
294.916	5385
294.973	1480
295.030	786
295.087	646
295.144	-162
295.201	425
295.258	363
295.315	598
295.372	3913
295.429	9118
295.486	3424
295.542	2116
295.599	7113
295.656	12883
295.713	7062
295.770	8575
295.827	2833
295.883	607
295.940	741
295.997	1560
296.054	1372
296.111	50
296.167	146
296.224	-34
296.281	-359
296.338	-959
296.394	-699
296.451	-269
296.508	3300
296.564	6866
296.621	4903
296.678	9965
296.734	14855
296.791	4987
296.848	1918
296.904	1619
296.961	4839
297.018	9384
297.074	8337
297.131	2749
297.187	1493
297.244	1861
297.301	9788
297.357	19317
297.414	6733
297.470	1742
297.527	1216
297.583	-69
297.640	272
297.696	-328
297.753	-180
297.809	-465
297.866	93
297.922	-245
297.979	-610
298.035	-662
298.092	564
298.148	4506
298.204	5219
298.261	1476
298.317	3797
298.374	12638
298.430	6834
298.486	2840
298.543	1206
298.599	926
298.656	1709
298.712	3632
298.768	11066
298.824	9416
298.881	1553
298.937	794
298.993	762
299.050	225
299.106	898
299.162	167
299.218	182
299.275	197
299.331	246
299.387	1544
299.443	10796
299.500	10724
299.556	4092
299.612	819
299.668	467
299.724	125
299.780	1303
299.837	-178
299.893	1262
299.949	8686
300.005	10263
300.061	8391
300.117	15976
300.173	6934
300.229	2639
300.285	2358
300.341	3379
300.397	1171
300.453	-96
300.510	-283
300.566	-336
300.622	-476
300.678	2902
300.734	6742
300.790	8649
300.845	10675
300.901	6134
300.957	7337
301.013	6487
301.069	1923
301.125	988
301.181	1145
301.237	522
301.293	-805
301.349	-31
301.405	-479
301.461	101
301.516	844
301.572	34
301.628	1150
301.684	919
301.740	2584
301.796	5882
301.851	3892
301.907	5780
301.963	6654
302.019	11502
302.074	32473
302.130	33221
302.186	15688
302.242	5187
302.297	3307
302.353	2814
302.409	6478
302.464	5918
302.520	4283
302.576	10377
302.631	13357
302.687	7101
302.743	2593
302.798	1188
302.854	-377
302.910	1310
302.965	962
303.021	3101
303.076	3381
303.132	2323
303.187	3936
303.243	1761
303.299	1461
303.354	92
303.410	394
303.465	105
303.521	260
303.576	515
303.632	423
303.687	2472
303.743	10901
303.798	9850
303.853	3005
303.909	847
303.964	180
304.020	1174
304.075	3042
304.130	2776
304.186	5112
304.241	6819
304.297	3729
304.352	2430
304.358	2225
304.407	561
304.449	451
304.463	419
304.518	-179
304.539	153
304.573	679
304.629	1413
304.630	1434
304.684	2430
304.720	5454
304.739	6983
304.794	12528
304.811	10474
304.850	5518
304.902	2797
304.905	2626
304.960	769
304.992	950
305.015	1086
305.071	643
305.083	585
305.126	369
305.173	352
305.181	359
305.236	33
305.264	-105
305.292	-278
305.347	584
305.354	583
305.402	658
305.445	1018
305.457	1090
305.512	1060
305.535	1431
305.567	2019
305.622	1579
305.626	1647
305.678	3280
305.716	8295
305.733	10217
305.788	13202
305.807	11649
305.843	8843
305.897	10927
305.898	10945
305.953	11165
305.988	7668
306.008	5733
306.063	2660
306.078	2167
306.118	1145
306.168	731
306.173	682
306.228	773
306.259	405
306.283	192
306.338	595
306.349	513
306.393	103
306.440	611
306.448	747
306.503	1291
306.530	1612
306.558	2322
306.613	4324
306.620	4921
306.668	8318
306.711	10291
306.723	10446
306.778	8298
306.801	6224
306.833	3979
306.888	1735
306.892	1636
306.943	685
306.982	932
306.997	1070
307.052	701
307.072	1015
307.107	1748
307.162	1959
307.163	1973
307.217	4000
307.253	4832
307.272	4786
307.327	4949
307.343	4521
307.381	3576
307.434	2595
307.436	2687
307.491	6119
307.524	9961
307.546	10966
307.600	10081
307.614	8981
307.655	5714
307.704	2561
307.710	2432
307.765	2943
307.795	3938
307.819	5092
307.874	9477
307.885	9653
307.929	7742
307.975	5360
307.984	5345
308.038	7244
308.065	9407
308.093	15571
308.148	31617
308.156	35955
308.202	59958
308.246	74540
308.257	73487
308.312	42943
308.336	30623
308.366	22438
308.421	13618
308.426	12962
308.475	8117
308.517	5959
308.530	5474
308.585	4207
308.607	3871
308.639	4014
308.694	4364
308.697	4437
308.748	8410
308.787	12478
308.803	12341
308.857	9341
308.877	7813
308.912	6546
308.967	5598
308.967	5593
309.021	6750
309.058	8246
309.076	10385
309.130	18996
309.148	22890
309.185	42407
309.238	77628
309.239	77885
309.293	89577
309.328	83585
309.348	73212
309.402	35846
309.418	26927
309.457	17687
309.508	10160
309.511	9853
309.566	7531
309.598	6573
309.620	6438
309.674	6488
309.688	6630
309.729	6285
309.778	5603
309.783	5536
309.837	4368
309.868	4051
309.892	5061
309.946	8258
309.959	9324
310.001	13008
310.049	16428
310.055	15974
310.109	10023
310.139	6348
310.163	4991
310.218	2898
310.229	2663
310.272	2549
310.319	2123
310.326	2005
310.381	1715
310.409	1543
310.435	1605
310.489	1516
310.499	1540
310.543	1586
310.589	1462
310.598	1485
310.652	1846
310.679	1977
310.706	1864
310.760	1497
310.769	1455
310.814	1695
310.859	1853
310.868	1736
310.923	1088
310.948	806
310.977	1135
311.031	1810
311.038	1889
311.085	1631
311.128	1304
311.139	1379
311.193	1775
311.218	1931
311.247	1807
311.301	1664
311.308	1652
311.356	1785
311.398	1739
311.410	1604
311.464	945
311.488	659
311.518	767
311.572	947
311.578	971
311.626	1601
311.668	2122
311.680	2208
311.734	2545
311.758	2690
311.788	2566
311.842	2288
311.847	2257
311.896	3541
311.937	4666
311.950	4631
312.004	4405
312.027	4285
312.058	3626
312.112	2448
312.117	2329
312.165	2206
312.207	2102
312.297	3295
312.386	3047
312.476	2120
312.566	3415
312.656	2552
312.745	907
312.835	2031
312.925	2132
313.015	1215
313.104	2470
313.194	1201
313.284	1783
313.374	2430
313.463	2274
313.553	2091
313.643	2071
313.732	1524
313.822	1458
313.912	1565
314.001	2682
314.091	2751
314.180	3392
314.270	3312
314.360	2653
314.449	2198
314.539	1327
314.628	1341
314.718	1266
314.808	3000
314.897	1539
314.987	1280
315.076	942
315.166	2025
315.255	3051
315.345	2768
315.434	2800
315.524	2352
315.613	1832
315.703	2150
315.792	3090
315.881	4722
315.971	2897
316.060	4739
316.150	7764
316.239	8282
316.328	3243
316.418	2256
316.507	1192
316.597	2488
316.686	2365
316.775	3175
316.865	9831
316.954	2448
317.043	629
317.133	1028
317.222	974
317.311	1388
317.400	534
317.490	2267
317.579	2021
317.668	1470
317.757	1849
317.847	4050
317.936	7550
318.025	5135
318.114	2485
318.203	1685
318.293	3481
318.382	6268
318.471	4713
318.560	7809
318.649	24674
318.738	5429
318.828	2408
318.917	3105
319.006	3247
319.095	9355
319.184	28701
319.273	13161
319.362	4453
319.451	1265
319.540	1306
319.629	3524
319.718	5681
319.807	3437
319.896	7605
319.985	33008
320.074	10762
320.163	3263
320.252	5237
320.341	4813
320.430	4897
320.519	3312
320.608	2009
320.697	1690
320.786	2128
320.875	2487
320.964	2495
321.053	3929
321.142	4741
321.230	6150
321.319	4769
321.408	11798
321.497	5590
321.586	5203
321.675	7393
321.764	7819
321.852	5288
321.941	6921
322.030	4506
322.119	5416
322.207	11776
322.296	13163
322.385	6463
322.474	5251
322.562	12335
322.651	8067
322.740	4803
322.829	7730
322.917	10816
323.006	5275
323.095	4417
323.183	3489
323.272	5337
323.361	9769
323.449	33723
323.538	12680
323.626	23376
323.715	15559
323.804	5434
323.892	21252
323.981	10202
324.069	3802
324.158	11512
324.246	12021
324.335	3130
324.424	4603
324.512	2059
324.601	2046
324.689	4559
324.778	8747
324.866	7588
324.954	2284
325.043	2230
325.131	4443
325.220	9821
325.308	11728
325.397	7241
325.485	4933
325.574	1296
325.662	1248
325.750	1151
325.839	1598
325.927	926
326.015	2342
326.104	4307
326.192	5785
326.280	1741
326.369	1523
326.457	2515
326.545	3688
326.634	1389
326.722	1380
326.810	1669
326.898	1615
326.987	586
327.075	2949
327.163	4744
327.251	2574
327.340	3661
327.428	4974
327.516	1089
327.604	1417
327.692	1817
327.781	2310
327.869	3899
327.957	2415
328.045	1108
328.133	1857
328.221	1430
328.309	1756
328.397	1453
328.485	1257
328.574	2009
328.662	6037
328.750	4374
328.838	2676
328.926	1845
329.014	2190
329.102	2086
329.190	7410
329.278	4077
329.366	1838
329.454	1092
329.542	1154
329.630	1476
329.718	1427
329.806	1915
329.893	1978
329.981	2439
330.069	5430
330.157	18892
330.245	50510
330.333	28501
330.421	5727
330.509	3216
330.597	7768
330.684	5118
330.772	3309
330.860	5269
330.948	7864
331.036	2119
331.123	1013
331.211	1716
331.299	2482
331.387	5421
331.475	10315
331.562	2805
331.650	1079
331.738	2008
331.825	3046
331.913	685
332.001	553
332.089	1497
332.176	5593
332.264	12056
332.352	9217
332.439	2043
332.527	1837
332.614	1104
332.702	2971
332.790	1002
332.877	4640
332.965	10925
333.052	2230
333.140	2021
333.228	2959
333.315	745
333.403	2043
333.490	6422
333.578	4614
333.665	2056
333.753	2389
333.840	955
333.928	2471
334.015	6558
334.103	10884
334.190	36706
334.278	9936
334.365	2755
334.452	2199
334.540	928
334.627	1788
334.715	2900
334.802	6384
334.889	38341
334.977	41104
335.064	4346
335.151	2210
335.239	2558
335.326	3294
335.413	16464
335.501	25693
335.588	2596
335.675	2173
335.762	2048
335.850	5647
335.937	2686
336.024	8959
336.111	42434
336.199	17294
336.286	2266
336.373	1435
336.460	771
336.547	1105
336.635	1510
336.722	1356
336.809	1424
336.896	1984
336.983	9381
337.070	26637
337.157	38319
337.245	28574
337.332	20395
337.419	2793
337.506	1357
337.593	2407
337.680	8618
337.767	29505
337.854	7770
337.941	8853
338.028	9672
338.115	3194
338.202	4422
338.289	6549
338.376	26748
338.463	9005
338.550	15662
338.637	17995
338.724	5194
338.811	9478
338.898	1790
338.984	839
339.071	1380
339.158	1921
339.245	3885
339.332	2872
339.419	5748
339.506	6114
339.593	64
339.679	916
339.766	866
339.853	1297
339.940	2510
340.027	1040
340.113	506
340.200	831
340.287	927
340.374	1405
340.460	2088
340.547	723
340.634	2298
340.720	7016
340.807	4588
340.894	907
340.980	959
341.067	495
341.154	1349
341.240	1292
341.327	2686
341.414	525
341.500	929
341.587	1128
341.674	897
341.760	2267
341.847	1777
341.933	682
342.020	-226
342.106	443
342.193	678
342.279	1805
342.366	920
342.452	2082
342.539	616
342.625	2816
342.712	7672
342.798	3505
342.885	474
342.971	-357
343.058	501
343.144	227
343.230	550
343.317	-126
343.403	460
343.490	298
343.576	13
343.662	1028
343.749	628
343.835	1409
343.921	2164
344.008	17692
344.094	41341
344.180	9257
344.267	2680
344.353	10150
344.439	13042
344.525	3912
344.612	2667
344.698	2187
344.784	1289
344.870	391
344.957	813
345.043	1255
345.129	496
345.215	2347
345.301	844
345.387	520
345.474	558
345.560	228
345.646	959
345.732	912
345.818	257
345.904	472
345.990	215
346.076	1457
346.162	2767
346.249	1551
346.335	1082
346.421	864
346.507	4058
346.593	14729
346.679	3186
346.765	2858
346.851	-487
346.937	444
347.023	1114
347.108	764
347.194	630
347.280	212
347.366	684
347.452	3956
347.538	17684
347.624	13876
347.710	12166
347.796	2595
347.882	1294
347.967	1692
348.053	1828
348.139	-52
348.225	164
348.311	443
348.397	8
348.482	1233
348.568	1023
348.654	654
348.740	227
348.825	-328
348.911	1797
348.997	7663
349.083	17911
349.168	2656
349.254	47
349.340	860
349.425	83
349.511	688
349.597	1193
349.682	1979
349.768	9627
349.854	4932
349.939	1564
350.025	430
350.110	867
350.196	435
350.282	-849
350.367	973
350.453	2253
350.538	1900
350.624	837
350.709	1459
350.795	558
350.880	-150
350.966	424
351.051	1511
351.137	1149
351.222	1605
351.308	2014
351.393	7933
351.479	1124
351.564	28
351.649	692
351.735	715
351.820	170
351.906	615
351.991	678
352.076	4777
352.162	7714
352.247	746
352.332	-9
352.418	469
352.503	2301
352.588	10774
352.673	8705
352.759	1717
352.844	316
352.929	791
353.014	474
353.100	931
353.185	528
353.270	1616
353.355	1566
353.441	1116
353.526	1118
353.611	2281
353.696	2151
353.781	2409
353.866	62
353.952	1333
354.037	780
354.122	4710
354.207	3695
354.292	2133
354.377	146
354.462	1025
354.547	617
354.632	818
354.717	935
354.802	688
354.887	828
354.972	467
355.057	198
355.142	-208
355.227	538
355.312	1258
355.397	2941
355.482	7545
355.567	3338
355.652	2709
355.737	2594
355.822	10894
355.907	8546
355.991	1370
356.076	-5
356.161	621
356.246	41
356.331	96
356.416	1535
356.501	20364
356.585	20633
356.670	1947
356.755	2341
356.840	1608
356.924	10691
357.009	47988
357.094	17684
357.179	3382
357.263	1438
357.348	2355
357.433	2267
357.517	1344
357.602	1686
357.687	1020
357.771	1380
357.856	6654
357.941	4166
358.025	9927
358.110	48224
358.195	22149
358.279	1865
358.364	1423
358.448	6052
358.533	19518
358.617	13290
358.702	14135
358.787	5433
358.871	2381
358.956	1693
359.040	69
359.125	283
359.209	957
359.294	2522
359.378	5354
359.462	1748
359.547	1951
359.631	367
359.716	122
359.800	887
359.885	2921
359.969	281
360.053	933
360.138	667
360.222	1201
360.306	1320
360.391	1299
360.475	3810
360.559	8461
360.644	6690
360.728	4553
360.812	10453
360.896	31364
360.981	12883
361.065	6830
361.149	1870
361.233	849
361.318	116
361.402	1013
361.486	616
361.570	1126
361.654	787
361.739	3558
361.823	17434
361.907	32296
361.991	4125
362.075	1394
362.159	3588
362.243	3282
362.327	1104
362.411	4007
362.495	1862
362.580	2089
362.664	1149
362.748	-448
362.832	67
362.916	-139
363.000	5295
363.084	20040
363.168	35449
363.252	8279
363.336	1914
363.420	3566
363.503	22671
363.587	30246
363.671	2983
363.755	1541
363.839	3020
363.923	322
364.007	2921
364.091	3205
364.175	5727
364.258	39095
364.342	19179
364.426	10125
364.510	4773
364.594	5172
364.677	5377
364.761	26120
364.845	19836
364.929	4465
365.013	3417
365.096	2756
365.180	3257
365.264	8209
365.347	41645
365.431	18298
365.515	3910
365.598	534
365.682	915
365.766	3307
365.849	5175
365.933	1447
366.017	3646
366.100	2142
366.184	-727
366.267	1822
366.351	161
366.435	151
366.518	-549
366.602	225
366.685	261
366.769	204
366.852	2916
366.936	5328
367.019	2047
367.103	992
367.186	6684
367.270	1309
367.353	-924
367.436	749
367.520	-380
367.603	587
367.687	-12
367.770	2358
367.853	2426
367.937	6349
368.020	12089
368.104	1662
368.187	1516
368.270	3080
368.353	2356
368.437	4966
368.520	17955
368.603	9189
368.687	6818
368.770	15385
368.853	3140
368.936	4248
369.020	5475
369.103	1360
369.186	87
369.269	-49
369.352	1754
369.436	3003
369.519	1350
369.602	-952
369.685	1440
369.768	-239
369.851	552
369.934	-134
370.018	180
370.101	1417
370.184	4165
370.267	1994
370.350	1614
370.433	4537
370.516	12315
370.599	17022
370.682	2000
370.765	7464
370.848	10333
370.931	20004
371.014	9466
371.097	-160
371.180	761
371.263	1064
371.346	-1144
371.429	592
371.511	320
371.594	563
371.677	3049
371.760	6626
371.843	2222
371.926	15161
372.009	39714
372.091	13088
372.174	6572
372.257	20196
372.340	6904
372.423	6864
372.505	9582
372.588	3055
372.671	5152
372.754	18732
372.836	8887
372.919	9841
373.002	25212
373.085	5874
373.167	2535
373.250	6381
373.332	18583
373.415	24835
373.498	53752
373.580	19406
373.663	21852
373.746	34568
373.828	6165
373.911	3564
373.993	3498
374.076	22690
374.159	22515
374.241	5680
374.324	15311
374.406	10973
374.489	12967
374.571	46182
374.654	17705
374.736	8101
374.819	26665
374.901	39243
374.983	41321
375.066	6263
375.148	2328
375.231	16324
375.313	38262
375.395	12921
375.478	1720
375.560	916
375.643	1992
375.725	6414
375.807	33571
375.890	31955
375.972	14966
376.054	7252
376.136	14188
376.219	6136
376.301	8252
376.383	29263
376.465	11239
376.548	4644
376.630	6370
376.712	23568
376.794	10413
376.877	1206
376.959	-86
377.041	1747
377.123	3538
377.205	6005
377.287	-149
377.369	-40
377.452	204
377.534	42
377.616	-202
377.698	187
377.780	-953
377.862	181
377.944	786
378.026	-132
378.108	833
378.190	-475
378.272	490
378.354	-392
378.436	-254
378.518	517
378.600	8322
378.682	6424
378.764	9495
378.846	7792
378.928	2239
379.010	2291
379.091	1207
379.173	-404
379.255	-750
379.337	-257
379.419	3807
379.501	16283
379.583	5558
379.664	859
379.746	1720
379.828	10635
379.910	12969
379.991	12621
380.073	1629
380.155	695
380.237	396
380.318	-407
380.400	297
380.482	1452
380.564	3053
380.645	1536
380.727	1766
380.809	1558
380.890	376
380.972	-205
381.053	-94
381.135	1326
381.217	2224
381.298	10837
381.380	4532
381.461	3294
381.543	21732
381.624	28607
381.706	3963
381.787	2039
381.869	2123
381.951	8488
382.032	39828
382.113	27852
382.195	3857
382.276	3038
382.358	5275
382.439	20679
382.521	23137
382.602	39685
382.684	14965
382.765	25991
382.846	21181
382.928	13522
383.009	6438
383.090	3879
383.172	18331
383.253	31356
383.334	14438
383.416	30791
383.497	14664
383.578	2535
383.659	4423
383.741	16301
383.822	47978
383.903	24083
383.984	13808
384.066	35964
384.147	21724
384.228	3836
384.309	1722
384.390	1544
384.471	95
384.553	1172
384.634	2505
384.715	2845
384.796	-54
384.877	1212
384.958	7808
385.039	10756
385.120	3110
385.201	1602
385.282	2207
385.363	3365
385.444	1133
385.525	3763
385.606	15598
385.687	15248
385.768	3332
385.849	3786
385.930	18462
386.011	35096
386.092	7863
386.173	2050
386.254	1610
386.335	2132
386.416	872
386.496	5514
386.577	10381
386.658	4509
386.739	1872
386.820	3828
386.901	1767
386.981	1696
387.062	524
387.143	919
387.224	9464
387.304	10422
387.385	4154
387.466	1351
387.547	3834
387.627	850
387.708	3803
387.789	18262
387.869	23378
387.950	6876
388.031	257
388.111	-395
388.192	6081
388.273	10902
388.353	4502
388.434	1067
388.514	3885
388.595	19351
388.676	25029
388.756	10450
388.837	9011
388.917	5042
388.998	-567
389.078	1092
389.159	726
389.239	-589
389.320	2097
389.400	-738
389.480	3847
389.561	12614
389.641	6525
389.722	1523
389.802	1528
389.883	4339
389.963	14716
390.043	10941
390.124	2796
390.204	4546
390.284	10414
390.365	6929
390.445	14181
390.525	34367
390.605	25265
390.686	5909
390.766	2228
390.846	1411
390.927	-643
391.007	-218
391.087	1290
391.167	550
391.247	-399
391.328	2723
391.408	6120
391.488	3686
391.568	-775
391.648	630
391.728	1010
391.808	2117
391.888	1144
391.969	5174
392.049	9106
392.129	5919
392.209	4404
392.289	14003
392.369	7493
392.449	10838
392.529	4704
392.609	2570
392.689	2969
392.769	12382
392.849	10744
392.929	8843
393.009	22452
393.089	13325
393.169	6767
393.248	22971
393.328	128075
393.408	144464
393.488	28901
393.568	6358
393.648	2525
393.728	1270
393.807	284
393.887	2213
393.967	807
394.047	2181
394.127	2549
394.206	5340
394.286	23452
394.366	107727
394.446	123412
394.525	27370
394.605	5687
394.685	5764
394.764	13977
394.844	25387
394.924	17531
395.003	3063
395.083	1567
395.163	793
395.242	1117
395.322	2327
395.402	-1126
395.481	3383
395.561	7371
395.640	26770
395.720	17074
395.799	29037
395.879	24923
395.958	10101
396.038	34382
396.117	143850
396.197	160729
396.276	51000
396.356	15237
396.435	11976
396.515	6164
396.594	4526
396.673	7446
396.753	30666
396.832	122255
396.912	91666
396.991	17033
397.070	4338
397.150	-226
397.229	2290
397.308	1289
397.388	3086
397.467	1780
397.546	1040
397.625	-1218
397.705	1833
397.784	696
397.863	-27
397.942	-281
398.022	690
398.101	6496
398.180	28901
398.259	14695
398.338	3063
398.417	173
398.497	516
398.576	982
398.655	-336
398.734	146
398.813	1287
398.892	5623
398.971	30195
399.050	13586
399.129	344
399.208	-535
399.287	1003
399.366	265
399.445	-327
399.524	-297
399.603	-1193
399.682	465
399.761	4618
399.840	29286
399.919	25236
399.998	2366
400.077	-219
400.156	-1647
400.235	1983
400.313	556
400.392	-449
400.471	4177
400.550	8399
400.629	1562
400.708	875
400.786	640
400.865	5191
400.944	5823
401.023	2929
401.102	-608
401.180	-234
401.259	83
401.338	372
401.416	677
401.495	259
401.574	1212
401.652	-249
401.731	1455
401.810	-149
401.888	310
401.967	-459
402.046	-388
402.124	820
402.203	885
402.281	875
402.360	132
402.438	7500
402.517	4716
402.596	1277
402.674	-165
402.753	257
402.831	114
402.910	437
402.988	2007
403.066	6090
403.145	4606
403.223	1700
403.302	4037
403.380	3484
403.459	2895
403.537	1221
403.615	-230
403.694	-1908
403.772	606
403.850	-500
403.929	-1485
404.007	-569
404.085	777
404.164	-525
404.242	-386
404.320	3489
404.398	14134
404.477	14781
404.555	30238
404.633	28812
404.711	11011
404.789	6414
404.868	766
404.946	-875
405.024	-508
405.102	-426
405.180	-614
405.258	-1804
405.336	877
405.415	-649
405.493	1726
405.571	1034
405.649	-1040
405.727	-1065
405.805	1120
405.883	540
405.961	426
406.039	1396
406.117	-978
406.195	355
406.273	3228
406.351	24620
406.429	16153
406.507	2650
406.585	-425
406.663	292
406.740	-53
406.818	344
406.896	-440
406.974	724
407.052	-66
407.130	12681
407.208	19391
407.285	3497
407.363	-1904
407.441	-191
407.519	-517
407.596	424
407.674	1280
407.752	8832
407.830	11037
407.907	3349
407.985	-49
408.063	760
408.141	-1093
408.218	1676
408.296	184
408.373	-761
408.451	-176
408.529	-263
408.606	-1405
408.684	-1433
408.762	-301
408.839	-807
408.917	-536
408.994	-1021
409.072	-1770
409.149	-306
409.227	111
409.304	-378
409.382	-774
409.459	-335
409.537	470
409.614	207
409.692	-974
409.769	-583
409.846	-755
409.924	1043
410.001	-1565
410.079	-304
410.156	99
410.233	-547
410.311	-505
410.388	-431
410.465	-499
410.543	-902
410.620	-548
410.697	-276
410.775	-276
410.852	-2050
410.929	33
411.006	616
411.083	-1353
411.161	-32
411.238	1355
411.315	687
411.392	-482
411.469	435
411.547	297
411.624	-1633
411.701	-1113
411.778	-405
411.855	343
411.932	-430
412.009	-1200
412.086	-72
412.163	-371
412.240	-165
412.317	652
412.394	313
412.471	-177
412.548	-606
412.625	-70
412.702	-82
412.779	494
412.856	359
412.933	-1626
413.010	-640
413.087	227
413.164	3632
413.241	6253
413.318	-95
413.395	123
413.471	-286
413.548	-523
413.625	29
413.702	-744
413.779	761
413.855	-1008
413.932	-663
414.009	-1837
414.086	-858
414.162	-933
414.239	174
414.316	3318
414.393	11077
414.469	2297
414.546	-825
414.623	-655
414.699	-1064
414.776	-979
414.853	-570
414.929	-86
415.006	-392
415.082	258
415.159	-139
415.236	281
415.312	124
415.389	-121
415.465	-634
415.542	-278
415.618	-431
415.695	193
415.771	-1032
415.848	-665
415.924	-141
416.000	-143
416.077	192
416.153	-1344
416.230	-1433
416.306	-1313
416.383	-1283
416.459	-857
416.535	-641
416.612	-1523
416.688	225
416.764	-1011
416.841	-1247
416.917	-196
416.993	-428
417.069	-475
417.146	-171
417.222	933
417.298	-578
417.374	-1302
417.451	100
417.527	-855
417.603	-236
417.679	-764
417.755	-407
417.831	-1438
417.908	-734
417.984	-806
418.060	-1145
418.136	-385
418.212	648
418.288	3
418.364	-404
418.440	-2033
418.516	466
418.592	1358
418.668	1673
418.744	1355
418.820	1767
418.896	-364
418.972	-1591
419.048	-1240
419.124	1607
419.200	-1746
419.276	-814
419.352	-1347
419.428	88
419.504	-1399
419.579	-1070
419.655	-1240
419.731	-107
419.807	910
419.883	1312
419.959	837
420.034	317
420.110	94
420.186	4679
420.262	4207
420.337	174
420.413	-1096
420.489	-385
420.565	116
420.640	-750
420.716	-272
420.792	-1587
420.867	-294
420.943	-318
421.019	-649
421.094	-928
421.170	-680
421.245	-1383
421.321	-485
421.397	-1136
421.472	907
421.548	2916
421.623	1737
421.699	-67
421.774	-273
421.850	-1362
421.925	93
422.001	78
422.076	54
422.152	122
422.227	135
422.302	794
422.378	2166
422.453	3963
422.529	12285
422.604	52334
422.679	116007
422.755	65598
422.830	16287
422.905	5494
422.981	962
423.056	110
423.131	1011
423.207	529
423.282	-988
423.357	1464
423.432	-206
423.508	811
423.583	1459
423.658	1433
423.733	49
423.808	495
423.883	356
423.959	-968
424.034	-333
424.109	502
424.184	-886
424.259	-1006
424.334	-873
424.409	-1121
424.484	-1226
424.559	-411
424.634	-789
424.709	-967
424.784	-734
424.859	-173
424.934	-627
425.009	3537
425.084	7074
425.159	1763
425.234	-796
425.309	-1187
425.384	1093
425.459	1448
425.534	326
425.609	-727
425.683	-1143
425.758	-230
425.833	-461
425.908	-195
425.983	474
426.058	6925
426.132	2741
426.207	8
426.282	1879
426.357	871
426.431	-54
426.506	-254
426.581	-341
426.655	-669
426.730	90
426.805	-1560
426.879	-478
426.954	-1111
427.029	-289
427.103	6770
427.178	21276
427.253	9590
427.327	418
427.402	1214
427.476	4937
427.551	2206
427.625	337
427.700	-60
427.774	-1151
427.849	676
427.923	-1135
427.998	-52
428.072	-1437
428.147	641
428.221	4009
428.296	14435
428.370	6899
428.444	999
428.519	1892
428.593	5759
428.667	4148
428.742	6854
428.816	4134
428.890	12439
428.965	17933
429.039	7388
429.113	7622
429.188	1864
429.262	-656
429.336	195
429.410	3442
429.485	2485
429.559	4800
429.633	3327
429.707	504
429.781	1764
429.855	13900
429.930	21906
430.004	15213
430.078	28944
430.152	23522
430.226	22656
430.300	24366
430.374	2380
430.448	740
430.522	7445
430.596	27674
430.670	15858
430.744	17790
430.818	30567
430.892	6421
430.966	-381
431.040	-635
431.114	-961
431.188	-1354
431.262	-903
431.336	-728
431.410	1794
431.484	6010
431.557	4596
431.631	-698
431.705	-778
431.779	1323
431.853	11931
431.927	8347
432.000	426
432.074	-715
432.148	607
432.222	-603
432.295	-432
432.369	-1006
432.443	463
432.516	7332
432.590	23741
432.664	9799
432.737	62
432.811	-1264
432.885	-984
432.958	-1220
433.032	-760
433.106	-1550
433.179	-86
433.253	-1503
433.326	-892
433.400	-1446
433.473	-823
433.547	-1262
433.620	-921
433.694	-643
433.767	204
433.841	-1584
433.914	-1153
433.988	-1110
434.061	-594
434.134	-1557
434.208	-803
434.281	-1209
434.355	-1634
434.428	-1000
434.501	-999
434.575	-1005
434.648	-1044
434.721	-1419
434.795	-1174
434.868	-1114
434.941	-1336
435.014	-459
435.088	-978
435.161	-1343
435.234	-321
435.307	-313
435.381	-364
435.454	-482
435.527	-348
435.600	-917
435.673	-102
435.746	-1141
435.819	-1151
435.892	-394
435.966	-851
436.039	-1070
436.112	-920
436.185	-832
436.258	-1146
436.331	-2279
436.404	-805
436.477	-1083
436.550	-1071
436.623	-1530
436.696	-450
436.769	-1068
436.842	-662
436.915	-734
436.987	-53
437.060	-796
437.133	-1465
437.206	-1636
437.279	-1094
437.352	-792
437.425	-886
437.498	-661
437.570	-146
437.643	-50
437.716	-538
437.789	-1184
437.861	280
437.934	1370
438.007	457
438.080	-1294
438.152	14
438.225	742
438.298	10099
438.370	37618
438.443	17752
438.516	2207
438.588	-421
438.661	-1489
438.734	-555
438.806	-1068
438.879	158
438.951	-1010
439.024	310
439.096	-522
439.169	-566
439.241	-2081
439.314	-869
439.386	-669
439.459	800
439.531	599
439.604	309
439.676	-793
439.749	-430
439.821	-1052
439.893	-793
439.966	-967
440.038	-172
440.110	-1155
440.183	-305
440.255	-946
440.327	472
440.400	3348
440.472	21159
440.544	17282
440.617	1026
440.689	989
440.761	1314
440.833	1860
440.905	999
440.978	-770
441.050	-617
441.122	-687
441.194	-850
441.266	-308
441.338	-1073
441.411	458
441.483	5278
441.555	10158
441.627	2406
441.699	747
441.771	1000
441.843	-885
441.915	-1501
441.987	-816
442.059	-649
442.131	-135
442.203	400
442.275	-275
442.347	774
442.419	-425
442.491	3726
442.563	12723
442.635	8031
442.706	6665
442.778	5478
442.850	-362
442.922	-788
442.994	-373
443.066	632
443.137	-468
443.209	-272
443.281	-262
443.353	1968
443.425	6494
443.496	23666
443.568	26667
443.640	9016
443.711	1331
443.783	22
443.855	-711
443.926	-799
443.998	-232
444.070	683
444.141	82
444.213	1210
444.285	806
444.356	447
444.428	850
444.499	-397
444.571	-1152
444.642	450
444.714	-881
444.785	183
444.857	979
444.928	5552
445.000	3129
445.071	2720
445.143	3306
445.214	1194
445.285	1830
445.357	9379
445.428	20050
445.500	49364
445.571	34897
445.642	14186
445.714	7474
445.785	10366
445.856	1538
445.928	1299
445.999	627
446.070	129
446.141	162
446.213	1468
446.284	75
446.355	347
446.426	-216
446.497	-661
446.569	559
446.640	1599
446.711	689
446.782	-367
446.853	235
446.924	397
446.995	-345
447.066	532
447.138	1057
447.209	1508
447.280	-1273
447.351	-333
447.422	-1409
447.493	43
447.564	-44
447.635	121
447.706	-830
447.777	-407
447.847	-513
447.918	-833
447.989	17
448.060	782
448.131	3835
448.202	3527
448.273	845
448.344	474
448.414	-429
448.485	200
448.556	-1209
448.627	-1055
448.698	-133
448.768	301
448.839	-736
448.910	890
448.981	1380
449.051	-200
449.122	-538
449.193	-238
449.263	60
449.334	-147
449.405	361
449.475	903
449.546	1489
449.616	1945
449.687	1621
449.758	448
449.828	-460
449.899	31
449.969	-833
450.040	283
450.110	996
450.181	622
450.251	-344
450.322	-328
450.392	478
450.463	357
450.533	-276
450.604	-18
450.674	-379
450.744	-386
450.815	-721
450.885	119
450.955	92
451.026	3
451.096	-823
451.166	654
451.237	1419
451.307	6755
451.377	3138
451.447	-160
451.518	-560
451.588	47
451.658	-352
451.728	777
451.799	7412
451.869	9740
451.939	1427
452.009	-327
452.079	-535
452.149	424
452.219	173
452.289	8338
452.360	7514
452.430	1428
452.500	-937
452.570	532
452.640	1049
452.710	3648
452.780	8587
452.850	4598
452.920	3083
452.990	2079
453.060	970
453.129	769
453.199	1091
453.269	7703
453.339	22536
453.409	37414
453.479	31993
453.549	49347
453.619	55360
453.688	25411
453.758	3477
453.828	1065
453.898	673
453.968	929
454.037	494
454.087	-214
454.107	-515
454.168	90
454.177	166
454.247	-554
454.249	-512
454.316	248
454.330	186
454.386	-116
454.411	1234
454.456	3325
454.492	5396
454.525	7243
454.574	3794
454.595	2313
454.655	189
454.665	-152
454.734	823
454.736	870
454.804	1736
454.817	2808
454.873	6799
454.898	8044
454.943	10170
454.979	6301
455.013	2873
455.060	1166
455.082	508
455.141	925
455.152	1003
455.221	5906
455.222	6050
455.291	14093
455.303	14250
455.360	13754
455.384	17160
455.430	20482
455.465	17186
455.499	14708
455.546	10203
455.569	8202
455.627	6174
455.638	5879
455.707	536
455.708	547
455.777	368
455.789	314
455.846	11
455.869	93
455.916	244
455.950	485
455.985	618
456.031	157
456.054	-67
456.112	-18
456.124	5
456.193	-248
456.193	-259
456.262	765
456.274	889
456.332	1412
456.355	1397
456.401	1030
456.436	944
456.470	930
456.516	327
456.540	19
456.597	-555
456.609	-658
456.678	168
456.678	161
456.747	-138
456.759	-136
456.817	-162
456.840	-151
456.886	-100
456.920	139
456.955	393
457.001	156
457.024	6
457.082	452
457.093	569
457.162	1169
457.163	1180
457.232	961
457.243	1045
457.301	1315
457.324	747
457.370	-295
457.405	275
457.439	819
457.485	519
457.508	424
457.566	1016
457.577	1088
457.646	1397
457.647	1394
457.715	356
457.727	552
457.784	1662
457.808	1924
457.853	2335
457.889	2986
457.922	3120
457.969	2330
457.991	2251
458.050	2851
458.060	2928
458.129	3955
458.130	3989
458.198	3905
458.211	3727
458.267	2612
458.292	1932
458.336	1407
458.372	1121
458.405	1166
458.453	1804
458.474	2264
458.533	4234
458.543	4473
458.611	6353
458.614	6436
458.680	4671
458.694	3900
458.749	2624
458.775	2079
458.818	1560
458.855	1301
458.887	1008
458.936	1048
458.955	1002
459.016	1105
459.024	1162
459.093	1657
459.097	1639
459.162	792
459.177	773
459.230	1059
459.257	1345
459.299	1688
459.338	1611
459.368	1598
459.418	2297
459.437	2282
459.499	1357
459.505	1350
459.574	1184
459.579	1233
459.643	1427
459.659	1484
459.711	1745
459.740	1701
459.780	1627
459.820	1724
459.849	1831
459.900	1770
459.917	1693
459.981	1500
459.986	1474
460.054	1678
460.061	1653
460.123	1637
460.141	1818
460.191	2616
460.222	2996
460.260	2968
460.302	2632
460.328	2510
460.382	2598
460.397	2588
460.462	2280
460.465	2345
460.534	4002
460.543	4235
460.602	12121
460.623	15223
460.671	24757
460.703	33378
460.739	30101
460.783	25444
460.808	22894
460.864	7164
460.876	5820
460.944	2206
460.945	2160
461.013	2340
461.024	2254
461.081	2012
461.104	2092
461.150	1838
461.184	1662
461.218	1755
461.264	1659
461.286	1650
461.345	1879
461.355	1901
461.423	1663
461.425	1665
461.491	1352
461.505	1387
461.559	3642
461.585	4555
461.628	7014
461.665	9503
461.696	10419
461.745	13650
461.764	12425
461.825	4512
461.832	4413
461.901	2703
461.905	2733
461.969	1984
461.985	1741
462.037	2038
462.065	2332
462.105	2276
462.145	2288
462.173	3357
462.225	5163
462.241	5721
462.305	8810
462.310	8609
462.378	5396
462.385	4805
462.446	3105
462.465	2717
462.514	2098
462.545	2109
462.582	2199
462.625	2182
462.650	2119
462.705	1883
462.718	1941
462.785	2423
462.786	2445
462.854	3671
462.865	3916
462.922	4534
462.945	4756
462.990	4008
463.025	3167
463.058	2793
463.104	2157
463.126	2070
463.184	2204
463.194	2365
463.262	3023
463.264	3068
463.330	2737
463.344	2640
463.398	3399
463.424	3606
463.466	3094
463.504	2880
463.533	3126
463.583	3289
463.601	3155
463.663	2523
463.669	2592
463.737	3840
463.743	3933
463.805	6189
463.823	6919
463.873	9958
463.903	11760
463.940	12197
463.982	13269
464.008	11240
464.062	5654
464.076	5420
464.142	3368
464.144	3327
464.211	2940
464.221	2886
464.279	2530
464.301	2418
464.347	2819
464.381	3208
464.414	3409
464.461	3542
464.482	3772
464.540	4468
464.550	4328
464.617	3223
464.620	3181
464.685	4425
464.699	4688
464.753	6042
464.779	6706
464.820	7400
464.859	8165
464.888	7627
464.938	6579
464.956	6881
465.018	7702
465.023	7581
465.091	6096
465.098	5931
465.158	6326
465.177	6432
465.226	6031
465.257	5757
465.293	5962
465.336	6272
465.361	6473
465.416	6722
465.428	7112
465.495	9418
465.496	9458
465.563	13619
465.575	14371
465.631	17444
465.654	18920
465.698	13365
465.734	8179
465.765	7745
465.813	6864
465.833	6789
465.893	7055
465.900	6980
465.968	6216
465.972	6158
466.035	6449
466.052	6499
466.102	6458
466.131	6481
466.170	6947
466.210	7358
466.237	7543
466.290	7926
466.304	8092
466.369	8657
466.372	8683
466.439	9096
466.449	9143
466.506	9972
466.528	10269
466.573	11897
466.607	13034
466.641	17256
466.687	23200
466.708	25089
466.766	30295
466.775	28522
466.842	14845
466.845	14166
466.909	11240
466.925	10590
466.977	10367
467.004	10262
467.044	10895
467.083	11511
467.111	12332
467.163	13838
467.178	13953
467.242	14300
467.245	14281
467.312	13432
467.321	13299
467.379	11907
467.400	11370
467.446	11547
467.480	11643
467.559	10290
467.638	9618
467.717	8749
467.796	9970
467.875	10727
467.955	8825
468.034	12095
468.113	23849
468.192	33183
468.271	11147
468.350	7856
468.429	7984
468.508	7892
468.588	7174
468.667	7379
468.746	8067
468.825	7502
468.904	7074
468.983	8216
469.062	9496
469.141	12432
469.220	6973
469.299	6854
469.378	7434
469.456	10107
469.535	9455
469.614	7604
469.693	7959
469.772	10164
469.851	11629
469.930	8899
470.009	7701
470.088	6642
470.166	6536
470.245	8054
470.324	7933
470.403	7306
470.482	6608
470.560	6359
470.639	6888
470.718	8382
470.797	6847
470.875	7755
470.954	8804
471.033	11149
471.111	5723
471.190	4849
471.269	5804
471.347	4991
471.426	6131
471.505	7760
471.583	8162
471.662	7843
471.740	6648
471.819	6342
471.898	5716
471.976	7112
472.055	6456
472.133	7499
472.212	9157
472.290	7867
472.369	6647
472.447	6629
472.526	4567
472.604	6456
472.683	6369
472.761	6225
472.839	5731
472.918	6524
472.996	5646
473.075	7055
473.153	6975
473.231	5779
473.310	5618
473.388	6143
473.466	6183
473.545	7349
473.623	7988
473.701	7641
473.780	6317
473.858	5738
473.936	7868
474.014	5142
474.093	5721
474.171	8741
474.249	11113
474.327	7994
474.405	4987
474.484	5513
474.562	4854
474.640	5704
474.718	6352
474.796	7049
474.874	7098
474.952	5496
475.030	5566
475.108	7151
475.187	8157
475.265	8220
475.343	8010
475.421	8051
475.499	5919
475.577	7125
475.655	7154
475.733	12412
475.811	18584
475.889	17934
475.966	11368
476.044	6320
476.122	5299
476.200	5125
476.278	5111
476.356	4686
476.434	4748
476.512	4806
476.590	5871
476.667	5379
476.745	3800
476.823	5588
476.901	4880
476.979	5891
477.056	5380
477.134	5529
477.212	5908
477.290	5350
477.367	3298
477.445	4428
477.523	3394
477.601	3411
477.678	3991
477.756	5375
477.834	6630
477.911	4518
477.989	4728
478.066	3908
478.144	4900
478.222	3996
478.299	5150
478.377	5074
478.454	4999
478.532	3978
478.609	4492
478.687	5472
478.764	3439
478.842	4540
478.919	3552
478.997	5117
479.074	3730
479.152	4857
479.229	5719
479.307	3472
479.384	3676
479.461	3472
479.539	3414
479.616	5550
479.694	3354
479.771	4715
479.848	3947
479.926	5065
480.003	6377
480.080	4035
480.157	3482
480.235	3695
480.312	3459
480.389	4182
480.467	6230
480.544	8523
480.621	4515
480.698	4345
480.775	4343
480.853	5320
480.930	4593
481.007	4505
481.084	5810
481.161	6062
481.238	5301
481.315	4105
481.392	3737
481.470	4186
481.547	3480
481.624	4812
481.701	3565
481.778	4713
481.855	3638
481.932	7279
482.009	10803
482.086	6831
482.163	3554
482.240	4191
482.317	5280
482.393	4670
482.470	4141
482.547	4758
482.624	3421
482.701	3985
482.778	3555
482.855	3176
482.932	2937
483.009	1740
483.085	3922
483.162	4422
483.239	4272
483.316	3512
483.393	2788
483.469	3054
483.546	4025
483.623	4125
483.699	2845
483.776	3422
483.853	5374
483.930	6491
484.006	15620
484.083	28369
484.160	20053
484.236	33451
484.313	23556
484.389	16757
484.466	15250
484.543	14108
484.619	14373
484.696	15890
484.772	14403
484.849	16344
484.925	14163
485.002	13645
485.078	14485
485.155	14895
485.231	13812
485.308	13788
485.384	12880
485.461	14518
485.537	20924
485.614	23889
485.690	13229
485.766	11904
485.843	11927
485.919	15380
485.995	16036
486.072	10433
486.148	10566
486.224	11283
486.301	10833
486.377	12359
486.453	12920
486.530	13040
486.606	18878
486.682	20113
486.758	20632
486.835	22173
486.911	17556
486.987	25526
487.063	25338
487.139	27915
487.215	21865
487.292	14602
487.368	12798
487.444	13257
487.520	14489
487.596	13458
487.672	14835
487.748	23013
487.824	30201
487.900	16588
487.976	12983
488.052	11558
488.128	14046
488.204	12322
488.280	11690
488.356	12864
488.432	22053
488.508	30816
488.584	12916
488.660	9699
488.736	11470
488.812	10546
488.888	13438
488.964	15995
489.039	25290
489.115	36467
489.191	22194
489.267	11379
489.343	10521
489.418	9253
489.494	8896
489.570	7838
489.646	10455
489.722	9406
489.797	9101
489.873	13058
489.949	24079
490.024	21005
490.100	7988
490.176	8705
490.251	8651
490.327	11113
490.403	7371
490.478	7945
490.554	6404
490.629	7474
490.705	6463
490.781	8216
490.856	7814
490.932	9070
491.007	7433
491.083	8706
491.158	7234
491.234	9578
491.309	17825
491.385	18943
491.460	7538
491.536	8486
491.611	6750
491.686	8853
491.762	9541
491.837	15779
491.913	24651
491.988	33174
492.063	40737
492.139	14013
492.214	10640
492.289	6218
492.365	5519
492.440	7217
492.515	6343
492.590	7036
492.666	5368
492.741	7335
492.816	10481
492.891	6980
492.967	7322
493.042	5086
493.117	6881
493.192	8768
493.267	16660
493.342	58184
493.418	78078
493.493	11328
493.568	5793
493.643	5518
493.718	5919
493.793	8429
493.868	10181
493.943	6054
494.018	6229
494.093	5498
494.168	5572
494.243	4666
494.318	4076
494.393	4511
494.468	4710
494.543	4067
494.618	4888
494.693	4350
494.768	3804
494.842	4969
494.917	3909
494.992	4624
495.067	4157
495.142	3871
495.217	4540
495.292	4411
495.366	5844
495.441	6381
495.516	8672
495.591	10926
495.665	29331
495.740	68938
495.815	25843
495.890	7354
495.964	5011
496.039	8250
496.114	5311
496.188	7404
496.263	7024
496.338	6239
496.412	7884
496.487	9344
496.561	8702
496.636	9159
496.710	7269
496.785	8227
496.860	9031
496.934	7013
497.009	7554
497.083	8420
497.158	9256
497.232	9917
497.307	12539
497.381	12311
497.455	14188
497.530	16466
497.604	14222
497.679	16390
497.753	22810
497.827	30408
497.902	30333
497.976	34195
498.050	55885
498.125	176765
498.199	173956
498.273	42460
498.348	36512
498.422	31428
498.496	26379
498.570	24513
498.645	19246
498.719	17230
498.793	19366
498.867	21936
498.941	26614
499.016	65672
499.090	176610
499.164	59524
499.238	10748
499.312	8583
499.386	10113
499.460	9187
499.534	7748
499.609	9374
499.683	13130
499.757	13727
499.831	28308
499.905	110028
499.979	100532
500.053	15365
500.127	14840
500.201	8958
500.275	7115
500.349	6960
500.422	8126
500.496	11265
500.570	20983
500.644	55283
500.718	108383
500.792	23767
500.866	7301
500.940	7798
501.013	7446
501.087	7412
501.161	11640
501.235	14450
501.309	32664
501.382	93368
501.456	78467
501.530	16065
501.603	28834
501.677	10972
501.751	4245
501.825	7407
501.898	11849
501.972	36515
502.046	22067
502.119	6289
502.193	15442
502.266	39126
502.340	17761
502.413	16853
502.487	32463
502.561	17332
502.634	7232
502.708	4462
502.781	3739
502.855	3917
502.928	2373
503.002	3515
503.075	2498
503.149	3960
503.222	4207
503.295	4626
503.369	5177
503.442	7750
503.516	26308
503.589	66847
503.662	39777
503.736	12943
503.809	29996
503.882	22978
503.956	35025
504.029	30602
504.102	12688
504.175	14616
504.249	5740
504.322	5602
504.395	5620
504.468	3618
504.542	2962
504.615	2785
504.688	2718
504.761	1654
504.834	3715
504.907	3857
504.980	7094
505.053	3696
505.127	3519
505.200	6931
505.273	5394
505.346	3132
505.419	2454
505.492	2728
505.565	2203
505.638	2929
505.711	1103
505.784	718
505.857	2637
505.930	4007
506.003	1611
506.076	3555
506.149	4109
506.221	4152
506.294	5717
506.367	12661
506.440	49035
506.513	24410
506.586	5149
506.659	2626
506.731	2031
506.804	2800
506.877	4051
506.950	3576
507.022	3374
507.095	2037
507.168	4382
507.241	4084
507.313	2130
507.386	1606
507.459	3783
507.531	2181
507.604	1520
507.677	2713
507.749	983
507.822	4638
507.894	7207
507.967	11115
508.040	6684
508.112	6348
508.185	4897
508.257	3842
508.330	6754
508.402	4642
508.475	4624
508.547	5024
508.620	4423
508.692	8125
508.765	4713
508.837	3717
508.909	3230
508.982	3191
509.054	3956
509.127	3416
509.199	3031
509.271	3103
509.344	3131
509.416	3147
509.488	2843
509.560	3963
509.633	3901
509.705	4520
509.777	4011
509.849	6191
509.922	3403
509.994	4074
510.066	5131
510.138	4489
510.210	12080
510.283	9668
510.355	7184
510.427	6765
510.499	6152
510.571	6245
510.643	4828
510.715	7997
510.787	5307
510.859	5930
510.931	5120
511.003	7745
511.076	6931
511.148	4487
511.219	4499
511.291	8984
511.363	9169
511.435	4193
511.507	3032
511.579	4840
511.651	5497
511.723	3255
511.795	3913
511.867	5036
511.939	5182
512.010	9132
512.082	8449
512.154	4034
512.226	5094
512.298	8036
512.369	11479
512.441	8177
512.513	6882
512.585	5073
512.656	6818
512.728	6730
512.800	5181
512.871	5426
512.943	5909
513.015	4299
513.086	5505
513.158	5480
513.230	4755
513.301	6390
513.373	7844
513.444	4336
513.516	4928
513.588	3496
513.659	5584
513.731	6413
513.802	4257
513.874	9810
513.945	14272
514.016	5996
514.088	4663
514.159	4733
514.231	6820
514.302	9303
514.374	6207
514.445	5581
514.516	12826
514.588	7615
514.659	6414
514.730	10726
514.802	10479
514.873	9358
514.944	13215
515.016	8392
515.087	7199
515.158	9191
515.229	13639
515.301	11676
515.372	18316
515.443	11615
515.514	7390
515.585	5556
515.656	5932
515.728	5424
515.799	3203
515.870	5117
515.941	5023
516.012	4436
516.083	6994
516.154	6351
516.225	8182
516.296	7063
516.367	5491
516.438	6005
516.509	7304
516.580	9350
516.651	20708
516.722	70299
516.793	32470
516.864	9224
516.935	9830
517.006	10477
517.077	12075
517.148	25323
517.219	62336
517.289	91593
517.360	51118
517.431	20112
517.502	5188
517.573	6742
517.643	5540
517.714	6237
517.785	7525
517.856	5828
517.926	8561
517.997	7998
518.068	7506
518.138	11508
518.209	13416
518.280	40858
518.350	151697
518.421	50267
518.492	9296
518.562	6454
518.633	5880
518.703	4348
518.774	9564
518.845	15203
518.915	15762
518.986	8105
519.056	8392
519.127	14155
519.197	19993
519.268	51140
519.338	32720
519.408	7751
519.479	8905
519.549	5750
519.620	6285
519.690	4612
519.760	4627
519.831	3935
519.901	4222
519.971	3638
520.042	4055
520.112	5332
520.182	5360
520.253	7209
520.323	4493
520.393	5734
520.463	9793
520.534	4430
520.604	15582
520.674	7514
520.744	6277
520.814	13757
520.885	13530
520.955	16251
521.025	62256
521.095	22795
521.165	5851
521.235	3686
521.305	3646
521.375	3949
521.445	4527
521.515	4412
521.585	6463
521.655	4673
521.725	5029
521.795	5405
521.865	1458
521.935	7887
522.005	3785
522.075	3064
522.145	4495
522.215	3542
522.285	5496
522.355	7974
522.424	14945
522.494	12459
522.564	6754
522.634	10852
522.704	31717
522.774	10371
522.843	3760
522.913	3309
522.983	4786
523.053	2921
523.122	4197
523.192	4795
523.262	15000
523.331	13557
523.401	4416
523.471	2659
523.540	3513
523.610	1425
523.680	2107
523.749	2608
523.819	3409
523.888	2948
523.958	2116
524.027	2958
524.097	3153
524.166	3048
524.236	2541
524.305	4498
524.375	2367
524.444	1661
524.514	4232
524.583	2674
524.653	2565
524.722	4774
524.791	1884
524.861	4197
524.930	2048
524.999	2614
525.069	4453
525.138	2538
525.207	3179
525.277	3504
525.346	2263
525.415	3164
525.484	2727
525.554	2686
525.623	3122
525.692	2905
525.761	2528
525.830	3282
525.900	1950
525.969	4391
526.038	6147
526.107	7400
526.176	25737
526.245	20765
526.314	9153
526.383	16213
526.452	17005
526.522	33811
526.591	35881
526.660	15879
526.729	7944
526.797	10514
526.867	19492
526.935	93830
527.004	103420
527.073	45632
527.142	5219
527.211	3455
527.280	4215
527.349	3043
527.418	932
527.487	3460
527.555	1394
527.624	1589
527.693	37
527.762	2759
527.831	1142
527.899	2859
527.968	2179
528.037	527
528.106	2709
528.174	5235
528.243	4500
528.312	5148
528.380	7680
528.449	2171
528.518	3015
528.586	811
528.655	1976
528.723	1532
528.792	954
528.861	1391
528.929	850
528.998	2546
529.066	1374
529.135	1694
529.203	1266
529.272	344
529.340	2440
529.409	3333
529.477	1291
529.545	1468
529.614	4563
529.682	1845
529.751	3242
529.819	5592
529.887	2720
529.956	1684
530.024	2266
530.092	1304
530.161	2716
530.229	3460
530.297	1632
530.365	2172
530.434	2179
530.502	1721
530.570	2200
530.638	17
530.707	1561
530.775	2763
530.843	1159
530.911	1102
530.979	2072
531.047	1789
531.115	2509
531.183	1351
531.252	1643
531.320	1840
531.388	754
531.456	1919
531.524	275
531.592	2903
531.660	3507
531.728	2067
531.796	949
531.864	2279
531.932	1766
532.000	1964
532.067	1331
532.135	2425
532.203	3785
532.271	2080
532.339	5711
532.407	13364
532.475	8122
532.542	4521
532.610	5216
532.678	5516
532.746	25125
532.814	62250
532.881	13294
532.949	3697
533.017	2968
533.084	2502
533.152	1717
533.220	3121
533.287	1647
533.355	2029
533.423	2350
533.490	1624
533.558	1705
533.625	2950
533.693	2210
533.761	3128
533.828	2565
533.896	2402
533.963	5913
534.031	6615
534.098	8885
534.166	3253
534.233	2447
534.300	3343
534.368	2823
534.435	2721
534.503	3099
534.570	3345
534.637	1625
534.705	2586
534.772	2828
534.840	2887
534.907	12034
534.974	14338
535.041	3167
535.109	3415
535.176	1221
535.243	2398
535.310	2314
535.378	1581
535.445	1514
535.512	2047
535.579	2138
535.646	1163
535.714	2381
535.781	3549
535.848	3645
535.915	4607
535.982	3169
536.049	2865
536.116	4173
536.183	1510
536.250	2142
536.317	2365
536.384	3455
536.451	4145
536.518	4219
536.585	2000
536.652	4594
536.719	5874
536.786	3456
536.853	3205
536.920	5945
536.987	8204
537.053	6396
537.120	31196
537.187	24385
537.254	3202
537.321	1987
537.388	3221
537.454	1223
537.521	2481
537.588	1609
537.654	2716
537.721	3062
537.788	3403
537.855	1972
537.921	2064
537.988	1647
538.055	2440
538.121	2390
538.188	2846
538.254	2989
538.321	7764
538.388	4822
538.454	2197
538.521	1748
538.587	1152
538.654	2756
538.720	1111
538.787	2038
538.853	2453
538.920	2970
538.986	3259
539.053	2531
539.119	2652
539.185	1780
539.252	3005
539.318	3913
539.385	4467
539.451	3143
539.517	4151
539.583	4609
539.650	8056
539.716	21424
539.782	6015
539.849	2005
539.915	3091
539.981	1841
540.047	3255
540.114	2868
540.180	3874
540.246	2259
540.312	4030
540.378	7054
540.444	8430
540.510	8247
540.576	24427
540.643	6352
540.709	1619
540.775	2380
540.841	2936
540.907	4937
540.973	6821
541.039	5067
541.105	4958
541.171	2130
541.237	2289
541.303	3096
541.369	4216
541.435	4013
541.500	6371
541.566	3406
541.632	2322
541.698	2563
541.764	3001
541.830	1995
541.896	1138
541.961	2646
542.027	2028
542.093	2393
542.159	2957
542.224	2198
542.290	5135
542.356	6023
542.421	8598
542.487	4660
542.553	2678
542.618	3784
542.684	2481
542.750	2311
542.815	4883
542.881	5323
542.947	20938
543.012	14139
543.078	3106
543.143	1777
543.209	2818
543.274	2682
543.340	3412
543.405	7534
543.471	11150
543.536	4052
543.602	3674
543.667	1607
543.732	3531
543.798	2323
543.863	2377
543.928	1268
543.994	1906
544.059	2533
544.124	2938
544.190	2154
544.255	2682
544.320	2397
544.386	2086
544.451	4063
544.516	4252
544.581	3012
544.646	12682
544.712	20125
544.777	5228
544.842	3927
544.907	3885
544.972	3413
545.037	3545
545.102	4740
545.168	3434
545.233	3862
545.298	4583
545.363	3436
545.428	4836
545.493	8495
545.558	16405
545.623	6875
545.688	2958
545.753	3550
545.818	3089
545.883	4460
545.947	2944
546.012	3815
546.077	3882
546.142	4206
546.207	3119
546.272	5372
546.337	4147
546.401	4484
546.466	3757
546.531	2446
546.596	4480
546.661	3646
546.725	4920
546.790	3333
546.855	4233
546.919	2213
546.984	4576
547.049	3966
547.113	5158
547.178	3416
547.243	6451
547.307	5215
547.372	6495
547.436	6457
547.501	5579
547.565	5599
547.630	6039
547.695	5931
547.759	6226
547.823	5930
547.888	4704
547.952	5100
548.017	5945
548.081	6514
548.146	7851
548.210	7402
548.274	5188
548.339	5542
548.403	5850
548.468	4222
548.532	5254
548.596	5071
548.660	3858
548.725	5844
548.789	5816
548.853	7617
548.917	5647
548.982	6655
549.046	8131
549.110	4667
549.174	5322
549.238	5668
549.303	4156
549.367	6123
549.431	5116
549.495	4755
549.559	4312
549.623	5396
549.687	6285
549.751	8046
549.815	7341
549.879	7453
549.943	4839
550.007	7184
550.071	7295
550.135	8541
550.199	6120
550.263	6764
550.327	7222
550.391	7740
550.455	6929
550.519	7193
550.582	7264
550.646	9006
550.710	8906
550.774	7998
550.838	8223
550.901	7866
550.965	9160
551.029	8297
551.093	10313
551.156	11613
551.220	18468
551.284	20241
551.347	12108
551.411	20414
551.475	21189
551.538	9277
551.602	7435
551.666	6824
551.729	5370
551.793	7371
551.856	7580
551.920	6976
551.983	7045
552.047	6544
552.110	6416
552.174	5991
552.237	7044
552.301	6317
552.364	5729
552.428	6111
552.491	5176
552.554	6386
552.618	5906
552.681	6957
552.745	6012
552.808	8415
552.871	8343
552.934	7856
552.998	7208
553.061	6882
553.124	7364
553.187	6895
553.251	8585
553.314	8965
553.377	9923
553.440	15995
553.503	46095
553.567	72125
553.630	13013
553.693	6920
553.756	7353
553.819	6160
553.882	6466
553.945	6434
554.008	5436
554.071	4260
554.134	6637
554.197	5658
554.260	5397
554.323	7249
554.386	6832
554.449	5856
554.512	6719
554.575	4394
554.638	6300
554.701	5516
554.764	5747
554.827	5481
554.889	5903
554.952	4349
555.015	3867
555.078	4824
555.141	5313
555.203	4800
555.266	5311
555.329	5612
555.391	4699
555.454	4501
555.517	4794
555.580	4329
555.642	3880
555.705	3741
555.768	5317
555.830	4984
555.893	3739
555.955	4733
556.018	4399
556.080	3638
556.143	3536
556.206	3728
556.268	5292
556.330	4849
556.393	4267
556.455	4520
556.518	5953
556.580	6346
556.643	4200
556.705	4234
556.767	2742
556.830	4947
556.892	4589
556.955	5979
557.017	4970
557.079	5096
557.142	3721
557.204	3719
557.266	8145
557.328	7135
557.391	3692
557.453	3420
557.515	3376
557.577	4582
557.639	5089
557.701	3864
557.764	3362
557.826	3267
557.888	4597
557.950	3746
558.012	3649
558.074	4090
558.136	8859
558.198	18932
558.260	8746
558.322	4028
558.384	4568
558.446	5092
558.508	6449
558.570	8286
558.632	11884
558.694	17403
558.756	17722
558.818	44046
558.880	110018
558.942	33213
559.003	22066
559.065	10891
559.127	5929
559.189	6113
559.251	7250
559.312	9615
559.374	20015
559.436	63112
559.498	32182
559.559	6592
559.621	6299
559.683	7302
559.744	11705
559.806	29083
559.868	43332
559.929	9343
559.991	7283
560.052	8407
560.114	19363
560.176	13803
560.237	11914
560.299	17986
560.360	5727
560.422	3656
560.483	3733
560.545	3804
560.606	3484
560.667	3777
560.729	4243
560.790	2823
560.852	3384
560.913	3832
560.974	3522
561.036	3129
561.097	4090
561.158	4397
561.220	4769
561.281	3247
561.342	4245
561.403	4000
561.465	4891
561.526	11083
561.587	14782
561.648	4210
561.709	3851
561.771	3649
561.832	4284
561.893	3372
561.954	3777
562.015	2897
562.076	3842
562.137	4474
562.198	3846
562.259	4368
562.320	3824
562.381	4040
562.442	5829
562.503	4318
562.564	4357
562.625	4138
562.686	3773
562.747	4068
562.808	4015
562.869	4453
562.930	5501
562.991	4490
563.051	4989
563.112	3726
563.173	4491
563.234	3318
563.294	5131
563.355	3658
563.416	5013
563.477	3460
563.537	3294
563.598	4249
563.659	4883
563.720	4133
563.780	5430
563.841	4513
563.901	4644
563.962	4748
564.023	4202
564.083	4842
564.144	4456
564.204	4947
564.265	4556
564.325	4924
564.386	9791
564.446	8516
564.507	5308
564.567	4418
564.628	5214
564.688	4384
564.749	4204
564.809	5170
564.869	6171
564.930	4835
564.990	5026
565.050	4918
565.111	5126
565.171	4631
565.231	4768
565.292	6639
565.352	4358
565.412	4987
565.472	4747
565.532	5614
565.593	4031
565.653	5715
565.713	6357
565.773	5269
565.833	6675
565.893	7994
565.953	5983
566.013	5547
566.074	7175
566.134	8069
566.194	11398
566.254	11600
566.314	9197
566.374	7008
566.434	7590
566.494	8406
566.554	7675
566.614	9492
566.673	8816
566.733	10262
566.793	9957
566.853	12063
566.913	11727
566.973	12201
567.033	11802
567.092	11343
567.152	11693
567.212	11324
567.272	12761
567.331	13115
567.391	13812
567.451	14789
567.511	17506
567.570	16664
567.630	12787
567.690	12709
567.749	14385
567.809	15846
567.868	18210
567.928	20651
567.988	24373
568.047	29058
568.107	36868
568.166	49440
568.226	75670
568.285	103379
568.345	90948
568.404	75003
568.464	64861
568.523	61023
568.582	62223
568.642	69277
568.701	84357
568.761	119037
568.820	176810
568.879	176953
568.939	135863
568.998	103240
569.057	79384
569.116	64454
569.176	51528
569.235	43157
569.294	35536
569.353	30971
569.413	27936
569.472	23964
569.531	21411
569.590	18904
569.649	16525
569.708	15354
569.767	15553
569.827	14462
569.886	12503
569.945	11439
570.004	11429
570.063	10329
570.122	9900
570.181	10167
570.240	9351
570.299	10111
570.358	9100
570.417	7374
570.475	7511
570.534	8838
570.593	8175
570.652	8136
570.711	6966
570.770	7449
570.829	7577
570.887	6971
570.946	7566
571.005	6174
571.064	6092
571.122	6314
571.181	6800
571.240	6831
571.299	6018
571.357	6261
571.416	6646
571.475	6433
571.533	6805
571.592	5872
571.650	6272
571.709	5140
571.768	5079
571.826	5431
571.885	6036
571.943	4820
572.002	5071
572.060	5545
572.119	5252
572.177	5416
572.236	4454
572.294	4510
572.352	4698
572.411	4251
572.469	5133
572.528	4436
572.586	4643
572.644	4556
572.703	5770
572.761	4602
572.819	4541
572.877	4675
572.936	4960
572.994	4932
573.052	4474
573.110	4180
573.169	4727
573.227	3942
573.285	4229
573.343	4112
573.401	4399
573.459	4584
573.517	3862
573.576	4869
573.634	4447
573.692	3908
573.750	4952
573.808	4339
573.866	4643
573.924	5620
573.982	5763
574.040	4916
574.098	5284
574.155	4378
574.213	4675
574.271	3968
574.329	4122
574.387	4243
574.445	3780
574.503	4601
574.560	4902
574.618	3564
574.676	4230
574.734	3640
574.792	4727
574.849	4097
574.907	3432
574.965	3605
575.022	4442
575.080	4351
575.138	3812
575.195	4027
575.253	4357
575.311	4182
575.368	4119
575.426	3452
575.483	4668
575.541	4331
575.598	3779
575.656	4201
575.713	4505
575.771	4872
575.828	4562
575.886	5059
575.943	4250
576.001	4949
576.058	4400
576.115	5320
576.173	5271
576.230	5905
576.287	6994
576.345	5518
576.402	4392
576.459	5874
576.517	4825
576.574	5565
576.631	5941
576.688	5264
576.746	4537
576.803	4913
576.860	4432
576.917	4686
576.974	5189
577.031	4998
577.089	4266
577.146	4519
577.203	4691
577.260	6184
577.317	5650
577.374	6025
577.431	5275
577.488	5752
577.545	4577
577.602	5808
577.659	5766
577.716	5731
577.773	6438
577.830	5058
577.886	5404
577.943	5798
578.000	4973
578.057	6333
578.114	6591
578.171	6592
578.227	8091
578.284	7927
578.341	7671
578.398	6839
578.454	6550
578.511	5983
578.568	7230
578.625	6017
578.681	6456
578.738	4997
578.794	5435
578.851	5592
578.908	5973
578.964	5569
579.021	6227
579.077	5367
579.134	5930
579.190	5363
579.247	5060
579.303	5638
579.360	4756
579.416	4934
579.473	5015
579.529	5545
579.586	5590
579.642	6031
579.698	5896
579.755	5577
579.811	6440
579.867	6914
579.924	6258
579.980	6264
580.036	7981
580.093	8955
580.149	12215
580.205	13781
580.261	10408
580.317	8971
580.374	8244
580.430	9585
580.486	8354
580.542	7597
580.598	7126
580.619	7105
580.654	7071
580.692	6713
580.710	6543
580.765	6012
580.767	5997
580.823	7157
580.838	7096
580.879	6931
580.911	7151
580.935	7331
580.984	6750
580.991	6676
581.047	7413
581.057	7366
581.103	7154
581.130	7603
581.159	8066
581.203	7893
581.215	7854
581.270	9009
581.276	8867
581.326	7515
581.349	7520
581.382	7540
581.422	7308
581.438	7210
581.494	7943
581.494	7935
581.550	7260
581.567	7385
581.606	7681
581.640	7515
581.661	7376
581.713	7956
581.717	8010
581.773	7593
581.786	7779
581.829	8417
581.859	7970
581.885	7576
581.932	7563
581.940	7566
581.996	7870
582.004	8021
582.052	8702
582.077	8168
582.107	7673
582.150	8503
582.163	8733
582.219	8065
582.223	8104
582.274	8582
582.296	8566
582.330	8526
582.368	8870
582.386	9041
582.441	8821
582.441	8820
582.497	9288
582.514	9361
582.552	9768
582.587	10427
582.608	10742
582.659	9212
582.663	9086
582.719	9434
582.732	9420
582.774	9449
582.805	9174
582.830	9010
582.877	9836
582.885	9947
582.941	9201
582.950	9384
582.996	10433
583.023	10610
583.052	10839
583.095	11686
583.107	11926
583.162	12646
583.168	12750
583.218	13479
583.240	12853
583.273	11826
583.313	11641
583.328	11686
583.384	11793
583.385	11780
583.439	10847
583.458	10909
583.494	11302
583.531	10670
583.549	10392
583.603	11808
583.605	11848
583.660	11438
583.676	11584
583.715	11913
583.748	11920
583.770	11944
583.820	11855
583.825	11851
583.881	12270
583.893	12268
583.936	12392
583.965	12661
583.991	12666
584.038	12764
584.046	12822
584.101	12310
584.110	12249
584.156	12088
584.183	12531
584.211	12944
584.255	13575
584.266	13749
584.321	13214
584.328	13353
584.376	14393
584.400	14162
584.431	13851
584.472	13728
584.486	13672
584.541	13848
584.545	13868
584.596	14219
584.617	14058
584.651	14256
584.689	15272
584.706	15593
584.761	15911
584.762	15905
584.816	15587
584.834	15988
584.871	16897
584.906	16628
584.926	16392
584.978	16916
584.980	16956
585.035	17591
585.051	17816
585.090	18466
585.123	18974
585.145	19222
585.195	19142
585.200	19189
585.254	19977
585.267	20394
585.309	21653
585.340	22907
585.364	23659
585.412	22771
585.419	22689
585.473	23120
585.484	23296
585.528	24489
585.556	25806
585.583	27918
585.628	31821
585.637	33368
585.692	47139
585.700	49820
585.747	60762
585.772	57246
585.801	46135
585.845	30206
585.856	28173
585.910	26649
585.917	26415
585.965	25498
585.989	25292
586.019	25590
586.061	26129
586.074	26295
586.128	27187
586.133	27239
586.183	27862
586.205	28201
586.237	28961
586.277	29705
586.292	29967
586.346	30558
586.349	30593
586.401	31076
586.421	31360
586.455	32669
586.493	34382
586.509	36017
586.564	41686
586.565	41847
586.618	53647
586.637	55988
586.672	50107
586.709	42159
586.727	40494
586.781	39173
586.781	39194
586.835	39492
586.853	39640
586.889	40700
586.925	41215
586.944	41701
586.996	43831
586.998	43899
587.052	45780
587.068	46187
587.106	47620
587.140	48692
587.161	49296
587.212	51314
587.215	51485
587.269	55229
587.284	56001
587.323	57271
587.356	58681
587.377	60136
587.427	63358
587.431	63598
587.485	67039
587.499	67816
587.539	70480
587.571	72275
587.593	74075
587.643	79897
587.648	80465
587.702	85788
587.715	87096
587.755	92049
587.786	96481
587.810	99747
587.858	106116
587.864	107080
587.917	117062
587.930	119412
587.971	128556
588.001	135791
588.025	141381
588.073	152461
588.079	154292
588.133	171677
588.145	175870
588.187	193224
588.217	205961
588.241	217585
588.288	241261
588.295	245116
588.348	280237
588.360	287869
588.402	322102
588.431	347612
588.456	373573
588.503	426730
588.510	436202
588.564	515489
588.575	532810
588.617	621125
588.646	686348
588.671	761897
588.718	909077
588.725	937603
588.778	1157360
588.789	1199945
588.832	1330321
588.861	1400312
588.886	1347784
588.932	1187705
588.939	1168918
588.993	1023768
589.004	1019276
589.047	1289329
589.075	1447539
589.100	1430915
589.147	1331017
589.154	1306476
589.207	1092327
589.218	1050491
589.261	973781
589.290	928407
589.314	939891
589.361	974203
589.368	992620
589.421	1153329
589.433	1186470
589.475	1289545
589.504	1339921
589.528	1277197
589.576	1108630
589.582	1117832
589.635	1276870
589.647	1303131
589.689	1216373
589.718	1119992
589.742	997262
589.790	749936
589.795	732328
589.849	571922
589.861	536258
589.902	464790
589.932	413231
589.955	380977
590.004	315783
590.009	311765
590.062	268458
590.075	258156
590.115	234495
590.146	216224
590.168	207107
590.218	187262
590.222	186097
590.275	170003
590.289	165721
590.328	155534
590.360	147385
590.381	143099
590.431	132665
590.435	132174
590.488	122268
590.503	119393
590.541	114403
590.574	109947
590.594	107291
590.645	100170
590.647	100085
590.700	95577
590.716	94045
590.753	90071
590.787	86207
590.806	85121
590.859	82247
590.859	82284
590.912	78150
590.930	76791
590.965	75121
591.001	73256
591.018	72333
591.071	69514
591.072	69390
591.124	67579
591.143	66776
591.177	64803
591.214	62590
591.230	62638
591.283	62602
591.285	62496
591.336	59598
591.356	58374
591.389	57842
591.427	56843
591.442	56340
591.495	54175
591.498	53937
591.547	52796
591.569	52143
591.600	51336
591.640	50028
591.653	50181
591.706	50555
591.711	50507
591.759	50023
591.782	49634
591.811	50660
591.853	51915
591.864	51287
591.917	47526
591.924	46883
591.969	46383
591.995	46031
592.022	45965
592.066	45528
592.075	45798
592.127	46967
592.137	47079
592.180	49540
592.208	50962
592.233	48628
592.279	43799
592.285	43563
592.338	40862
592.350	40152
592.390	39538
592.421	38981
592.443	38968
592.491	38628
592.495	38711
592.548	38748
592.562	38675
592.600	38031
592.633	37330
592.653	37106
592.704	36128
592.705	36321
592.775	35598
592.846	36251
592.916	36293
592.987	36243
593.058	36160
593.128	34650
593.199	33909
593.270	33036
593.341	31805
593.411	32421
593.482	31291
593.553	31284
593.623	30487
593.694	31237
593.764	32922
593.835	30409
593.906	29000
593.976	29267
594.047	30348
594.117	33199
594.188	35275
594.258	27166
594.329	27446
594.399	28147
594.470	28205
594.540	27191
594.611	27164
594.681	27111
594.751	27059
594.822	27932
594.892	27988
594.963	28032
595.033	27516
595.103	28387
595.174	29583
595.244	39336
595.314	47487
595.384	28532
595.455	26988
595.525	26865
595.595	27460
595.665	27549
595.736	25983
595.806	26482
595.876	27036
595.946	26116
596.016	25986
596.087	26207
596.157	25608
596.227	25600
596.297	25879
596.367	26820
596.437	30180
596.507	37313
596.577	45113
596.647	28579
596.717	25570
596.787	26820
596.857	26039
596.927	26271
596.997	26437
597.067	26220
597.137	28675
597.207	28005
597.277	27327
597.347	26140
597.417	25816
597.487	26263
597.557	26981
597.626	26515
597.696	29641
597.766	33102
597.836	42263
597.906	28906
597.975	25119
598.045	24702
598.115	25562
598.185	24719
598.254	27126
598.324	27461
598.394	27329
598.464	27245
598.533	26434
598.603	25001
598.672	25843
598.742	26402
598.812	25792
598.881	25599
598.951	24582
599.020	24530
599.090	25432
599.159	25467
599.229	24981
599.299	25181
599.368	25685
599.437	24981
599.507	24536
599.576	25061
599.646	25527
599.715	26130
599.785	24981
599.854	25913
599.924	27669
599.993	26913
600.062	24098
600.132	24232
600.201	24131
600.270	27336
600.340	26060
600.409	24494
600.478	26949
600.547	26078
600.617	25766
600.686	24653
600.755	23038
600.824	23317
600.894	22711
600.963	22930
601.032	22274
601.101	24110
601.170	23077
601.239	22888
601.308	23715
601.378	23342
601.447	22502
601.516	22456
601.585	22516
601.654	23285
601.723	23917
601.792	24040
601.861	24417
601.930	26421
601.999	26122
602.068	23510
602.137	23241
602.206	23886
602.275	24261
602.343	25941
602.412	25355
602.481	24222
602.550	23950
602.619	24313
602.688	25090
602.756	24472
602.825	23992
602.894	24771
602.963	24399
603.032	25495
603.100	25205
603.169	24927
603.238	25982
603.307	23954
603.375	24445
603.444	25028
603.513	23739
603.581	24283
603.650	24729
603.719	23204
603.787	22572
603.856	22964
603.924	24120
603.993	23315
604.061	23840
604.130	24376
604.198	25459
604.267	24746
604.335	24954
604.404	24341
604.472	25454
604.541	25859
604.609	25499
604.678	26100
604.746	25526
604.815	27519
604.883	27327
604.951	26520
605.020	27056
605.088	26408
605.156	25508
605.225	26315
605.293	24968
605.361	25595
605.429	26815
605.498	26493
605.566	26649
605.634	27084
605.702	27095
605.771	27600
605.839	28089
605.907	27630
605.975	26621
606.043	26955
606.111	26193
606.180	28414
606.248	28210
606.316	29492
606.384	27978
606.452	30158
606.520	27046
606.588	25329
606.656	24023
606.724	22793
606.792	22903
606.860	20861
606.928	19195
606.996	19807
607.064	19345
607.132	19721
607.200	20053
607.267	20951
607.335	20416
607.403	21263
607.471	20876
607.539	20436
607.607	20446
607.674	18575
607.742	20390
607.810	19961
607.878	19415
607.946	18970
608.013	19431
608.081	19771
608.149	19448
608.216	20605
608.284	20569
608.352	20274
608.419	20799
608.487	29088
608.555	22767
608.622	19982
608.690	19907
608.757	22090
608.825	21722
608.893	21550
608.960	22322
609.028	24372
609.095	30846
609.163	22913
609.230	19429
609.298	19603
609.365	18627
609.432	19360
609.500	20119
609.567	22600
609.635	24273
609.702	26064
609.769	25971
609.837	24812
609.904	20563
609.971	19129
610.039	21582
610.106	26423
610.173	43998
610.241	94701
610.308	73361
610.375	38025
610.442	22059
610.509	19530
610.577	19491
610.644	19873
610.711	19112
610.778	20329
610.845	20133
610.912	22047
610.980	23533
611.047	27473
611.114	23432
611.181	20435
611.248	19506
611.315	22155
611.382	21902
611.449	21638
611.516	23141
611.583	22272
611.650	22602
611.717	21847
611.784	21603
611.851	23543
611.918	25643
611.984	29383
612.051	42267
612.118	80618
612.185	193927
612.252	128974
612.319	34139
612.386	27171
612.452	26159
612.519	26880
612.586	35014
612.653	28416
612.719	24820
612.786	23075
612.853	22012
612.919	21132
612.986	22071
613.053	21088
613.120	20305
613.186	17738
613.253	21116
613.319	19859
613.386	19489
613.453	20438
613.519	22085
613.586	22247
613.652	25365
613.719	22625
613.785	22938
613.852	21334
613.918	20290
613.985	23415
614.051	26606
614.118	41633
614.184	40099
614.250	21897
614.317	20997
614.383	20240
614.449	19985
614.516	20500
614.582	22664
614.648	20293
614.715	19633
614.781	20862
614.847	21806
614.914	21488
614.980	20449
615.046	21738
615.112	20388
615.179	21776
615.245	24624
615.311	31345
615.377	50790
615.443	56117
615.509	32933
615.575	26211
615.642	24977
615.708	26113
615.774	27919
615.840	31789
615.906	39279
615.972	58485
616.038	112653
616.104	166608
616.170	277728
616.236	236784
616.302	58998
616.368	38877
616.434	29752
616.500	28806
616.565	30079
616.631	33333
616.697	29605
616.763	29775
616.829	37099
616.895	59019
616.961	57783
617.026	32743
617.092	24301
617.158	23898
617.224	22649
617.289	22554
617.355	21985
617.421	23404
617.487	23925
617.552	21927
617.618	20554
617.684	20087
617.749	21693
617.815	20377
617.880	19211
617.946	20450
618.012	20651
618.077	20905
618.143	19914
618.208	20582
618.274	21703
618.339	22340
618.405	19099
618.470	20140
618.536	20773
618.601	23527
618.667	21857
618.732	20517
618.798	18984
618.863	19441
618.928	18640
618.994	21452
619.059	21691
619.124	23998
619.190	20497
619.255	19171
619.320	20637
619.386	19709
619.451	18141
619.516	19620
619.581	19645
619.647	19323
619.712	19747
619.777	20016
619.842	19006
619.907	19329
619.972	19782
620.038	18936
620.103	18774
620.168	18358
620.233	18584
620.298	19408
620.363	19002
620.428	19236
620.493	18757
620.558	19510
620.623	18482
620.688	19656
620.753	19754
620.818	19376
620.883	18489
620.948	20267
621.013	19633
621.078	19904
621.143	19516
621.207	23341
621.272	20980
621.337	20578
621.402	24127
621.467	29962
621.532	30920
621.596	24680
621.661	22315
621.726	21574
621.791	21611
621.855	22468
621.920	23210
621.985	25138
622.049	28095
622.114	27427
622.179	24145
622.243	25620
622.308	25458
622.373	26321
622.437	24532
622.502	23415
622.566	24224
622.631	23132
622.695	25019
622.760	24410
622.824	23251
622.889	23642
622.953	24289
623.018	27997
623.082	26904
623.147	24224
623.211	22930
623.276	23373
623.340	21623
623.404	22749
623.469	22718
623.533	21785
623.597	22236
623.662	22213
623.726	20936
623.790	20450
623.854	20283
623.919	22349
623.983	20898
624.047	21598
624.111	19847
624.176	20722
624.240	20776
624.304	23615
624.368	20592
624.432	20452
624.496	22377
624.560	22567
624.625	21936
624.689	21645
624.753	20800
624.817	20021
624.881	20102
624.945	19860
625.009	19928
625.073	20083
625.137	19940
625.201	22780
625.265	23219
625.329	20291
625.393	20199
625.456	20197
625.520	20907
625.584	23050
625.648	28369
625.712	44114
625.776	95309
625.839	108668
625.903	42493
625.967	24797
626.031	41571
626.095	62800
626.158	23822
626.222	18003
626.286	18156
626.349	16354
626.413	14986
626.477	17889
626.540	15659
626.604	14992
626.668	16829
626.731	15761
626.795	16970
626.858	17858
626.922	16089
626.986	16523
627.049	14945
627.113	15805
627.176	15088
627.240	14719
627.303	15002
627.366	15712
627.430	14984
627.493	16021
627.557	15186
627.620	16756
627.684	14917
627.747	16282
627.810	13832
627.874	14387
627.937	13508
628.000	16060
628.064	15101
628.127	12388
628.190	15003
628.253	15255
628.317	13983
628.380	13225
628.443	13698
628.506	13052
628.569	13612
628.632	12562
628.696	12590
628.759	13618
628.822	11900
628.885	12381
628.948	13041
629.011	12640
629.074	12225
629.137	11620
629.200	12141
629.263	14226
629.326	11047
629.389	12054
629.452	11663
629.515	12596
629.578	11538
629.641	12534
629.704	12204
629.767	12348
629.830	12154
629.892	11047
629.955	11024
630.018	13382
630.081	11097
630.144	13862
630.207	10269
630.269	14219
630.332	13132
630.395	11994
630.458	10745
630.520	10921
630.583	11728
630.646	11283
630.708	9700
630.771	11057
630.834	11252
630.896	10103
630.959	9777
631.021	9741
631.084	10431
631.146	12504
631.209	13067
631.272	10573
631.334	9811
631.397	9576
631.459	9275
631.522	10356
631.584	10522
631.646	10658
631.709	10673
631.771	12479
631.834	10759
631.896	10237
631.958	8769
632.021	9676
632.083	9218
632.145	10551
632.208	9078
632.270	10825
632.332	9251
632.395	9965
632.457	10989
632.519	9167
632.581	9951
632.643	8818
632.706	10088
632.768	8361
632.830	9607
632.892	9501
632.954	9585
633.016	9957
633.078	7924
633.141	8231
633.203	8796
633.265	8952
633.327	7759
633.389	9425
633.451	9712
633.513	10406
633.575	11859
633.637	9417
633.698	8361
633.760	9603
633.822	8393
633.884	9104
633.946	7649
634.008	9021
634.070	8894
634.132	10836
634.193	9512
634.255	9571
634.317	9283
634.379	9544
634.441	8842
634.502	9416
634.564	8694
634.626	8566
634.687	8917
634.749	8577
634.811	7861
634.873	7255
634.934	8007
634.996	8705
635.057	7614
635.119	7686
635.181	8459
635.242	9085
635.304	6867
635.365	9702
635.427	7379
635.488	7521
635.550	7484
635.611	7999
635.673	6030
635.734	9492
635.796	7940
635.857	9097
635.918	8483
635.980	10170
636.041	8058
636.102	9317
636.164	8778
636.225	9596
636.286	6721
636.348	8682
636.409	7804
636.470	7745
636.531	8925
636.593	8643
636.654	8706
636.715	7549
636.776	7707
636.838	6924
636.899	8365
636.960	7840
637.021	6454
637.082	6922
637.143	7070
637.204	6033
637.265	6168
637.326	6890
637.387	6140
637.448	5080
637.509	7671
637.570	7014
637.631	7501
637.692	5680
637.753	5131
637.814	7146
637.875	5996
637.936	7905
637.997	5984
638.058	6016
638.119	7881
638.179	6520
638.240	6129
638.301	7097
638.362	6379
638.423	6921
638.483	7239
638.544	5187
638.605	6299
638.666	5704
638.726	7052
638.787	6716
638.848	5548
638.908	5582
638.969	6274
639.030	6437
639.090	5172
639.151	5399
639.211	6359
639.272	8088
639.332	9295
639.393	6892
639.453	5401
639.514	6084
639.574	5634
639.635	5616
639.695	6278
639.756	4540
639.816	5855
639.877	6020
639.937	7987
639.997	9339
640.058	5676
640.118	5177
640.178	5929
640.239	5276
640.299	4979
640.359	5283
640.420	5957
640.480	5553
640.540	5877
640.600	5146
640.661	5491
640.721	4577
640.781	7984
640.841	4971
640.901	6235
640.961	6411
641.021	5785
641.082	5452
641.142	6224
641.202	5904
641.262	4912
641.322	6544
641.382	4501
641.442	6220
641.502	5703
641.562	6068
641.622	4819
641.682	5312
641.742	5382
641.802	5858
641.861	6021
641.921	5539
641.981	6045
642.041	5466
642.101	6103
642.161	5156
642.221	5477
642.280	5439
642.340	5139
642.400	3781
642.460	5762
642.519	4901
642.579	5701
642.639	6358
642.698	2744
642.758	7352
642.818	4218
642.877	5001
642.937	4378
642.997	5999
643.056	6779
643.116	4143
643.175	5660
643.235	5093
643.294	5620
643.354	5687
643.414	4761
643.473	5875
643.532	6008
643.592	7772
643.651	12014
643.711	18780
643.770	33896
643.830	78884
643.889	169719
643.948	41666
644.008	9444
644.067	6733
644.126	4115
644.186	4975
644.245	5151
644.304	3899
644.363	5653
644.423	3975
644.482	5120
644.541	4720
644.600	3632
644.659	5887
644.719	5297
644.778	8009
644.837	9050
644.896	16625
644.955	33180
645.014	14326
645.073	6497
645.132	4452
645.191	5310
645.250	4864
645.309	6085
645.368	4696
645.427	5036
645.486	5745
645.545	9605
645.604	3898
645.663	5083
645.722	4588
645.781	5228
645.840	4673
645.898	5764
645.957	8543
646.016	8922
646.075	16235
646.134	28552
646.192	75434
646.251	112002
646.310	17088
646.369	6461
646.427	6082
646.486	4151
646.545	4511
646.603	5098
646.662	5462
646.721	3627
646.779	3778
646.838	4024
646.896	5048
646.955	4933
647.014	6821
647.072	9047
647.131	21388
647.189	10415
647.248	4163
647.306	5020
647.365	4083
647.423	2876
647.481	4946
647.540	2520
647.598	3706
647.657	2864
647.715	4558
647.773	2868
647.832	4452
647.890	2765
647.948	4333
648.007	4457
648.065	2902
648.123	2225
648.181	4767
648.240	5002
648.298	4395
648.356	3250
648.414	3793
648.472	4211
648.531	4262
648.589	3869
648.647	3438
648.705	3564
648.763	3216
648.821	3540
648.879	4048
648.937	3519
648.995	3846
649.053	3625
649.111	5918
649.169	7928
649.227	13125
649.285	22030
649.343	60853
649.401	31263
649.459	11210
649.516	9341
649.574	6192
649.632	13528
649.690	16519
649.748	9055
649.806	7618
649.863	12591
649.921	16343
649.979	10049
650.037	4851
650.094	2823
650.152	4310
650.210	2378
650.268	4016
650.325	3510
650.383	3239
650.440	2877
650.498	4218
650.556	4077
650.613	3381
650.671	3777
650.728	3478
650.786	4783
650.843	3427
650.901	2239
650.958	3964
651.016	3078
651.073	2424
651.131	2099
651.188	2322
651.246	3812
651.303	2586
651.360	3999
651.418	3263
651.475	3126
651.532	2673
651.590	3183
651.647	2281
651.704	1324
651.762	2388
651.819	3095
651.876	2776
651.933	2166
651.990	2703
652.048	1409
652.105	2972
652.162	3332
652.219	2013
652.276	2806
652.333	3299
652.390	1324
652.448	2988
652.505	3047
652.562	3331
652.619	3382
652.676	5189
652.733	5549
652.790	3260
652.847	1325
652.904	3367
652.961	1288
653.017	2111
653.074	2903
653.131	2380
653.188	1051
653.245	1594
653.302	2442
653.359	1962
653.415	2726
653.472	2422
653.529	2435
653.586	2049
653.642	1544
653.699	3492
653.756	1655
653.813	2071
653.869	3229
653.926	1724
653.983	1587
654.039	3430
654.096	2683
654.152	4038
654.209	1857
654.266	3178
654.322	1715
654.379	3858
654.435	3099
654.492	3851
654.548	4481
654.605	7387
654.661	3913
654.717	2758
654.774	3198
654.830	3125
654.887	3077
654.943	3105
655.000	2899
655.056	3141
655.112	2844
655.168	1925
655.225	2301
655.281	4209
655.337	4974
655.394	9981
655.450	6350
655.506	5383
655.562	8556
655.618	7197
655.675	1794
655.731	3080
655.787	2666
655.843	3532
655.899	2215
655.955	3135
656.011	2256
656.067	2222
656.123	3466
656.179	3315
656.235	4611
656.291	2090
656.347	3866
656.403	3508
656.459	3575
656.515	3381
656.571	4290
656.627	3918
656.683	3078
656.739	3505
656.795	2242
656.850	2609
656.906	2800
656.962	3540
657.018	1282
657.074	2176
657.129	2834
657.185	4135
657.241	3455
657.297	3177
657.352	2420
657.408	3511
657.464	3764
657.519	2242
657.575	1314
657.630	2645
657.686	2530
657.742	1817
657.797	2591
657.853	2973
657.908	3494
657.964	1879
658.019	3131
658.075	3021
658.130	2986
658.186	1386
658.241	2434
658.297	1572
658.352	1995
658.407	2359
658.463	1912
658.518	2739
658.573	1930
658.629	1470
658.684	2430
658.739	3166
658.795	886
658.850	2065
658.905	1843
658.960	2637
659.016	851
659.071	2879
659.126	2300
659.181	2050
659.236	4545
659.291	4659
659.346	2840
659.401	2629
659.457	3372
659.512	3720
659.567	3650
659.622	3057
659.677	1753
659.732	1780
659.787	3068
659.842	3530
659.897	4990
659.952	3024
660.007	2281
660.061	2419
660.116	1664
660.171	2223
660.226	2351
660.281	2836
660.336	1728
660.391	3321
660.445	1459
660.500	2635
660.555	1773
660.610	1204
660.664	2514
660.719	2224
660.774	2218
660.828	1843
660.883	1608
660.938	1840
660.992	1194
661.047	2563
661.101	2163
661.156	2368
661.211	2108
661.265	2117
661.320	2385
661.374	1348
661.429	1683
661.483	2730
661.538	1228
661.592	1720
661.647	2270
661.701	3217
661.755	1837
661.810	2155
661.864	1160
661.919	2293
661.973	2595
662.027	2025
662.081	1505
662.136	2186
662.190	2086
662.244	2767
662.299	1596
662.353	3058
662.407	1806
662.461	2120
662.515	2474
662.569	2580
662.624	2831
662.678	2647
662.732	2473
662.786	1579
662.840	1703
662.894	2349
662.948	2310
663.002	2743
663.056	1826
663.110	2468
663.164	1727
663.218	3051
663.272	2225
663.326	2709
663.380	2444
663.434	2528
663.488	1725
663.542	2334
663.595	2392
663.649	1816
663.703	1947
663.757	2948
663.811	2622
663.864	1771
663.918	1570
663.972	2486
664.026	2621
664.079	1554
664.133	1574
664.187	1944
664.240	1706
664.294	2526
664.348	2395
664.401	2553
664.455	2188
664.508	1710
664.562	1922
664.615	3107
664.669	1879
664.722	2816
664.776	1529
664.829	2383
664.883	2064
664.936	2054
664.990	2239
665.043	2668
665.097	2397
665.150	3940
665.203	1835
665.257	2768
665.310	2485
665.363	2389
665.417	2069
665.470	2490
665.523	2654
665.576	987
665.630	2765
665.683	3007
665.736	1884
665.789	3093
665.842	1792
665.895	2828
665.949	2577
666.002	3144
666.055	2355
666.108	3081
666.161	2485
666.214	2604
666.267	3142
666.320	3173
666.373	3206
666.426	2923
666.479	1844
666.532	3780
666.585	3130
666.638	3971
666.691	3162
666.744	3416
666.796	3268
666.849	2791
666.902	2488
666.955	3192
667.008	2500
667.060	2040
667.113	1449
667.166	2188
667.219	2366
667.271	2656
667.324	2062
667.377	2235
667.430	1978
667.482	4250
667.535	3055
667.587	3415
667.640	3040
667.693	2478
667.745	3024
667.798	3601
667.850	2087
667.903	2470
667.955	1720
668.008	2715
668.060	3077
668.113	2988
668.165	3306
668.218	3024
668.270	2518
668.322	2122
668.375	2643
668.427	3195
668.479	2417
668.532	3019
668.584	2919
668.636	2508
668.689	2861
668.741	2651
668.793	3001
668.845	2473
668.898	2406
668.950	3263
669.002	2870
669.054	2190
669.106	2208
669.158	2646
669.211	2738
669.263	3024
669.315	3130
669.367	3505
669.419	2381
669.471	3876
669.523	3464
669.575	3877
669.627	3446
669.679	2518
669.731	2773
669.783	2933
669.835	2947
669.886	2572
669.938	2532
669.990	2646
670.042	2726
670.094	3666
670.146	2960
670.197	3346
670.249	3810
670.301	4242
670.353	5519
670.404	7216
670.456	9651
670.508	15311
670.560	26530
670.611	46020
670.663	81258
670.715	197238
670.766	307999
670.818	82788
670.869	15559
670.921	8921
670.972	5972
671.024	5453
671.075	4616
671.127	3985
671.178	3029
671.230	3744
671.281	2849
671.333	3380
671.384	2861
671.436	3622
671.487	4226
671.538	3896
671.590	4928
671.641	5556
671.692	6273
671.744	9771
671.795	7980
671.846	4662
671.897	3520
671.949	3736
672.000	2712
672.051	3266
672.102	3567
672.153	2346
672.204	2820
672.256	3159
672.307	2169
672.358	3008
672.409	2613
672.460	3021
672.511	1920
672.562	3217
672.613	1783
672.664	2731
672.715	2725
672.766	2922
672.817	2372
672.868	2791
672.919	2589
672.970	3017
673.021	3014
673.071	1578
673.122	1727
673.173	2536
673.224	2076
673.275	2804
673.326	1797
673.376	2164
673.427	2150
673.478	2150
673.528	2939
673.579	2626
673.630	2709
673.680	2466
673.731	1437
673.782	1861
673.832	2131
673.883	2639
673.934	2258
673.984	1648
674.035	2142
674.085	2593
674.136	2414
674.186	2619
674.237	4011
674.287	5534
674.338	3353
674.388	2411
674.438	1740
674.489	2344
674.539	2483
674.589	2661
674.640	2190
674.690	2282
674.740	2072
674.791	2709
674.841	1798
674.891	3346
674.942	2194
674.992	1290
675.042	1968
675.092	1843
675.142	2428
675.193	2199
675.243	1175
675.293	2513
675.343	2345
675.393	2062
675.443	1993
675.493	2182
675.543	2383
675.593	2535
675.643	1177
675.693	2365
675.743	2487
675.793	2273
675.843	1178
675.893	1513
675.943	1791
675.993	1836
676.043	1808
676.093	1746
676.142	2079
676.192	2003
676.242	1101
676.292	1185
676.341	1609
676.391	1585
676.441	1541
676.491	1639
676.540	1617
676.590	1883
676.640	1090
676.689	2442
676.739	478
676.789	1692
676.838	899
676.888	2242
676.937	1784
676.987	1496
677.037	1307
677.086	1196
677.136	1438
677.185	1537
677.235	1096
677.284	1741
677.333	1320
677.383	1094
677.432	1185
677.482	952
677.531	2019
677.580	2106
677.630	987
677.679	756
677.728	1626
677.778	1583
677.827	1948
677.876	1188
677.925	224
677.975	1520
678.024	1389
678.073	1235
678.122	1468
678.171	1798
678.220	1389
678.269	2062
678.319	1399
678.368	1349
678.417	1490
678.466	2032
678.515	2317
678.564	2190
678.613	766
678.662	2089
678.711	1694
678.760	1697
678.809	833
678.857	1854
678.906	1363
678.955	1484
679.004	1414
679.053	1528
679.102	1794
679.151	823
679.199	865
679.248	929
679.297	1567
679.346	1666
679.394	666
679.443	1052
679.492	959
679.540	1377
679.589	1405
679.638	1020
679.686	1357
679.735	1852
679.784	837
679.832	1811
679.881	909
679.929	1384
679.978	299
680.026	2357
680.075	1599
680.123	1007
680.172	1173
680.220	873
680.268	994
680.317	1549
680.365	683
680.414	817
680.462	854
680.510	1337
680.559	1022
680.607	1181
680.655	1794
680.703	1255
680.752	899
680.800	987
680.848	1198
680.896	1190
680.945	1040
680.993	923
681.041	917
681.089	1610
681.137	862
681.185	922
681.233	577
681.258	602
681.281	579
681.329	1002
681.377	1106
681.380	1145
681.425	981
681.473	2319
681.502	1782
681.521	1318
681.569	2138
681.617	1495
681.624	1576
681.665	1734
681.713	1659
681.745	1736
681.761	1706
681.809	1972
681.857	2760
681.867	2518
681.904	1498
681.952	2815
681.989	2579
682.000	2449
682.048	2747
682.096	1737
682.111	2369
682.143	3575
682.191	2336
682.233	3225
682.239	3313
682.286	2680
682.334	2878
682.354	3000
682.382	3057
682.430	3680
682.476	3821
682.477	3786
682.525	4158
682.572	2840
682.598	2870
682.620	2833
682.667	3696
682.715	4184
682.720	4195
682.763	3860
682.810	3604
682.841	3246
682.857	3008
682.905	4632
682.952	4151
682.963	4244
683.000	4391
683.047	4458
683.085	5333
683.095	5531
683.142	4839
683.190	4773
683.206	4950
683.237	5149
683.284	4652
683.328	4486
683.332	4438
683.379	5499
683.426	5096
683.449	5231
683.473	5297
683.521	4884
683.568	5122
683.571	5106
683.615	4504
683.662	5524
683.693	5011
683.709	4665
683.757	5481
683.804	5672
683.814	5727
683.851	5844
683.898	5553
683.936	5776
683.945	5776
683.992	6459
684.039	6016
684.057	6041
684.086	6140
684.133	6371
684.179	6207
684.180	6167
684.227	6579
684.274	6466
684.300	6581
684.321	6652
684.368	6351
684.415	7144
684.422	7058
684.462	6323
684.509	6923
684.543	7019
684.556	7046
684.603	7169
684.649	6936
684.665	7041
684.696	7252
684.743	7665
684.786	7720
684.790	7711
684.837	7997
684.883	8390
684.908	8761
684.930	8985
684.977	9141
685.023	8963
685.029	9007
685.070	8938
685.117	8240
685.150	8908
685.164	9237
685.210	8771
685.257	9572
685.272	9737
685.303	9923
685.350	9734
685.393	9558
685.396	9529
685.443	9621
685.490	9969
685.514	10282
685.536	10512
685.583	10139
685.629	9913
685.636	9947
685.675	9899
685.722	9974
685.757	10009
685.768	10076
685.815	10657
685.861	10748
685.878	10889
685.908	11057
685.954	10728
686.000	11538
686.000	11547
686.047	12075
686.093	13599
686.121	13591
686.139	13070
686.185	12057
686.232	11733
686.242	11576
686.278	11315
686.324	11500
686.363	10847
686.370	10749
686.416	10969
686.463	11139
686.484	11127
686.509	11152
686.555	10922
686.601	11122
686.606	11199
686.647	11643
686.693	10914
686.727	11081
686.739	11220
686.785	10936
686.831	12252
686.848	12064
686.877	11496
686.923	11317
686.969	10584
686.969	10579
687.015	11419
687.061	11079
687.090	11590
687.107	11776
687.153	11970
687.199	10978
687.211	10995
687.245	11349
687.291	11418
687.332	12407
687.336	12500
687.382	12506
687.428	12104
687.453	12674
687.474	12861
687.520	12141
687.565	12438
687.574	12169
687.611	11461
687.657	12331
687.695	12134
687.702	12213
687.748	13376
687.794	14468
687.816	14652
687.839	14155
687.885	13433
687.931	12929
687.937	12753
687.976	12316
688.022	12589
688.058	12611
688.067	12615
688.113	13014
688.158	13139
688.179	12986
688.204	12927
688.249	13101
688.295	13413
688.300	13425
688.340	13516
688.386	14259
688.421	13816
688.431	13652
688.477	13623
688.522	13123
688.542	13192
688.567	13443
688.613	13553
688.658	13649
688.663	13670
688.703	13868
688.749	14309
688.784	13914
688.794	13819
688.839	13594
688.884	13788
688.905	13876
688.930	14007
688.975	13972
689.020	13814
689.026	13830
689.065	14133
689.110	14310
689.146	14111
689.155	14053
689.201	14319
689.246	13982
689.267	14322
689.291	14687
689.336	14287
689.381	14098
689.388	14099
689.426	14385
689.471	14829
689.509	14872
689.516	14834
689.561	14576
689.606	13713
689.630	13705
689.651	13993
689.696	13956
689.741	14521
689.750	14579
689.785	14443
689.830	14302
689.871	13722
689.875	13710
689.920	14180
689.965	14109
689.992	14135
690.010	14241
690.054	14180
690.099	14417
690.112	14444
690.144	14578
690.189	15020
690.233	14501
690.233	14519
690.278	14692
690.323	14726
690.354	14593
690.367	14746
690.412	15693
690.457	15771
690.474	15995
690.501	16177
690.546	16060
690.590	16565
690.595	16560
690.635	17176
690.680	17814
690.716	18086
690.724	18392
690.769	20370
690.813	22450
690.836	23118
690.857	24923
690.902	29290
690.946	33569
690.957	34577
690.991	44773
691.035	58918
691.077	71955
691.080	72124
691.124	71111
691.168	70804
691.198	70376
691.213	66284
691.257	54503
691.301	42256
691.318	37664
691.346	34959
691.390	30075
691.434	24980
691.439	24398
691.478	23187
691.522	21801
691.559	20440
691.567	20408
691.611	20133
691.655	19727
691.680	19591
691.699	19570
691.743	19494
691.787	19133
691.800	18864
691.831	18575
691.875	18909
691.919	19015
691.921	18975
691.964	18995
692.008	19384
692.041	19316
692.052	19249
692.096	19156
692.139	18859
692.162	18603
692.183	18431
692.227	18706
692.271	18041
692.282	17996
692.315	18223
692.359	18276
692.402	18714
692.403	18753
692.447	18187
692.490	18645
692.523	18542
692.534	18692
692.578	19088
692.622	19534
692.643	19719
692.666	19545
692.709	19426
692.753	18915
692.763	18774
692.797	18768
692.840	18791
692.884	18654
692.884	18695
692.928	19299
692.971	19171
693.004	19312
693.015	19439
693.059	19733
693.102	20148
693.124	20144
693.146	20203
693.189	20668
693.233	20849
693.245	20905
693.276	22034
693.320	23207
693.363	24708
693.365	24710
693.407	26235
693.450	27681
693.485	28826
693.493	29647
693.537	33520
693.580	37480
693.605	39690
693.624	44104
693.667	54242
693.710	64939
693.725	68520
693.753	89124
693.797	121562
693.840	153645
693.845	157152
693.883	154937
693.926	152002
693.966	149612
693.970	147095
694.013	117566
694.056	87915
694.086	67433
694.099	64488
694.142	54602
694.185	44689
694.206	39852
694.229	38177
694.272	34903
694.315	31708
694.326	30743
694.358	29276
694.401	27356
694.444	25344
694.446	25196
694.487	25066
694.530	24719
694.566	24270
694.573	24108
694.616	22723
694.659	21408
694.686	20413
694.702	20282
694.745	20377
694.787	19854
694.806	19743
694.830	19845
694.873	19747
694.916	19600
694.926	19502
694.959	19393
695.002	19440
695.044	19198
695.046	19152
695.087	19402
695.130	19418
695.166	19651
695.172	19805
695.215	20077
695.258	20605
695.286	20823
695.301	20677
695.343	20275
695.386	19667
695.406	19415
695.428	19282
695.471	18672
695.514	18438
695.526	18215
695.556	18381
695.599	18963
695.641	19095
695.646	19111
695.684	19389
695.726	19202
695.766	19292
695.769	19360
695.811	19392
695.854	19658
695.886	19689
695.896	19653
695.938	19374
695.981	19034
696.005	18832
696.023	18979
696.065	19145
696.108	19431
696.125	19445
696.150	19636
696.192	19914
696.235	20173
696.245	20192
696.277	19983
696.319	19609
696.361	19253
696.365	19176
696.404	19710
696.446	20231
696.485	20553
696.488	20595
696.530	20548
696.572	20426
696.604	20385
696.614	20469
696.656	20387
696.698	20545
696.724	20421
696.740	20152
696.783	19515
696.825	18794
696.844	18479
696.867	18875
696.909	19269
696.951	19791
696.964	19916
696.992	19490
697.034	18622
697.076	17978
697.083	17805
697.118	18418
697.160	19092
697.202	19773
697.203	19736
697.244	19178
697.286	18756
697.323	18251
697.327	18311
697.369	18397
697.411	18473
697.442	18488
697.453	18630
697.494	18886
697.536	19328
697.562	19501
697.578	19560
697.620	19625
697.661	19567
697.682	19565
697.703	19581
697.744	19392
697.786	19288
697.801	19162
697.828	19520
697.869	20030
697.911	20559
697.921	20636
697.952	20236
697.994	19599
698.035	18977
698.040	18847
698.077	18917
698.118	18936
698.160	18988
698.160	18936
698.201	18807
698.243	18581
698.279	18383
698.284	18491
698.325	19005
698.367	19502
698.399	19821
698.408	19712
698.449	19006
698.491	18276
698.518	17743
698.532	18006
698.573	18631
698.614	19280
698.638	19594
698.656	19570
698.697	19397
698.738	19203
698.757	19071
698.779	19351
698.820	19751
698.862	20183
698.877	20278
698.903	20522
698.944	20834
698.985	21144
698.996	21173
699.026	20924
699.067	20496
699.116	19931
699.235	19333
699.354	18841
699.474	19420
699.593	21838
699.713	21056
699.832	19444
699.951	19457
700.070	19489
700.190	18259
700.309	19511
700.428	19539
700.547	19126
700.667	18135
700.786	21164
700.905	18699
701.024	20447
701.143	18045
701.262	17051
701.381	17084
701.500	17623
701.619	17224
701.738	17047
701.857	17537
701.976	16651
702.095	15927
702.214	17121
702.333	17633
702.452	17702
702.571	16167
702.690	16221
702.809	16113
702.928	15712
703.047	17038
703.165	16183
703.284	15522
703.403	15201
703.522	16945
703.640	17986
703.759	19347
703.878	27130
703.997	17073
704.115	16396
704.234	15481
704.353	15243
704.471	14682
704.590	14833
704.708	14418
704.827	15694
704.946	15396
705.064	18137
705.183	15094
705.301	19336
705.420	29763
705.538	26107
705.656	22669
705.775	23594
705.893	40496
706.012	51581
706.130	22730
706.249	21422
706.367	23116
706.485	25377
706.604	21893
706.722	22915
706.840	24795
706.958	27730
707.077	22084
707.195	20672
707.313	19611
707.431	19808
707.549	20239
707.668	19515
707.786	19750
707.904	19556
708.022	18270
708.140	19069
708.258	18923
708.376	18991
708.494	18737
708.612	21402
708.730	30988
708.848	29266
708.966	26117
709.084	24419
709.202	24285
709.320	25095
709.438	24714
709.556	25019
709.674	25157
709.791	24785
709.909	23345
710.027	24362
710.145	23743
710.263	25338
710.380	23616
710.498	23483
710.616	22133
710.733	22675
710.851	23607
710.969	24555
711.086	22326
711.204	23365
711.322	22509
711.439	23133
711.557	22481
711.674	22293
711.792	21887
711.909	23998
712.027	24913
712.144	21420
712.262	21390
712.379	23785
712.497	33716
712.614	35433
712.732	28872
712.849	27029
712.966	27616
713.084	31904
713.201	27973
713.318	28153
713.436	26776
713.553	28452
713.670	27567
713.787	29910
713.905	31154
714.022	27763
714.139	26078
714.256	27384
714.373	28140
714.490	33647
714.608	50232
714.725	152801
714.842	178028
714.959	32230
715.076	25426
715.193	23925
715.310	22799
715.427	23427
715.544	22441
715.661	22538
715.778	22664
715.895	25917
716.011	24996
716.128	23245
716.245	22648
716.362	23316
716.479	24424
716.596	22698
716.713	21680
716.829	21900
716.946	22243
717.063	20993
717.180	20578
717.296	19909
717.413	20415
717.530	20726
717.646	19645
717.763	21159
717.880	19187
717.996	19107
718.113	19020
718.229	19675
718.346	18535
718.462	18706
718.579	20044
718.695	24513
718.812	24237
718.928	25978
719.045	20581
719.161	18704
719.277	17670
719.394	18164
719.510	18585
719.626	18263
719.743	22074
719.859	20498
719.975	23910
720.092	47952
720.208	97322
720.324	27694
720.440	19097
720.557	20642
720.673	23429
720.789	35138
720.905	76354
721.021	31804
721.137	17255
721.253	18682
721.369	17783
721.486	19948
721.602	27144
721.718	18185
721.834	14998
721.950	17093
722.066	15937
722.181	15377
722.297	15272
722.413	15057
722.529	15227
722.645	15244
722.761	14500
722.877	14840
722.993	14623
723.108	16844
723.224	15349
723.340	15733
723.456	13404
723.571	15473
723.687	13569
723.803	13920
723.918	13407
724.034	14919
724.150	14476
724.265	15950
724.381	28316
724.497	39899
724.612	14530
724.728	13965
724.843	12757
724.959	15470
725.074	27288
725.190	35302
725.305	14089
725.421	14033
725.536	11677
725.651	12572
725.767	11889
725.882	12856
725.997	11812
726.113	12652
726.228	12140
726.343	12300
726.459	10188
726.574	12934
726.689	10856
726.804	11369
726.920	12213
727.035	12123
727.150	12336
727.265	11833
727.380	11586
727.495	11904
727.610	10861
727.725	12329
727.841	13517
727.956	22777
728.071	20115
728.186	11499
728.301	9350
728.416	11409
728.531	10252
728.645	10097
728.760	10550
728.875	11056
728.990	9750
729.105	10762
729.220	9426
729.335	10363
729.449	9723
729.564	10061
729.679	9735
729.794	10380
729.908	10215
730.023	10718
730.138	8476
730.253	9841
730.367	8253
730.482	9764
730.596	9416
730.711	10416
730.826	10013
730.940	10070
731.055	9017
731.169	9073
731.284	9021
731.398	9292
731.513	10565
731.627	9824
731.742	10472
731.856	12807
731.970	8875
732.085	8719
732.199	9226
732.313	12649
732.428	18900
732.542	41193
732.656	27354
732.771	11304
732.885	9275
732.999	9954
733.113	9011
733.227	9285
733.342	8561
733.456	8880
733.570	8019
733.684	8698
733.798	9069
733.912	7887
734.026	7062
734.140	8923
734.254	8774
734.368	15794
734.482	20451
734.596	8537
734.710	7957
734.824	7926
734.938	7059
735.052	7553
735.166	8897
735.280	8322
735.393	8394
735.507	7984
735.621	10365
735.735	20522
735.849	9261
735.962	7621
736.076	8272
736.190	7605
736.303	10935
736.417	14832
736.531	6942
736.644	8608
736.758	6473
736.872	7044
736.985	6434
737.099	7219
737.212	6619
737.326	6539
737.439	6198
737.553	6694
737.666	6245
737.780	6607
737.893	6537
738.007	7453
738.120	6055
738.233	6800
738.347	6113
738.460	7434
738.573	7170
738.687	6362
738.800	6014
738.913	7320
739.026	6553
739.140	8361
739.253	6977
739.366	7240
739.479	6976
739.592	6186
739.705	6043
739.818	7285
739.932	6983
740.045	6991
740.158	5702
740.271	6939
740.384	5977
740.497	6906
740.610	6928
740.723	7419
740.836	6446
740.949	6637
741.062	8032
741.174	6949
741.287	6590
741.400	6546
741.513	5953
741.626	7025
741.739	6865
741.851	6201
741.964	5589
742.077	5937
742.189	6165
742.302	7479
742.415	6271
742.527	6124
742.640	6069
742.753	5708
742.865	5276
742.978	6148
743.090	4767
743.203	5860
743.316	5874
743.428	5111
743.541	6013
743.653	6239
743.766	5183
743.878	5968
743.990	6708
744.103	9341
744.215	5697
744.327	6422
744.440	6458
744.552	7786
744.664	5960
744.777	5770
744.889	5268
745.001	6153
745.113	4958
745.226	5627
745.338	5236
745.450	5621
745.562	6049
745.674	5892
745.786	4786
745.898	5984
746.010	5415
746.122	5653
746.234	5572
746.347	5883
746.459	4677
746.570	6116
746.682	4995
746.794	6430
746.906	5233
747.018	5601
747.130	4920
747.242	5334
747.354	4494
747.466	5797
747.577	5240
747.689	5435
747.801	4609
747.913	5727
748.024	4702
748.136	4942
748.248	4987
748.359	5927
748.471	5185
748.583	5621
748.694	5836
748.806	7574
748.918	6634
749.029	6434
749.141	5096
749.252	5829
749.364	4973
749.475	9090
749.587	7708
749.698	5965
749.809	5089
749.921	5987
750.032	4652
750.144	5709
750.255	3880
750.366	4449
750.478	4627
750.589	5639
750.700	4824
750.811	5605
750.923	5551
751.034	8892
751.145	8247
751.256	6709
751.367	4759
751.479	5638
751.590	3766
751.701	5095
751.812	4885
751.923	5022
752.034	4571
752.145	4860
752.256	5665
752.367	4827
752.478	4907
752.589	5028
752.700	4807
752.811	4767
752.922	4158
753.032	5233
753.143	5553
753.254	4494
753.365	4632
753.476	5990
753.586	4262
753.697	4570
753.808	5257
753.919	5259
754.029	4601
754.140	5200
754.251	4435
754.361	5756
754.472	4812
754.582	5519
754.693	5257
754.804	6002
754.914	3927
755.025	4767
755.135	4596
755.246	5210
755.356	4386
755.466	5716
755.577	5418
755.687	6072
755.798	4437
755.908	5525
756.018	4524
756.129	6216
756.239	4985
756.349	5363
756.460	5093
756.570	5883
756.680	5064
756.790	5547
756.900	6102
757.011	5162
757.121	4635
757.231	5488
757.341	5678
757.451	5894
757.561	4752
757.671	6281
757.781	4853
757.891	6640
758.001	5896
758.111	6780
758.221	5631
758.331	6899
758.441	6242
758.551	6835
758.661	6580
758.771	6901
758.880	6501
758.990	7284
759.100	7281
759.210	7192
759.320	7519
759.429	6914
759.539	6960
759.649	8086
759.758	7236
759.868	8153
759.978	7338
760.087	8141
760.197	8161
760.307	8610
760.416	8193
760.526	7861
760.635	7867
760.745	8349
760.854	7772
760.964	8852
761.073	8603
761.182	9499
761.292	9524
761.401	11176
761.511	9662
761.620	9903
761.729	9739
761.839	10249
761.948	10984
762.057	10551
762.166	10466
762.276	9977
762.385	11846
762.494	12649
762.603	11824
762.712	14064
762.822	13770
762.931	14616
763.040	14025
763.149	15626
763.258	14379
763.367	16733
763.476	16124
763.585	17641
763.694	17446
763.803	20639
763.912	20641
764.021	22699
764.130	21013
764.238	23917
764.347	25157
764.456	26748
764.565	29681
764.674	32207
764.783	34913
764.891	38391
765.000	44057
765.109	50454
765.217	56975
765.326	67158
765.435	78561
765.543	95646
765.652	118695
765.761	154634
765.869	204814
765.978	293600
766.086	429739
766.195	659665
766.303	963854
766.412	913163
766.520	801836
766.629	959470
766.737	650552
766.846	423345
766.954	288564
767.062	207998
767.171	158295
767.279	124432
767.387	99112
767.496	81225
767.604	68970
767.712	60809
767.820	54019
767.928	49163
768.037	45315
768.145	42305
768.253	40430
768.361	40489
768.469	39301
768.577	39323
768.685	42486
768.793	44340
768.901	49197
769.009	56886
769.117	68923
769.225	88151
769.333	119476
769.441	178818
769.549	285856
769.657	513136
769.765	850508
769.873	784442
769.981	818052
770.088	523533
770.196	292660
770.304	188339
770.412	131156
770.519	99006
770.627	77211
770.735	64456
770.842	53004
770.950	46499
771.058	40197
771.165	35737
771.273	31022
771.380	30142
771.488	25921
771.595	24956
771.703	23170
771.810	21871
771.918	19137
772.025	19054
772.133	17292
772.240	17856
772.348	16600
772.455	16165
772.562	14434
772.670	14199
772.777	14297
772.884	13088
772.991	12096
773.099	12964
773.206	10878
773.313	11690
773.420	11057
773.528	9805
773.635	9555
773.742	10943
773.849	10092
773.956	10254
774.063	9920
774.170	9704
774.277	10273
774.384	9602
774.491	9115
774.598	8895
774.705	8490
774.812	8969
774.919	8786
775.026	9479
775.133	7768
775.239	8458
775.346	7519
775.453	8307
775.560	7844
775.667	8394
775.773	7597
775.880	8537
775.987	7465
776.093	8580
776.200	6925
776.307	7237
776.413	7001
776.520	7016
776.627	7245
776.733	6176
776.840	5413
776.946	8396
777.053	6960
777.159	8700
777.266	6265
777.372	9413
777.478	6655
777.585	6824
777.691	6148
777.798	5785
777.904	6032
778.010	8551
778.117	6846
778.223	6141
778.329	5453
778.435	6347
778.542	5570
778.648	6392
778.754	4641
778.860	5897
778.966	5514
779.072	6087
779.178	5135
779.284	5619
779.391	4602
779.497	5625
779.603	8901
779.708	11717
779.815	23523
779.920	80043
780.026	189253
780.132	35934
780.238	8846
780.344	7457
780.450	6619
780.556	5629
780.661	5048
780.767	4779
780.873	4321
780.979	6143
781.085	4616
781.190	5225
781.296	3852
781.402	5146
781.507	3760
781.613	4047
781.719	3841
781.824	4176
781.930	4136
782.035	4331
782.141	3474
782.246	4194
782.352	3216
782.457	4707
782.563	3913
782.668	3784
782.773	3779
782.879	4607
782.984	4419
783.090	4952
783.195	5042
783.300	5489
783.405	3949
783.511	4142
783.616	4119
783.721	5160
783.826	3787
783.932	4825
784.037	3723
784.142	4366
784.247	2745
784.352	4156
784.457	3696
784.562	4022
784.667	3787
784.772	4293
784.877	3355
784.982	3916
785.087	2922
785.192	3706
785.297	3199
785.402	3123
785.507	2805
785.611	4174
785.716	3011
785.821	4706
785.926	2064
786.031	3343
786.135	3311
786.240	3618
786.345	3359
786.450	4327
786.554	3532
786.659	3443
786.763	2300
786.868	4173
786.973	3827
787.077	3527
787.182	2749
787.286	3657
787.391	3033
787.495	3753
787.600	3887
787.704	3585
787.809	2999
787.913	2443
788.017	2810
788.122	3471
788.226	3146
788.330	3212
788.435	2979
788.539	3320
788.643	1634
788.747	3240
788.852	2352
788.956	3010
789.060	2927
789.164	3193
789.268	2174
789.372	3675
789.476	3070
789.580	2500
789.684	2174
789.788	3656
789.892	2050
789.996	3452
790.100	2792
790.204	3016
790.308	2973
790.412	3422
790.516	2605
790.620	4276
790.724	3440
790.828	3304
790.931	2396
791.035	4457
791.139	3020
791.242	2126
791.346	3269
791.450	2859
791.554	2668
791.657	2150
791.761	2999
791.864	3064
791.968	1923
792.072	3360
792.175	2246
792.279	2904
792.382	2230
792.486	3356
792.589	2403
792.693	2790
792.796	1539
792.899	3055
793.003	2776
793.106	1081
793.209	1490
793.313	3165
793.416	770
793.519	3554
793.623	3022
793.726	4301
793.829	2094
793.932	3049
794.035	1898
794.138	3338
794.242	2663
794.345	4675
794.448	6240
794.551	12619
794.654	43866
794.757	106914
794.860	24003
794.963	5336
795.066	1873
795.169	3980
795.272	1594
795.375	3030
795.477	1917
795.580	3625
795.683	869
795.786	2198
795.889	1237
795.991	3053
796.094	2806
796.197	2489
796.300	2651
796.402	3190
796.505	1404
796.608	2289
796.710	2440
796.813	1594
796.915	1141
797.018	2464
797.120	2020
797.223	1748
797.326	2209
797.428	2461
797.530	900
797.633	2735
797.735	2661
797.838	4813
797.940	4455
798.042	2203
798.145	1752
798.247	2230
798.349	1150
798.452	2564
798.554	1188
798.656	1478
798.758	2289
798.860	2564
798.962	1186
799.065	1068
799.167	1294
799.269	3312
799.371	1950
799.473	2633
799.575	2823
799.677	3433
799.779	3544
799.881	1578
799.983	2336
800.085	1757
800.187	1446
800.289	846
800.390	1881
800.492	2369
800.594	2151
800.696	1588
800.798	1732
800.899	2546
801.001	1069
801.103	1652
801.205	1738
801.306	1257
801.408	758
801.509	2070
801.611	1412
801.713	2309
801.814	421
801.916	1801
802.017	1639
802.119	1533
802.220	1179
802.322	493
802.423	3220
802.525	2672
802.626	744
802.727	1699
802.829	2197
802.930	-231
803.031	2183
803.133	963
803.234	977
803.335	1988
803.436	1146
803.538	1798
803.639	-384
803.740	2112
803.841	387
803.942	1679
804.043	883
804.144	1601
804.245	828
804.346	2162
804.447	886
804.548	2742
804.649	3227
804.750	1679
804.851	855
804.952	1205
805.053	1353
805.154	1005
805.255	1726
805.355	1268
805.456	1534
805.557	959
805.658	5
805.758	2185
805.859	1260
805.960	1070
806.061	719
806.161	905
806.262	591
806.362	1086
806.463	1055
806.564	2183
806.664	1299
806.765	2714
806.865	2725
806.966	1251
807.066	551
807.166	1764
807.267	1516
807.367	1100
807.468	1389
807.568	21
807.668	991
807.769	1769
807.869	175
807.969	1449
808.069	1099
808.170	1791
808.270	-12
808.370	2515
808.470	1169
808.570	443
808.670	1116
808.770	1636
808.870	513
808.970	1721
809.070	452
809.170	1062
809.271	1387
809.370	1199
809.470	1379
809.570	1329
809.670	-319
809.770	1513
809.870	1973
809.970	1682
810.070	954
810.169	1866
810.269	488
810.369	2076
810.469	543
810.568	1302
810.668	446
810.768	1637
810.867	1817
810.967	1283
811.066	218
811.166	1275
811.265	1778
811.365	959
811.464	886
811.564	1903
811.663	1251
811.763	1016
811.862	1270
811.962	1748
812.061	1168
812.160	1595
812.260	1147
812.359	2423
812.458	1386
812.557	3642
812.657	4275
812.756	3154
812.855	1922
812.954	2122
813.053	1207
813.153	1839
813.252	1075
813.351	2596
813.450	1569
813.549	1455
813.648	1901
813.747	1981
813.846	1320
813.945	2160
814.044	2323
814.143	2371
814.242	2412
814.341	2095
814.439	1163
814.538	2623
814.637	2165
814.736	2811
814.835	2652
814.933	3216
815.032	2160
815.131	3349
815.229	2439
815.328	3949
815.427	2625
815.525	4257
815.624	3180
815.722	3058
815.821	3447
815.919	4220
816.018	3513
816.116	5673
816.215	4380
816.313	5853
816.412	4774
816.510	6760
816.609	7034
816.707	7127
816.805	6896
816.904	7136
817.002	8857
817.100	10835
817.198	12561
817.296	12885
817.395	15157
817.493	19273
817.591	21934
817.689	30484
817.787	40575
817.885	60763
817.983	96470
818.081	173738
818.179	332569
818.277	612014
818.375	605696
818.473	330628
818.571	173165
818.669	111320
818.767	87583
818.865	83293
818.963	93006
819.061	119950
819.158	176626
819.256	296025
819.354	506789
819.452	736098
819.549	635396
819.647	401574
819.745	229075
819.842	143209
819.940	97078
820.038	70755
820.135	53690
820.233	43831
820.330	33674
820.428	28272
820.525	24642
820.623	21875
820.720	16773
820.818	16016
820.915	14141
821.012	14124
821.110	10676
821.207	11605
821.304	8903
821.402	9535
821.499	7155
821.596	9110
821.693	6023
821.791	6985
821.888	6575
821.985	7489
822.082	6098
822.179	5646
822.276	4765
822.373	3783
822.470	3999
822.567	4424
822.664	3089
822.761	3989
822.858	2443
822.955	3814
823.052	3078
823.149	2993
823.246	3058
823.343	3288
823.440	2925
823.536	3067
823.633	2178
823.730	2691
823.827	2508
823.923	2960
824.020	2885
824.117	2260
824.213	1135
824.310	3403
824.407	1516
824.503	2193
824.600	1941
824.696	2225
824.793	2298
824.889	876
824.986	975
825.082	2589
825.179	1135
825.275	1626
825.371	552
825.468	1146
825.564	316
825.660	1729
825.757	992
825.853	2148
825.949	3
826.045	1450
826.142	982
826.238	1972
826.334	39
826.430	1182
826.526	1076
826.622	596
826.718	488
826.814	1421
826.910	1485
827.006	1403
827.102	814
827.198	1561
827.294	877
827.390	611
827.486	633
827.582	283
827.678	178
827.774	1627
827.869	-148
827.965	2160
828.061	-86
828.157	316
828.252	1090
828.348	317
828.444	1197
828.539	432
828.635	84
828.731	947
828.826	-300
828.922	1783
829.017	-429
829.113	775
829.208	-365
829.304	538
829.399	1558
829.495	-277
829.590	434
829.685	904
829.781	531
829.876	874
829.971	655
830.066	1134
830.162	25
830.257	964
830.352	-52
830.447	1907
830.543	489
830.638	72
830.733	1163
830.828	-182
830.923	1168
831.018	683
831.113	88
831.208	201
831.303	604
831.398	1689
831.493	-271
831.588	1020
831.683	-756
831.778	902
831.873	-142
831.967	1130
832.062	-451
832.157	-505
832.252	797
832.346	577
832.441	360
832.536	1464
832.631	2803
832.725	2864
832.820	-582
832.914	663
833.009	-994
833.104	1140
833.198	550
833.293	183
833.387	181
833.482	411
833.576	-590
833.670	1718
833.765	-529
833.859	1095
833.954	422
834.048	-340
834.142	237
834.237	97
834.331	-119
834.425	134
834.519	-805
834.613	917
834.708	-258
834.802	-132
834.896	-78
834.990	166
835.084	344
835.178	716
835.272	115
835.366	101
835.460	-171
835.554	479
835.648	-325
835.742	323
835.836	162
835.930	-283
836.024	-592
836.117	1139
836.211	204
836.305	1393
836.399	2839
836.493	-81
836.586	194
836.680	150
836.774	-238
836.867	867
836.961	-1037
837.055	-278
837.148	-388
837.242	38
837.335	-423
837.429	-425
837.522	-225
837.616	946
837.709	2478
837.803	2828
837.896	305
837.989	762
838.083	1393
838.176	4795
838.269	3679
838.363	1039
838.456	8
838.549	917
838.642	627
838.735	3609
838.829	1735
838.922	541
839.015	249
839.108	-268
839.201	193
839.294	769
839.387	365
839.480	673
839.573	767
839.666	2359
839.759	341
839.852	-149
839.945	-539
840.038	-60
840.131	209
840.223	-520
840.316	199
840.409	-236
840.502	-295
840.594	1178
840.687	-838
840.780	439
840.873	-516
840.965	198
841.058	1190
841.150	3699
841.243	1930
841.336	852
841.428	-45
841.521	-156
841.613	-254
841.706	950
841.798	-402
841.890	-746
841.983	-186
842.075	227
842.167	114
842.260	237
842.352	1177
842.444	2003
842.537	4441
842.629	8539
842.721	1484
842.813	92
842.905	-1232
842.997	1002
843.090	199
843.182	2373
843.274	3948
843.366	11550
843.458	21920
843.550	16110
843.642	1964
843.734	1563
843.826	722
843.918	910
844.009	-102
844.101	-449
844.193	-1018
844.285	-213
844.377	568
844.469	563
844.560	-176
844.652	968
844.744	217
844.835	423
844.927	-775
845.019	556
845.110	773
845.202	1437
845.293	122
845.385	103
845.476	-155
845.568	832
845.659	-692
845.751	471
845.842	-640
845.934	-136
846.025	-453
846.116	657
846.208	-462
846.299	349
846.390	269
846.482	107
846.573	283
846.664	1586
846.755	334
846.846	3333
846.937	-1061
847.029	267
847.120	-764
847.211	-550
847.302	642
847.393	42
847.484	264
847.575	-432
847.666	-1115
847.757	296
847.847	-78
847.938	914
848.029	-626
848.120	-109
848.211	-744
848.302	-1076
848.392	-1068
848.483	1035
848.574	286
848.664	-541
848.755	-749
848.846	-616
848.936	-1645
849.027	597
849.118	-153
849.208	-219
849.299	-825
849.389	568
849.480	578
849.570	1722
849.661	1975
849.751	5072
849.841	1430
849.932	113
850.022	-1016
850.112	383
850.203	36
850.293	178
850.383	-607
850.474	-1065
850.564	-608
850.654	289
850.744	80
850.834	242
850.924	-684
851.014	526
851.104	-87
851.194	42
851.284	-502
851.374	709
851.464	-255
851.554	655
851.644	-689
851.734	1120
851.824	790
851.914	1740
852.004	3524
852.094	4597
852.183	1241
852.273	658
852.363	-446
852.452	265
852.542	-582
852.632	-12
852.721	-21
852.811	-344
852.901	-343
852.990	966
853.080	303
853.169	-288
853.259	-48
853.348	-10
853.438	65
853.527	707
853.617	118
853.706	1583
853.795	1221
853.885	7139
853.974	11038
854.063	19733
854.152	34915
854.242	14398
854.331	1635
854.420	1176
854.509	-220
854.598	598
854.687	160
854.777	1866
854.866	-427
854.955	1097
855.044	-185
855.133	665
855.222	-536
855.311	-1181
855.400	-843
855.488	-21
855.577	-1086
855.666	594
855.755	46
855.844	363
855.933	491
856.021	1190
856.110	126
856.199	-626
856.288	-818
856.376	369
856.465	-868
856.554	-289
856.642	-962
856.731	320
856.819	167
856.908	-319
856.996	-131
857.085	-432
857.173	-487
857.262	-256
857.350	-1212
857.438	-633
857.527	109
857.615	-225
857.703	-345
857.792	-313
857.880	-947
857.968	428
858.056	-645
858.145	-39
858.233	-726
858.321	-35
858.409	-512
858.497	-493
858.585	-907
858.673	600
858.761	-1070
858.849	15
858.937	-277
859.025	445
859.113	-1452
859.201	-827
859.289	-442
859.377	-32
859.465	-929
859.552	493
859.640	-1232
859.728	364
859.816	-242
859.903	619
859.991	-506
860.079	-426
860.166	-666
860.254	-180
860.342	-57
860.429	-795
860.517	-1646
860.604	-66
860.692	-397
860.779	-210
860.867	-1305
860.954	-303
861.042	-437
861.129	500
861.216	-717
861.304	-672
861.391	-570
861.478	-601
861.565	-262
861.653	879
861.740	-997
861.827	-69
861.914	-522
862.001	-140
862.089	-1207
862.176	-318
862.263	-849
862.350	-609
862.437	-1080
862.524	-429
862.611	-670
862.698	-230
862.785	-271
862.871	272
862.958	-629
863.045	-513
863.132	-952
863.219	9
863.306	-1486
863.392	8
863.479	-612
863.566	-751
863.652	-314
863.739	-271
863.826	-331
863.912	89
863.999	-1324
864.086	158
864.172	-779
864.259	-510
864.345	-624
864.432	-746
864.518	-683
864.604	-830
864.691	-446
864.777	-398
864.863	-9
864.950	-266
865.036	-1080
865.122	54
865.209	-7
865.295	-416
865.381	-289
865.467	-235
865.553	16
865.639	-415
865.726	-62
865.812	2209
865.898	4261
865.984	7395
866.070	14374
866.156	18250
866.242	3706
866.328	1737
866.414	-283
866.499	468
866.585	-432
866.671	109
866.757	-983
866.843	466
866.928	-508
867.014	-1013
867.100	-755
867.186	-172
867.271	-13
867.357	6
867.442	352
867.528	86
867.614	-203
867.699	531
867.785	98
867.870	65
867.956	23
868.041	1085
868.127	-347
868.212	1025
868.297	-517
868.383	36
868.468	-531
868.553	1618
868.639	847
868.724	2670
868.809	3125
868.894	478
868.979	181
869.065	322
869.150	-1236
869.235	71
869.320	-1768
869.405	-45
869.490	-893
869.575	-605
869.660	-1216
869.745	-286
869.830	-2366
869.915	-505
870.000	-614
870.085	-924
870.169	-1310
870.254	-895
870.339	-1116
870.424	-377
870.509	-365
870.593	-1049
870.678	-1277
870.763	469
870.847	-1209
870.932	-619
871.016	156
871.101	-100
871.186	-1028
871.270	-205
871.355	-1168
871.439	-201
871.523	-665
871.608	-735
871.692	-303
871.777	-491
871.861	-1096
871.945	-180
872.030	-827
872.114	-961
872.198	-1096
872.282	-509
872.367	-880
872.451	-763
872.535	-846
872.619	-732
872.703	-1560
872.787	-676
872.871	-941
872.955	-357
873.039	-1639
873.123	-343
873.207	-714
873.291	-545
873.375	-914
873.459	-109
873.543	-1570
873.627	-378
873.711	-893
873.794	-391
873.878	-2008
873.962	-1059
874.045	-706
874.129	-996
874.137	-1017
874.213	-1227
874.245	-1173
874.296	-1088
874.352	-1833
874.380	-2198
874.460	-493
874.464	-425
874.547	-1437
874.568	-1318
874.631	-980
874.676	-833
874.714	-720
874.784	-526
874.798	-478
874.881	17
874.892	-61
874.965	-659
874.999	-876
875.048	-1201
875.107	-935
875.131	-785
875.215	-1130
875.215	-1129
875.298	-758
875.323	-746
875.381	-643
875.430	-540
875.465	-477
875.538	-666
875.548	-688
875.631	-715
875.646	-718
875.714	-794
875.753	-726
875.798	-642
875.861	-528
875.881	-478
875.964	-187
875.968	-208
876.047	-589
876.076	-424
876.130	-163
876.183	-849
876.213	-1195
876.291	-295
876.296	-238
876.379	-1086
876.398	-955
876.462	-548
876.506	-633
876.545	-657
876.613	-584
876.628	-580
876.711	-671
876.721	-602
876.794	-137
876.828	-361
876.877	-603
876.935	-417
876.960	-330
877.043	-573
877.043	-570
877.125	79
877.150	-315
877.208	-1200
877.258	-697
877.291	-318
877.365	-422
877.374	-432
877.456	216
877.472	73
877.539	-621
877.579	-449
877.622	-259
877.687	-947
877.704	-1117
877.787	-295
877.794	-333
877.869	-827
877.901	-517
877.952	48
878.008	-298
878.034	-467
878.115	-52
878.117	-44
878.199	-524
878.222	-531
878.282	-517
878.329	-770
878.364	-918
878.437	234
878.447	379
878.529	-1254
878.544	-1131
878.611	-414
878.651	-694
878.694	-1017
878.758	23
878.776	271
878.858	-698
878.865	-719
878.941	-786
878.972	-766
879.023	-820
879.078	-516
879.105	-218
879.185	-259
879.187	-267
879.269	-45
879.292	-151
879.351	-441
879.399	-455
879.433	-320
879.506	-293
879.516	-323
879.598	-516
879.613	-501
879.680	-346
879.720	-68
879.762	193
879.827	-528
879.844	-685
879.926	-146
879.933	-161
880.007	-410
880.040	-292
880.089	-198
880.147	-481
880.171	-450
880.253	522
880.254	521
880.335	206
880.360	309
880.417	592
880.467	311
880.499	192
880.574	1010
880.580	1069
880.662	35
880.680	-48
880.744	-542
880.787	-595
880.825	-347
880.893	-469
880.907	-560
880.989	-939
881.000	-893
881.070	-444
881.106	-322
881.152	-257
881.213	-249
881.233	-228
881.315	-758
881.319	-720
881.396	201
881.426	-106
881.478	-681
881.532	-233
881.559	-14
881.639	-99
881.641	-114
881.722	-117
881.745	-413
881.803	-352
881.852	-248
881.885	-424
881.958	-427
881.966	-445
882.047	-444
882.064	-508
882.129	-342
882.171	-88
882.210	204
882.277	662
882.291	688
882.372	208
882.383	151
882.454	-318
882.489	-363
882.535	-211
882.596	-369
882.616	-384
882.697	120
882.702	101
882.778	-409
882.808	-292
882.859	-278
882.914	-776
882.940	-792
883.020	60
883.021	68
883.102	-383
883.127	-237
883.183	-101
883.233	-435
883.264	-542
883.339	99
883.345	145
883.426	-407
883.445	-350
883.507	26
883.551	-79
883.587	-388
883.657	-236
883.668	-99
883.749	-194
883.763	-81
883.830	-15
883.869	-153
883.910	-457
883.975	-484
883.991	-313
884.072	-25
884.081	33
884.152	502
884.187	448
884.233	-156
884.292	-134
884.314	39
884.394	-224
884.398	-219
884.475	-203
884.504	-221
884.555	141
884.610	532
884.636	443
884.716	-16
884.716	-14
884.797	-91
884.821	-248
884.877	-337
884.927	11
884.958	204
885.033	227
885.038	202
885.118	-106
885.139	-223
885.199	-199
885.244	-24
885.279	-41
885.350	-524
885.359	-508
885.439	8
885.456	53
885.520	-127
885.561	-17
885.600	113
885.667	-99
885.680	-106
885.760	101
885.773	122
885.840	245
885.878	296
885.920	252
885.984	82
886.000	71
886.080	235
886.089	219
886.160	125
886.195	217
886.240	448
886.300	365
886.320	263
886.400	410
886.406	388
886.480	92
886.511	72
886.560	329
886.616	436
886.640	432
886.720	713
886.722	703
886.800	-73
886.827	-178
886.879	344
886.932	719
886.959	577
887.038	261
887.039	264
887.119	55
887.143	76
887.198	134
887.248	84
887.278	69
887.354	33
887.358	56
887.437	450
887.459	571
887.517	662
887.564	702
887.596	665
887.669	549
887.676	592
887.755	1031
887.774	1180
887.835	606
887.880	90
887.914	252
887.985	520
887.994	445
888.073	-161
888.090	-299
888.153	-76
888.195	12
888.232	386
888.300	1229
888.311	1174
888.391	651
888.405	550
888.470	847
888.510	1002
888.549	880
888.615	742
888.628	736
888.708	559
888.720	544
888.787	378
888.825	242
888.866	125
888.930	-60
888.945	116
889.024	1037
889.035	1161
889.103	1000
889.140	869
889.182	916
889.245	1019
889.261	995
889.340	818
889.349	801
889.419	951
889.454	990
889.498	238
889.559	-786
889.577	-508
889.656	728
889.664	851
889.735	872
889.768	875
889.814	796
889.873	694
889.978	382
890.083	467
890.187	521
890.292	901
890.397	45
890.501	1126
890.606	334
890.710	979
890.815	340
890.919	354
891.024	179
891.128	559
891.233	1125
891.337	408
891.442	554
891.546	135
891.650	-10
891.755	746
891.859	1182
891.963	526
892.068	792
892.172	285
892.276	328
892.380	526
892.484	197
892.589	1160
892.693	130
892.797	326
892.901	65
893.005	243
893.109	1130
893.213	629
893.317	708
893.421	394
893.525	407
893.629	132
893.733	421
893.837	15
893.941	-252
894.045	1799
894.148	19
894.252	1549
894.356	996
894.460	252
894.564	272
894.667	441
894.771	366
894.875	451
894.978	50
895.082	-128
895.186	813
895.289	1298
895.393	16
895.496	251
895.600	27
895.703	407
895.807	980
895.910	567
896.014	-177
896.117	95
896.221	480
896.324	373
896.427	590
896.531	198
896.634	541
896.737	328
896.840	105
896.944	20
897.047	1154
897.150	88
897.253	195
897.356	765
897.460	980
897.563	-127
897.666	46
897.769	215
897.872	-423
897.975	-404
898.078	683
898.181	633
898.284	244
898.387	356
898.490	1073
898.593	859
898.695	557
898.798	-165
898.901	620
899.004	773
899.107	189
899.209	740
899.312	1212
899.415	950
899.518	-1
899.620	14
899.723	692
899.826	-9
899.928	617
900.031	706
900.133	258
900.236	933
900.338	786
900.441	969
900.543	240
900.646	742
900.748	1062
900.851	800
900.953	-195
901.055	733
901.158	-151
901.260	503
901.362	20
901.465	337
901.567	157
901.669	494
901.771	657
901.873	921
901.976	540
902.078	3
902.180	361
902.282	409
902.384	-57
902.486	1187
902.588	618
902.690	648
902.792	645
902.894	137
902.996	433
903.098	-227
903.200	647
903.302	36
903.404	923
903.505	537
903.607	1119
903.709	717
903.811	-46
903.913	453
904.014	656
904.116	527
904.218	274
904.319	673
904.421	1124
904.523	1306
904.624	616
904.726	1443
904.827	767
904.929	958
905.030	468
905.132	672
905.233	523
905.335	719
905.436	80
905.537	652
905.639	1248
905.740	121
905.841	731
905.943	1181
906.044	217
906.145	1071
906.247	-157
906.348	504
906.449	119
906.550	-386
906.651	1171
906.752	687
906.854	1163
906.955	150
907.056	269
907.157	1033
907.258	373
907.359	400
907.460	497
907.561	1222
907.662	410
907.762	1046
907.863	17
907.964	1000
908.065	465
908.166	894
908.267	126
908.367	861
908.468	888
908.569	340
908.670	652
908.770	1306
908.871	-23
908.971	183
909.072	233
909.173	1254
909.273	-148
909.374	295
909.474	1071
909.575	-130
909.675	778
909.776	326
909.876	-334
909.977	314
910.077	353
910.177	721
910.278	409
910.378	1586
910.478	-208
910.579	-59
910.679	268
910.779	-203
910.879	309
910.980	151
911.080	299
911.180	434
911.280	-155
911.380	316
911.480	-33
911.580	279
911.680	775
911.780	375
911.880	195
911.980	452
912.080	-360
912.180	793
912.280	403
912.380	392
912.480	-5
912.580	462
912.679	855
912.779	971
912.879	304
912.979	328
913.078	60
913.178	222
913.278	926
913.377	1204
913.477	-140
913.577	538
913.676	323
913.776	407
913.875	535
913.975	441
914.074	10
914.174	120
914.273	-741
914.373	1151
914.472	1005
914.572	431
914.671	-154
914.770	290
914.870	343
914.969	-15
915.068	360
915.167	64
915.267	113
915.366	277
915.465	124
915.564	683
915.663	590
915.763	117
915.862	455
915.961	-382
916.060	529
916.159	967
916.258	-205
916.357	134
916.456	696
916.555	-416
916.654	267
916.752	143
916.851	589
916.950	312
917.049	110
917.148	550
917.247	388
917.345	-272
917.444	-964
917.543	-14
917.642	604
917.740	-261
917.839	591
917.937	252
918.036	520
918.135	-303
918.233	160
918.332	445
918.430	-93
918.529	-90
918.627	-7
918.726	822
918.824	487
918.923	-284
919.021	-97
919.119	98
919.218	207
919.316	-284
919.414	294
919.512	355
919.611	-448
919.709	323
919.807	-166
919.905	118
920.003	-151
920.102	-659
920.200	-105
920.298	135
920.396	452
920.494	-100
920.592	-50
920.690	871
920.788	-212
920.886	14
920.984	439
921.082	306
921.180	701
921.277	854
921.375	83
921.473	496
921.571	314
921.669	247
921.766	174
921.864	606
921.962	31
922.060	223
922.157	1374
922.255	-606
922.352	-283
922.450	561
922.548	283
922.645	332
922.743	-667
922.840	466
922.938	264
923.035	113
923.133	196
923.230	887
923.327	-167
923.425	-56
923.522	1117
923.619	598
923.717	-80
923.814	-99
923.911	-142
924.008	1175
924.106	270
924.203	822
924.300	308
924.397	604
924.494	1220
924.591	770
924.688	-193
924.786	526
924.883	990
924.979	988
925.077	176
925.173	1487
925.270	-260
925.367	-220
925.464	148
925.561	745
925.658	-640
925.755	994
925.852	378
925.948	873
926.045	900
926.142	170
926.239	1105
926.335	801
926.432	587
926.529	377
926.625	1698
926.722	137
926.818	403
926.915	107
927.011	232
927.108	286
927.204	202
927.301	666
927.397	224
927.494	749
927.590	737
927.687	236
927.783	-48
927.879	817
927.976	-107
928.072	78
928.168	222
928.264	551
928.361	364
928.457	-210
928.553	223
928.649	731
928.745	29
928.841	215
928.937	166
929.033	738
929.129	383
929.225	728
929.321	265
929.417	451
929.513	528
929.609	896
929.705	1091
929.801	943
929.897	165
929.993	153
930.089	243
930.184	375
930.280	377
930.376	-361
930.471	86
930.567	-55
930.663	378
930.758	262
930.854	147
930.950	-165
931.045	-501
931.141	374
931.236	200
931.332	57
931.427	-749
931.523	397
931.618	408
931.714	-334
931.809	390
931.905	550
932.000	-139
932.095	-65
932.191	616
932.286	-43
932.381	254
932.476	13
932.572	325
932.667	-105
932.762	241
932.857	-83
932.952	1186
933.047	334
933.142	265
933.237	146
933.332	281
933.427	1253
933.522	139
933.617	114
933.712	419
933.807	1214
933.902	-77
933.997	553
934.092	-793
934.187	28
934.282	-68
934.376	289
934.471	575
934.566	-206
934.661	248
934.755	-76
934.850	428
934.945	55
935.039	565
935.134	74
935.228	804
935.323	-293
935.417	609
935.512	311
935.606	-1245
935.701	330
935.795	74
935.890	44
935.984	259
936.079	525
936.173	161
936.267	-392
936.362	311
936.456	47
936.550	197
936.644	-177
936.738	-325
936.833	88
936.927	-284
937.021	-200
937.115	-613
937.209	-1031
937.303	-203
937.397	-279
937.491	-231
937.585	-72
937.679	-608
937.773	382
937.867	-265
937.961	122
938.055	723
938.149	1556
938.243	407
938.337	262
938.430	180
938.524	611
938.618	1181
938.712	445
938.805	126
938.899	-536
938.993	123
939.086	414
939.180	1227
939.274	2106
939.367	-59
939.461	-785
939.554	-556
939.648	704
939.741	81
939.835	96
939.928	67
940.022	603
940.115	-237
940.208	202
940.302	-305
940.395	-666
940.488	34
940.582	-111
940.675	505
940.768	-216
940.861	-857
940.954	-588
941.048	-144
941.141	337
941.234	-471
941.327	138
941.420	237
941.513	-151
941.606	-274
941.699	34
941.792	-392
941.885	-211
941.978	-317
942.071	-163
942.164	-185
942.257	-150
942.349	214
942.442	-284
942.535	-452
942.628	481
942.721	133
942.813	-213
942.906	418
942.999	352
943.091	130
943.184	-41
943.277	-1149
943.369	-243
943.462	-370
943.554	401
943.647	-612
943.739	220
943.832	-737
943.924	-962
944.017	-23
944.109	-646
944.201	-582
944.294	428
944.386	-707
944.478	188
944.571	-540
944.663	440
944.755	-161
944.847	-248
944.940	375
945.032	-1020
945.124	-151
945.216	820
945.308	-237
945.400	-260
945.492	-291
945.584	-85
945.676	-325
945.768	-391
945.860	220
945.952	861
946.044	-401
946.136	-514
946.228	-732
946.320	26
946.412	-379
946.503	-765
946.595	40
946.687	-624
946.779	-613
946.870	-695
946.962	333
947.054	220
947.145	817
947.237	-184
947.329	83
947.420	186
947.512	-793
947.603	227
947.695	-431
947.786	-483
947.878	-881
947.969	75
948.061	-272
948.152	289
948.243	-381
948.335	-620
948.426	-729
948.517	-688
948.609	18
948.700	-572
948.791	-876
948.882	292
948.973	-165
949.065	-426
949.156	-842
949.247	-666
949.338	-517
949.429	98
949.520	-451
949.611	-645
949.702	-595
949.793	555
949.884	56
949.975	-357
950.066	-853
950.157	-333
950.247	-696
950.338	-707
950.429	-346
950.520	-640
950.611	-262
950.701	244
950.792	-212
950.883	-691
950.973	-921
951.064	-549
951.155	-188
951.245	288
951.336	-541
951.427	-1499
951.517	375
951.608	-145
951.698	-309
951.788	91
951.879	-907
951.969	-855
952.060	-692
952.150	-146
952.240	-675
952.331	-1385
952.421	951
952.511	-501
952.602	-965
952.692	-471
952.782	250
952.872	182
952.962	-131
953.052	-206
953.143	-643
953.233	-96
953.323	208
953.413	326
953.503	-95
953.593	-399
953.683	-460
953.773	-935
953.863	-1306
953.953	-831
954.042	-745
954.132	-558
954.222	-432
954.312	-520
954.402	-329
954.492	-895
954.581	-114
954.671	-1023
954.761	-1359
954.850	850
954.940	-460
955.030	-683
955.119	-127
955.209	-246
955.298	-496
955.388	-446
955.477	231
955.567	-422
955.656	-92
955.746	-385
955.835	-985
955.925	-632
956.014	-1492
956.103	-913
956.193	-1437
956.282	-272
956.371	37
956.461	-60
956.550	-1176
956.639	-523
956.728	-1120
956.817	-1017
956.906	-1069
956.995	-309
957.085	-157
957.174	143
957.263	-401
957.352	-310
957.441	-629
957.530	-947
957.619	-478
957.708	-897
957.796	-371
957.885	-289
957.974	-393
958.063	-85
958.152	-847
958.241	-685
958.329	-328
958.418	-710
958.507	-1150
958.596	239
958.684	-392
958.773	-268
958.861	-734
958.950	-628
959.039	-96
959.127	-707
959.216	-114
959.304	-592
959.393	580
959.481	-287
959.570	-640
959.658	-387
959.746	-176
959.835	340
959.923	-1114
960.011	-661
960.100	210
960.188	203
960.276	-581
960.365	-76
960.453	-453
960.541	-1204
960.629	-482
960.717	-821
960.805	-759
960.893	239
960.981	-448
961.069	-28
961.158	-812
961.245	-783
961.333	-331
961.421	-472
961.509	-108
961.597	-458
961.685	-863
961.773	-787
961.861	-657
961.949	-806
962.036	-988
962.124	-222
962.212	-290
962.299	-623
962.387	-666
962.475	-64
962.562	-1652
962.650	405
962.738	97
962.825	-1224
962.913	-189
963.000	-604
963.088	-703
963.175	-516
963.263	-829
963.350	-1149
963.438	-109
963.525	-620
963.612	-453
963.700	-28
963.787	1801
963.874	130
963.962	-845
964.049	146
964.136	-872
964.223	-226
964.310	-382
964.398	137
964.485	-799
964.572	-696
964.659	-1161
964.746	91
964.833	-838
964.920	-98
965.007	-519
965.094	-10
965.181	-955
965.268	-1
965.355	-845
965.441	-516
965.528	-1190
965.615	-18
965.702	-967
965.789	-376
965.875	-843
965.962	-1184
966.049	-814
966.136	-170
966.222	-368
966.309	-356
966.395	-1059
966.482	-315
966.569	-744
966.655	-381
966.742	-1404
966.828	-452
966.915	-1352
967.001	-401
967.087	-1449
967.174	-685
967.260	-275
967.347	-522
967.433	-299
967.519	1212
967.605	-229
967.692	-577
967.778	-1325
967.864	-538
967.950	-1010
968.036	-854
968.123	-622
968.209	-893
968.295	-1479
968.381	20
968.467	-288
968.553	-1343
968.639	-29
968.725	-1907
968.811	-111
968.897	122
968.983	-681
969.069	-758
969.154	-454
969.240	44
969.326	-764
969.412	-700
969.497	-639
969.583	-1233
969.669	-381
969.755	-332
969.840	-1365
969.926	-646
970.012	-1240
970.097	-1278
970.183	-1013
970.268	-499
970.354	-699
970.439	-1009
970.525	443
970.610	-1048
970.696	-522
970.781	-262
970.866	-918
970.952	-376
971.037	-766
971.122	-838
971.208	-1118
971.293	-63
971.378	-1631
971.463	286
971.549	-769
971.634	-936
971.719	-1704
971.804	-672
971.889	726
971.974	-1056
972.059	-1483
972.144	-80
972.229	-1405
972.314	-983
972.399	-506
972.484	-410
972.569	-267
972.654	-1108
972.739	-142
972.824	-177
972.908	-946
972.993	-461
973.078	-906
973.163	-810
973.247	133
973.332	-1543
973.417	-404
973.501	-1688
973.586	-204
973.671	-716
973.755	-1628
973.840	29
973.924	39
974.009	-357
974.093	-1175
974.178	445
974.262	-968
974.346	-1162
974.431	-454
974.515	-263
974.600	-1166
974.684	-475
974.768	-1082
974.852	276
974.937	-811
975.021	-253
975.105	-880
975.189	-938
975.273	-362
975.358	-626
975.442	-1819
975.526	-459
975.610	-1046
975.694	-1558
975.778	-37
975.862	-524
975.946	-2040
976.030	363
976.114	-1683
976.198	-100
976.281	-1153
976.365	20
976.449	-1220
976.533	-750
976.617	-1229
976.700	-633
976.784	-570
976.868	-438
976.951	-36
977.035	-1528
977.119	-903
977.202	-607
977.286	-1541
977.369	-598
977.453	-762
977.536	-1238
977.620	-1238
977.703	-281
977.787	-1338
977.870	-117
977.953	-301
978.037	-1211
978.120	-66
978.203	-380
978.287	-728
978.370	-550
978.453	-919
978.536	-1142
978.620	6
978.703	8
978.786	227
978.869	-1185
978.952	-1619
979.035	1260
979.118	-445
979.201	-1656
979.284	-451
979.367	-642
979.450	-378
979.533	-1114
979.616	-1098
979.699	-686
979.782	-708
979.865	-364
979.948	-1225
980.030	-1038
980.113	-463
980.196	-1263
980.279	-63
980.361	-719
980.444	-952
980.526	-658
980.609	-877
980.692	-1014
980.774	-1475
980.857	-1662
980.939	340
981.022	-1302
981.104	-1319
981.187	-1108
981.269	-632
981.352	-904
981.434	-1524
981.516	-955
981.599	-4
981.681	-605
981.763	-767
981.846	-467
981.928	-1519
982.010	-1211
982.092	-1401
982.174	-889
982.256	-1105
982.339	-434
982.421	-1110
982.503	-1349
982.585	-1247
982.667	-194
982.749	-294
982.831	-1856
982.913	-2153
982.995	-17
983.077	-1122
983.158	224
983.240	-2338
983.322	-190
983.404	-526
983.486	-1336
983.568	-902
983.649	-1264
983.731	-618
983.813	-1369
983.894	-384
983.976	-1045
984.058	-838
984.139	-930
984.221	-2397
984.302	-1077
984.384	-1283
984.465	-989
984.547	-167
984.628	-1238
984.710	-425
984.791	-820
984.872	-952
984.954	-616
985.035	-1253
985.116	-1447
985.198	-1416
985.279	-323
985.360	-1276
985.441	-1343
985.522	-266
985.604	-174
985.685	-2942
985.766	474
985.847	275
985.928	-1051
986.009	-1612
986.090	-854
986.171	-375
986.252	-713
986.333	-608
986.414	-580
986.495	-558
986.576	-310
986.656	-1460
986.737	-966
986.818	-729
986.899	-1180
986.980	-884
987.060	49
987.141	-1635
987.222	-1296
987.302	-987
987.383	-1097
987.464	-1821
987.544	-275
987.625	-943
987.705	-968
987.786	-1338
987.866	-1092
987.947	-1084
988.027	-1382
988.108	-1890
988.188	-940
988.268	-1287
988.349	-673
988.429	-2046
988.509	-265
988.589	-1585
988.670	-2421
988.750	-760
988.830	-1339
988.910	-1001
988.990	-1103
989.070	-1220
989.151	-1819
989.231	-1603
989.311	-273
989.391	-694
989.471	-954
989.551	-1385
989.631	-708
989.711	-628
989.791	-1315
989.870	-1492
989.950	335
990.030	-1555
990.110	-1982
990.190	-1698
990.269	-1055
990.349	-1516
990.429	-598
990.509	-567
990.588	-1077
990.668	-494
990.747	-548
990.827	-571
990.907	-1033
990.986	-1372
991.066	-494
991.145	-1455
991.225	-1394
991.304	-1886
991.383	-1131
991.463	-1338
991.542	-733
991.622	-948
991.701	-830
991.780	-1824
991.859	-1189
991.939	-1079
992.018	-295
992.097	-576
992.176	-883
992.256	-1308
992.335	-2508
992.414	-748
992.493	-1372
992.572	-1550
992.651	54
992.730	-2512
992.809	-446
992.888	-2176
992.967	-1181
993.046	-1248
993.125	-1363
993.203	-1332
993.282	-1042
993.361	-1709
993.440	-483
993.519	-2331
993.597	-1054
993.676	-1303
993.755	-1024
993.834	-1925
993.912	-2115
993.991	239
994.069	-1451
994.148	-2275
994.226	-1279
994.305	-664
994.384	-2217
994.462	-536
994.540	-1521
994.619	-1514
994.697	-512
994.776	-2132
994.854	-592
994.932	-1883
995.011	-1363
995.089	-818
995.167	-1472
995.245	-759
995.324	-2508
995.402	-1186
995.480	-2084
995.558	-1661
995.636	-2125
995.714	-1909
995.792	-1245
995.870	-1888
995.948	-1411
996.026	-841
996.104	-1845
996.182	-437
996.260	-1242
996.338	-1133
996.416	-1765
996.494	-1315
996.572	-477
996.649	-1869
996.727	-1482
996.805	-1336
996.883	-1986
996.960	-1346
997.038	-1441
997.116	-1600
997.193	-1636
997.271	-1023
997.348	-1068
997.426	-1523
997.504	-2455
997.581	-683
997.658	-375
997.736	-1564
997.813	-1732
997.891	-432
997.968	-1676
998.046	-944
998.123	-1099
998.200	-1535
998.277	-1629
998.355	-994
998.432	-1790
998.509	-1713
998.586	-504
998.663	-1172
998.741	-1530
998.818	-1292
998.895	-1555
998.972	-796
999.049	-1327
999.126	-1571
999.203	-1235
999.280	-867
999.357	-1503
999.434	-1733
999.511	-920
999.587	-957
999.664	-1581
999.741	-1206
999.818	-984
999.895	-2139
999.971	-1428
1000.048	-1497
1000.125	-96
1000.202	-1792
1000.278	-909
1000.355	-1720
1000.431	-1278
1000.508	-1962
1000.584	-740
1000.661	-1314
1000.738	-1832
1000.814	-2140
1000.890	-686
1000.967	-1408
1001.043	-1979
1001.120	-1890
1001.196	-1286
1001.272	-2404
1001.349	-1027
1001.425	-698
1001.501	-1594
1001.577	-2350
1001.654	-1139
1001.730	-1101
1001.806	-1852
1001.882	-1974
1001.958	-975
1002.034	-1406
1002.110	-1333
1002.186	-1245
1002.262	-1167
1002.338	-1184
1002.414	-309
1002.490	-1008
1002.566	-991
1002.642	-1920
1002.718	-940
1002.794	-1708
1002.870	-2067
1002.945	-1631
1003.021	-994
1003.097	-1870
1003.173	-1117
1003.248	-1737
1003.324	-1490
1003.400	-1541
1003.475	-1799
1003.551	-1739
1003.626	-709
1003.702	-2308
1003.777	-878
1003.853	-2010
1003.928	-2014
1004.004	-1359
1004.079	-897
1004.155	-1017
1004.230	-2048
1004.305	-897
1004.381	-2179
1004.456	-1711
1004.531	-1458
1004.607	-1165
1004.682	-1467
1004.757	-1601
1004.832	-1339
1004.907	-2327
1004.982	-891
1005.057	-1212
1005.133	-1469
1005.208	-2091
1005.283	-2135
1005.358	-689
1005.433	-2280
1005.508	-681
1005.583	-1807
1005.657	-1327
1005.732	-186
1005.807	-1039
1005.882	-1424
1005.957	-1366
1006.032	-801
1006.106	-1197
1006.181	-776
1006.256	-1438
1006.331	-2425
1006.405	-1987
1006.480	-1611
1006.554	-2170
1006.629	-2203
1006.704	-2439
1006.778	-961
1006.853	-864
1006.927	-2256
1007.002	-1874
1007.076	-1714
1007.150	-1354
1007.225	-1583
1007.299	-1631
1007.373	-1010
1007.448	-1382
1007.522	-1394
1007.596	-1636
1007.671	-1995
1007.745	-1083
1007.819	-1463
1007.893	-1639
1007.967	-1575
1008.041	-2489
1008.115	-1380
1008.190	-2203
1008.264	-815
1008.338	-2308
1008.412	-1628
1008.486	-1935
1008.560	-1708
1008.633	-2039
1008.707	-1921
1008.781	-914
1008.855	-1812
1008.929	-2099
1009.003	-1357
1009.076	-2063
1009.150	-1760
1009.224	-1458
1009.298	-1220
1009.371	-2149
1009.445	-918
1009.519	-1682
1009.592	-2339
1009.666	-908
1009.739	-1652
1009.813	-2962
1009.886	-841
1009.960	-2944
1010.033	-1548
1010.107	-1614
1010.180	-1335
1010.253	-1701
1010.327	-2419
1010.400	-1922
1010.473	-1180
1010.547	-1182
1010.620	-1492
1010.693	-973
1010.766	-1590
1010.840	-1001
1010.913	-1092
1010.986	-2297
1011.059	-1851
1011.132	-2072
1011.205	-1039
1011.278	-1922
1011.351	-1489
1011.424	-1353
1011.497	-1874
1011.570	-1648
1011.643	-1831
1011.716	-2063
1011.789	-2028
1011.862	-1239
1011.934	-1386
1012.007	-2639
1012.080	-600
1012.153	-1081
1012.225	-771
1012.298	-1761
1012.371	-2837
1012.443	-1491
1012.516	-2008
1012.588	-1299
1012.661	-1667
1012.733	-2412
1012.806	-747
1012.879	-2157
1012.951	-852
1013.023	-1876
1013.096	-1743
1013.168	-1927
1013.241	-1367
1013.313	-2005
1013.385	-2647
1013.458	-1940
1013.530	-820
1013.602	-1981
1013.674	-1472
1013.746	-2515
1013.819	-1495
1013.891	-1577
1013.963	-2277
1014.035	-2314
1014.107	-1092
1014.179	-934
1014.251	-2513
1014.323	-1508
1014.395	-1925
1014.467	-2320
1014.539	-1717
1014.611	-2415
1014.683	-1715
1014.754	-1327
1014.826	-2820
1014.898	-1704
1014.970	-2549
1015.042	-1019
1015.113	-1474
1015.185	-2104
1015.257	-2185
1015.328	-1709
1015.400	-1703
1015.471	-1809
1015.543	-2407
1015.615	-1693
1015.686	-1772
1015.757	-2301
1015.829	-1334
1015.901	-2008
1015.972	-1930
1016.043	-2161
1016.115	-1158
1016.186	-1708
1016.257	-984
1016.328	-1460
1016.400	-1398
1016.471	-2043
1016.542	-1533
1016.613	-1615
1016.685	-2145
1016.756	-1973
1016.827	-1517
1016.898	-1549
1016.969	-1020
1017.040	-2020
1017.111	-1901
1017.182	-2150
1017.253	-2478
1017.324	-2246
1017.395	-1156
1017.466	-1332
1017.537	-2244
1017.608	-2027
1017.678	-2297
1017.749	-1482
1017.820	-1806
1017.891	-2300
1017.961	-2521
1018.032	-2169
1018.103	-2522
1018.173	-2019
1018.244	-1903
1018.315	-2132
1018.385	-1371
1018.456	-1618
1018.526	-2754
1018.597	-1855
1018.667	-2555
1018.738	-2562
1018.808	-1925
1018.878	-2895
1018.949	-1715
1019.019	-2220
1019.089	-1865
1019.160	-1823
1019.230	-1972
1019.300	-2188
1019.371	-2362
1019.441	-2509
1019.511	-2172
1019.581	-2171
1019.651	-2049
1019.721	-1560
1019.791	-1445
1019.861	-1958
1019.931	-1817
1020.001	-2119
1020.071	-1257
1020.141	-2156
1020.211	-1788
1020.281	-2616
1020.351	-2687
1020.421	-1950
1020.491	-1846
1020.560	-2363
1020.630	-1783
1020.700	-1742
1020.770	-2073
1020.839	-1787
1020.909	-1828
1020.979	-2311
1021.048	-2255
1021.118	-2077
1021.187	-2239
1021.257	-1200
1021.326	-1281
1021.396	-2295
1021.465	-2214
1021.535	-1432
1021.604	-1942
1021.674	-2133
1021.743	-1670
1021.812	-1679
1021.882	-880
1021.951	-1364
1022.020	-1303
1022.089	-1984
1022.159	-2242
1022.228	-1844
1022.297	-1981
1022.366	-2530
1022.435	-1729
1022.504	-2110
1022.573	-2503
1022.642	-2135
1022.711	-1855
1022.781	-1475
1022.849	-1685
1022.918	-1810
1022.987	-2033
1023.056	-1993
1023.125	-2130
1023.194	-1829
1023.263	-1643
1023.331	-2069
1023.400	-2612
1023.469	-2188
1023.538	-2063
1023.606	-2830
1023.675	-1207
1023.744	-2315
1023.812	-1734
1023.881	-2102
1023.949	-1872
1024.018	-2433
1024.086	-2344
1024.155	-2070
1024.223	-1686
1024.292	-1326
1024.360	-819
1024.429	-2397
1024.497	-2631
1024.565	-2254
1024.634	-1683
1024.702	-2396
1024.770	-1741
1024.838	-2249
1024.907	-946
1024.975	-2173
1025.043	-1775
1025.111	-1802
1025.179	-2016
1025.247	-1526
1025.315	-1789
1025.383	-2131
1025.451	-1908
1025.519	-1671
1025.587	-1931
1025.655	-2040
1025.723	-1828
1025.791	-1514
1025.859	-2408
1025.927	-1333
1025.995	-2134
1026.062	-2329
1026.130	-1483
1026.198	-2505
1026.266	-1740
1026.333	-2186
1026.401	-1707
1026.469	-1826
1026.536	-2171
1026.604	-1866
1026.671	-1908
1026.739	-1811
1026.806	-1518
1026.874	-1953
1026.941	-3159
1027.009	-2338
1027.076	-2369
1027.144	-638
1027.211	-2140
1027.278	-2543
1027.345	-1845
1027.413	-2061
1027.480	-1065
1027.547	-1765
1027.614	-1987
1027.682	-1883
1027.749	-1978
1027.816	-1997
1027.883	-1163
1027.950	-1880
1028.017	-2040
1028.084	-1725
1028.151	-2059
1028.218	-1596
1028.285	-1823
1028.352	-1105
1028.419	-2417
1028.486	-1534
1028.553	-1607
1028.619	-2325
1028.686	-2085
1028.753	-2172
1028.820	-1210
1028.886	-1319
1028.953	-1561
1029.020	-1832
1029.086	-1101
1029.153	-1820
1029.220	-2084
1029.286	-2062
1029.353	-2077
1029.419	-2102
1029.486	-1688
1029.552	-2554
1029.619	-1258
1029.685	-1538
1029.751	-2227
1029.818	-1934
1029.884	-2018
1029.951	-849
1030.017	-2365
1030.083	-1572
1030.149	-1158
1030.216	-1901
1030.282	-1138
1030.348	-1762
1030.414	-1878
1030.480	-2274
1030.546	-1541
1030.612	-1651
1030.678	-1875
1030.744	-1379
1030.810	-1314
1030.876	-1302
1030.942	-1849
1031.008	-1887
1031.074	-2065
1031.140	-1268
1031.206	-1724
1031.272	-1514
1031.337	-1885
1031.403	-1876
1031.469	-2060
1031.534	-1438
1031.600	-1574
1031.666	-1812
1031.731	-2081
1031.797	-1834
1031.863	-1870
1031.928	-1746
1031.994	-1948
1032.059	-1869
1032.125	-1830
1032.190	-1420
1032.256	-2104
1032.321	-1609
1032.386	-1385
1032.452	-1679
1032.517	-2884
1032.582	-1343
1032.647	-2336
1032.713	-1989
1032.778	-1428
1032.843	-2132
1032.908	-1881
1032.974	-1337
1033.039	-2335
1033.104	-1790
1033.169	-2404
1033.234	-2588
1033.299	-1623
1033.364	-1857
1033.429	-2741
1033.494	-1855
1033.559	-1697
1033.624	-1392
1033.688	-1290
1033.753	-2559
1033.818	-1642
1033.883	-2367
1033.948	-1886
1034.013	-1544
1034.077	-1462
1034.142	-1503
1034.207	-1086
1034.271	-1634
1034.336	-1855
1034.400	-1579
1034.465	-2278
1034.530	-2115
1034.594	-1740
1034.658	-2217
1034.723	-1370
1034.787	-2113
1034.852	-1480
1034.916	-2240
1034.981	-2343
1035.045	-2153
1035.109	-1606
1035.173	-1372
1035.238	-2603
1035.302	-2097
1035.366	-1698
1035.430	-2600
1035.495	-2124
1035.559	-2015
1035.623	-1821
1035.687	-1986
1035.751	-1715
1035.815	-2155
1035.879	-2299
1035.943	-2158
1036.007	-1956
1036.071	-1595
1036.135	-2164
1036.198	-1833
1036.262	-1914
1036.326	-1550
1036.390	-2087
1036.454	-2133
1036.517	-2137
1036.581	-1823
1036.645	-1389
1036.709	-2183
1036.772	-1855
1036.836	-1923
1036.900	-1754
1036.963	-1607
1037.026	-1438
1037.090	-1742
1037.154	-1389
1037.217	-1918
1037.280	-1942
1037.344	-2177
1037.407	-2226
1037.471	-1698
1037.534	-1947
1037.597	-1923
1037.661	-2950
1037.724	-1886
1037.787	-1781
1037.850	-1801
1037.913	-2230
1037.977	-1154
1038.040	-1999
1038.103	-2268
1038.166	-1439
1038.229	-2056
1038.292	-1734
1038.355	-2176
1038.418	-2398
1038.481	-1420
1038.544	-2183
1038.607	-2500
1038.670	-1783
1038.732	-2230
1038.795	-2081
1038.858	-2018
1038.921	-1279
1038.984	-1863
1039.046	-1031
1039.109	-2325
1039.172	-1553
1039.234	-2251
1039.297	-1821
1039.360	-895
1039.422	-2187
1039.485	-1892
1039.547	-1470
1039.610	-2245
1039.672	-1667
1039.734	-2659
1039.797	-2447
1039.859	-2176
1039.922	-2356
1039.984	-2200
1040.046	-2660
1040.109	-1143
1040.171	-2214
1040.233	-1621
1040.295	-2150
1040.358	-2142
1040.420	-1694
1040.482	-1718
1040.544	-2159
1040.606	-2114
1040.668	-1353
1040.730	-2014
1040.792	-1635
1040.854	-2329
1040.916	-1542
1040.978	-1982
1041.040	-1196
1041.102	-2191
1041.164	-1731
1041.225	-2233
1041.287	-1908
1041.349	-2793
1041.411	-1989
1041.472	-1761
1041.534	-1475
1041.596	-1509
1041.657	-760
1041.719	-2106
1041.781	-2330
1041.842	-2186
1041.904	-1876
1041.965	-1580
1042.027	-2142
1042.088	-1815
1042.150	-1780
1042.211	-2134
1042.272	-1871
1042.334	-2049
1042.395	-1746
1042.456	-2867
1042.518	-1658
1042.579	-1319
1042.640	-2230
1042.701	-1784
1042.763	-2675
1042.824	-2187
1042.885	-1603
1042.946	-1924
1043.007	-1806
1043.068	-1873
1043.129	-2170
1043.190	-1920
1043.251	-1409
1043.312	-2142
1043.373	-1227
1043.434	-2435
1043.495	-1389
1043.556	-1350
1043.616	-1551
1043.677	-1899
1043.738	-763
1043.799	-2330
1043.859	-1884
1043.920	-2493
1043.981	-1782
1044.041	-1554
1044.102	-2527
1044.162	-1683
1044.223	-1674
1044.284	-1475
1044.344	-1150
1044.405	-1036
1044.465	-1521
1044.525	-2142
1044.586	-2227
1044.646	-2262
1044.707	-2418
1044.767	-2194
1044.827	-2082
1044.887	-2095
1044.948	-2323
1045.008	-2078
1045.068	-1782
1045.128	-1007
1045.188	-1954
1045.249	-1536
1045.309	-963
1045.369	-2102
1045.429	-1625
1045.489	-1559
1045.549	-1107
1045.609	-1810
1045.669	-1216
1045.729	-2652
1045.789	-1461
1045.848	-1660
1045.908	-1022
1045.968	-1741
1046.028	-1731
1046.088	-1177
1046.147	-761
1046.207	-1895
1046.267	-1670
1046.326	-1502
1046.386	-1102
1046.446	-468
1046.505	-699
1046.565	-612
1046.624	-485
1046.684	-1540
1046.743	216
1046.803	-338
1046.862	-124
1046.922	0
