'Start Wavelength	183.907
'End Wavelength	1046.922
'Gate Delay	5.000
'Gate Width (ms)	1.050
'Laser Output Level	0.000
'X Position	0.000
'Y Position	0.000
'Z Position	0.000
'Grid Point Number	1.000
'Shot Number	100.000
183.907	208.000
183.977	815.000
184.047	499
184.116	524
184.186	510
184.256	-238
184.325	417
184.395	-262
184.465	128
184.534	-46
184.604	513
184.674	69
184.743	-472
184.813	-337
184.883	-49
184.952	846
185.022	206
185.092	-113
185.161	-65
185.231	-87
185.301	345
185.370	767
185.440	-414
185.509	137
185.579	-340
185.649	81
185.718	37
185.788	468
185.857	-137
185.927	167
185.996	-136
186.066	-472
186.136	251
186.205	594
186.275	694
186.344	-255
186.414	412
186.483	93
186.553	437
186.622	49
186.692	35
186.761	400
186.831	192
186.900	313
186.970	705
187.039	113
187.109	1111
187.178	956
187.248	458
187.317	-487
187.387	-402
187.456	469
187.526	152
187.595	704
187.664	-298
187.734	-35
187.803	104
187.873	363
187.942	468
188.012	282
188.081	588
188.150	730
188.220	-270
188.289	530
188.358	245
188.428	-77
188.497	-61
188.567	-376
188.636	60
188.705	-824
188.775	21
188.844	487
188.913	226
188.983	-108
189.052	177
189.121	121
189.191	517
189.260	18
189.329	-106
189.399	12
189.468	-123
189.537	151
189.606	-411
189.676	427
189.745	374
189.814	509
189.883	325
189.953	-294
190.022	649
190.091	156
190.161	541
190.230	-38
190.299	-287
190.368	-322
190.437	238
190.507	-40
190.576	-24
190.645	150
190.714	333
190.783	110
190.853	437
190.922	-436
190.991	699
191.060	-448
191.129	-87
191.198	455
191.268	-45
191.337	-167
191.406	92
191.475	-101
191.544	76
191.613	360
191.682	489
191.752	-786
191.821	25
191.890	-420
191.959	-350
192.028	-196
192.097	328
192.166	-167
192.235	345
192.304	-35
192.373	475
192.442	-436
192.511	181
192.580	334
192.650	-525
192.719	11
192.788	45
192.857	-7
192.926	541
192.995	-171
193.064	51
193.133	-9
193.202	386
193.271	873
193.340	-339
193.409	-364
193.478	922
193.547	-192
193.615	252
193.684	714
193.753	239
193.822	-86
193.891	-142
193.960	-412
194.029	300
194.098	-2
194.167	439
194.236	383
194.305	-5
194.374	-285
194.443	-14
194.512	255
194.580	560
194.649	457
194.718	-95
194.787	-195
194.856	-358
194.925	119
194.994	337
195.062	-406
195.131	758
195.200	-357
195.269	-153
195.338	201
195.407	38
195.475	62
195.544	204
195.613	-693
195.682	617
195.751	346
195.819	-53
195.888	247
195.957	-19
196.026	547
196.094	301
196.163	-86
196.232	44
196.301	-222
196.369	123
196.438	187
196.507	158
196.576	85
196.644	-117
196.713	75
196.782	259
196.850	558
196.919	-271
196.988	542
197.056	129
197.125	522
197.194	471
197.262	155
197.331	-304
197.400	-231
197.468	31
197.537	-329
197.606	232
197.674	232
197.743	541
197.812	2
197.880	597
197.949	356
198.017	240
198.086	463
198.155	234
198.223	484
198.292	1256
198.360	644
198.429	-450
198.497	176
198.566	593
198.635	100
198.703	211
198.772	729
198.840	872
198.909	61
198.977	626
199.046	-14
199.114	-41
199.183	110
199.251	250
199.320	-21
199.388	33
199.457	-84
199.525	-322
199.594	65
199.662	938
199.731	237
199.799	-45
199.867	289
199.936	-140
200.004	581
200.073	595
200.141	3
200.210	-417
200.278	125
200.346	426
200.415	341
200.483	877
200.552	321
200.620	-472
200.688	289
200.757	-40
200.825	561
200.893	551
200.962	-605
201.030	-221
201.098	275
201.167	328
201.235	370
201.303	14
201.372	172
201.440	17
201.508	69
201.577	-514
201.645	-164
201.713	-524
201.781	329
201.850	125
201.918	417
201.986	586
202.055	264
202.123	31
202.191	-395
202.259	435
202.327	-322
202.396	26
202.464	-466
202.532	186
202.600	1009
202.669	69
202.737	-228
202.805	-245
202.873	-799
202.941	-727
203.009	-86
203.078	482
203.146	-184
203.214	325
203.282	-540
203.350	275
203.418	380
203.487	689
203.555	-66
203.623	50
203.691	-432
203.759	-107
203.827	-8
203.895	-347
203.963	-322
204.031	158
204.099	-620
204.168	-151
204.236	327
204.304	-92
204.372	-221
204.440	315
204.508	-240
204.576	-137
204.644	-222
204.712	-363
204.780	145
204.848	-43
204.916	-518
204.984	-69
205.052	224
205.120	-460
205.188	-418
205.256	-483
205.324	385
205.392	71
205.460	-258
205.528	368
205.596	310
205.664	-91
205.732	-56
205.799	770
205.867	681
205.935	-174
206.003	359
206.071	-420
206.139	-652
206.207	-57
206.275	127
206.343	131
206.411	32
206.478	778
206.546	-110
206.614	-400
206.682	-210
206.750	95
206.818	518
206.885	-403
206.953	-826
207.021	-119
207.089	-668
207.157	-335
207.225	75
207.292	-434
207.360	61
207.428	-180
207.496	32
207.563	77
207.631	665
207.699	-626
207.767	406
207.834	-439
207.902	-216
207.970	255
208.038	-366
208.105	554
208.173	-251
208.241	317
208.309	815
208.376	321
208.444	984
208.512	-49
208.579	338
208.647	175
208.715	197
208.782	-50
208.850	-329
208.918	7
208.985	371
209.053	84
209.120	-276
209.188	-502
209.256	-858
209.323	-96
209.391	-323
209.459	289
209.526	-352
209.594	236
209.661	-757
209.729	43
209.796	-304
209.864	136
209.932	-244
209.999	236
210.067	360
210.134	381
210.202	-209
210.269	-230
210.337	461
210.404	60
210.472	-510
210.539	5
210.607	-18
210.674	389
210.742	-273
210.809	-18
210.877	-636
210.944	-165
211.012	-397
211.079	17
211.146	-845
211.214	-5
211.281	385
211.349	-299
211.416	120
211.484	298
211.551	195
211.618	-233
211.686	114
211.753	160
211.821	-411
211.888	777
211.955	-199
212.023	104
212.090	171
212.157	-333
212.225	-147
212.292	246
212.359	2458
212.427	3556
212.494	728
212.561	839
212.629	245
212.696	-32
212.763	-437
212.831	638
212.898	-326
212.965	-653
213.032	421
213.100	-195
213.167	265
213.234	-181
213.301	-579
213.369	221
213.436	248
213.503	-637
213.570	19
213.638	10
213.705	-178
213.772	-497
213.839	290
213.906	47
213.973	197
214.041	557
214.108	286
214.175	118
214.242	-385
214.309	101
214.376	31
214.444	370
214.511	500
214.578	219
214.645	23
214.712	24
214.779	-507
214.846	582
214.913	-164
214.980	108
215.048	-135
215.115	664
215.182	-486
215.249	254
215.316	-23
215.383	-343
215.450	225
215.517	1
215.584	-320
215.651	-123
215.718	-443
215.785	579
215.852	-720
215.919	781
215.986	-444
216.053	74
216.120	-392
216.187	386
216.254	-65
216.321	299
216.388	-11
216.455	-213
216.522	454
216.589	346
216.656	983
216.722	829
216.789	564
216.856	303
216.923	-42
216.990	-224
217.057	236
217.124	-16
217.191	131
217.258	977
217.324	440
217.391	770
217.458	1098
217.525	18
217.592	388
217.659	720
217.725	-26
217.792	799
217.859	530
217.926	454
217.993	370
218.059	147
218.126	49
218.193	-209
218.260	-41
218.327	1038
218.393	-434
218.460	782
218.527	92
218.594	148
218.660	732
218.727	581
218.794	-267
218.860	173
218.927	-292
218.994	-696
219.061	-257
219.127	380
219.194	483
219.261	-275
219.327	-285
219.394	146
219.461	-680
219.527	-139
219.594	516
219.661	37
219.727	-61
219.794	229
219.860	142
219.927	115
219.994	115
220.060	698
220.127	365
220.193	-63
220.260	290
220.326	721
220.393	804
220.460	1241
220.526	-235
220.593	610
220.659	188
220.726	1432
220.792	2160
220.859	995
220.925	616
220.992	2458
221.058	3157
221.125	2411
221.191	1599
221.258	233
221.324	-328
221.391	-230
221.457	-367
221.524	-524
221.590	837
221.657	2800
221.723	921
221.789	2390
221.856	712
221.922	227
221.989	401
222.055	20
222.121	-446
222.188	467
222.254	-171
222.321	481
222.387	-163
222.453	-380
222.520	-187
222.586	-299
222.652	-818
222.719	446
222.785	498
222.851	-247
222.918	33
222.984	174
223.050	-600
223.116	147
223.183	134
223.249	-467
223.315	-215
223.382	-248
223.448	530
223.514	-308
223.580	-262
223.647	-130
223.713	-696
223.779	-41
223.845	-637
223.911	-641
223.978	-401
224.044	-598
224.110	-67
224.176	-351
224.242	-498
224.309	-381
224.375	-264
224.441	130
224.507	-252
224.573	-184
224.639	-275
224.705	-691
224.772	-249
224.838	-446
224.904	112
224.970	193
225.036	-221
225.102	-78
225.168	-201
225.234	-351
225.300	-364
225.366	335
225.432	-25
225.499	-83
225.565	-489
225.631	-18
225.697	269
225.763	-40
225.829	240
225.895	-434
225.961	1026
226.027	-84
226.093	-64
226.159	189
226.225	430
226.291	1847
226.357	2566
226.423	1112
226.489	36
226.554	-212
226.620	59
226.686	654
226.752	297
226.818	2416
226.884	5325
226.950	2079
227.016	729
227.082	303
227.148	179
227.214	397
227.279	497
227.345	223
227.411	9
227.477	676
227.543	759
227.609	881
227.674	-711
227.740	-19
227.806	184
227.872	-344
227.938	-34
228.003	504
228.069	158
228.135	-176
228.201	94
228.267	-107
228.332	-68
228.398	194
228.464	-686
228.530	-216
228.595	-35
228.661	68
228.727	-595
228.792	-132
228.858	243
228.924	-77
228.990	-241
229.055	196
229.121	-642
229.187	-572
229.252	-274
229.318	45
229.384	-988
229.449	-38
229.515	-133
229.581	-116
229.646	857
229.712	301
229.777	1237
229.843	38
229.909	616
229.974	470
230.040	218
230.105	74
230.171	-156
230.236	525
230.302	252
230.368	-324
230.433	72
230.499	285
230.564	-426
230.630	153
230.695	157
230.761	-525
230.826	-299
230.892	682
230.957	-313
231.023	26
231.088	-242
231.154	-264
231.219	-336
231.284	239
231.350	-490
231.415	163
231.481	-777
231.546	-366
231.612	163
231.677	-319
231.742	-973
231.808	94
231.873	-582
231.939	-553
232.004	457
232.069	179
232.135	-745
232.200	-43
232.265	-63
232.331	-255
232.396	-187
232.461	-131
232.527	-681
232.592	-253
232.657	-113
232.723	651
232.788	-515
232.853	-353
232.918	65
232.984	116
233.049	-497
233.114	328
233.179	274
233.245	805
233.310	346
233.375	446
233.440	344
233.506	-549
233.571	-13
233.636	-452
233.701	-435
233.766	-170
233.832	277
233.897	2
233.962	-131
234.027	-540
234.092	-265
234.157	-74
234.222	-661
234.288	1118
234.353	2187
234.418	2091
234.483	551
234.548	-149
234.613	-243
234.678	-44
234.743	561
234.808	3024
234.873	26
234.938	-165
235.004	356
235.069	-732
235.134	-183
235.199	483
235.264	110
235.329	-5
235.394	144
235.459	-233
235.524	-274
235.589	-109
235.654	-2
235.719	-293
235.784	218
235.849	60
235.913	848
235.978	920
236.043	713
236.108	-207
236.173	-503
236.238	481
236.303	-125
236.368	-196
236.433	897
236.498	490
236.563	407
236.627	2637
236.692	6851
236.757	1906
236.822	1400
236.887	527
236.952	504
237.017	221
237.081	520
237.146	785
237.211	2384
237.276	9996
237.341	8044
237.405	2488
237.470	1402
237.535	531
237.600	60
237.664	336
237.729	187
237.794	1095
237.859	1317
237.923	415
237.988	268
238.053	786
238.118	1334
238.182	4845
238.247	1584
238.312	352
238.376	161
238.441	-941
238.506	890
238.570	133
238.635	588
238.700	434
238.764	750
238.829	2372
238.893	887
238.958	81
239.023	-611
239.087	-158
239.152	-271
239.216	-429
239.281	-156
239.346	-214
239.410	-488
239.475	923
239.539	5122
239.604	947
239.668	-371
239.733	618
239.797	159
239.862	1799
239.926	1637
239.991	362
240.055	-698
240.120	-72
240.184	322
240.249	-584
240.313	-16
240.378	181
240.442	3608
240.507	1867
240.571	269
240.635	1364
240.700	489
240.764	-321
240.829	-448
240.893	203
240.957	-441
241.022	2847
241.086	1623
241.151	-118
241.215	-409
241.279	770
241.344	400
241.408	-303
241.472	-446
241.537	-61
241.601	-531
241.665	-476
241.730	-649
241.794	345
241.858	-727
241.922	-701
241.987	-87
242.051	-296
242.115	-183
242.179	-650
242.244	-245
242.308	-14
242.372	-191
242.436	-963
242.501	-645
242.565	-179
242.629	-719
242.693	-53
242.757	11
242.822	-46
242.886	241
242.950	-731
243.014	-537
243.078	180
243.142	103
243.206	-474
243.271	-12
243.335	-544
243.399	-13
243.463	6679
243.527	7225
243.591	1377
243.655	320
243.719	217
243.783	-10
243.847	1014
243.911	774
243.975	960
244.040	237
244.104	-190
244.168	259
244.232	525
244.296	433
244.360	652
244.424	596
244.488	307
244.552	293
244.615	-181
244.679	57
244.743	943
244.807	-84
244.871	-77
244.935	396
244.999	-324
245.063	-766
245.127	168
245.191	668
245.255	-248
245.319	-104
245.383	-82
245.446	404
245.510	-318
245.574	26
245.638	-324
245.702	-26
245.766	1507
245.829	482
245.893	244
245.957	-272
246.021	331
246.085	377
246.149	560
246.212	3648
246.276	2640
246.340	654
246.404	488
246.467	630
246.531	606
246.595	451
246.659	352
246.722	521
246.786	608
246.850	647
246.913	290
246.977	371
247.041	792
247.104	-381
247.168	557
247.232	4247
247.295	3966
247.359	962
247.423	1333
247.486	842
247.550	1096
247.614	562
247.677	511
247.741	-445
247.804	686
247.868	497
247.932	3884
247.995	3454
248.059	1306
248.122	246
248.186	1483
248.249	3882
248.313	10157
248.376	6886
248.440	4019
248.503	478
248.567	1850
248.630	954
248.694	1489
248.757	5574
248.821	8206
248.884	3539
248.948	5978
249.011	7506
249.075	12823
249.138	5438
249.202	2448
249.265	1091
249.328	1099
249.392	429
249.455	521
249.519	295
249.582	539
249.645	1859
249.709	839
249.772	864
249.835	597
249.899	386
249.962	468
250.025	1012
250.089	5703
250.152	2333
250.215	2084
250.279	355
250.342	1254
250.405	631
250.468	1150
250.532	875
250.595	3452
250.658	20285
250.721	11527
250.785	3410
250.848	2426
250.911	1515
250.974	1250
251.038	5041
251.101	5094
251.164	2054
251.227	2358
251.290	2438
251.354	6172
251.417	21528
251.480	8069
251.543	15584
251.606	33556
251.669	10263
251.732	6055
251.795	7970
251.859	12355
251.922	17506
251.985	5057
252.048	2430
252.111	2016
252.174	2349
252.237	7887
252.300	9383
252.363	18232
252.426	20268
252.489	5255
252.552	2777
252.615	2075
252.678	4803
252.741	8646
252.804	17393
252.867	20979
252.930	9761
252.993	4608
253.056	2669
253.119	1307
253.182	1605
253.245	2360
253.308	1198
253.371	1601
253.434	1168
253.497	2362
253.559	4403
253.622	2279
253.685	3200
253.748	1813
253.811	860
253.874	2312
253.937	806
254.000	929
254.062	4303
254.125	3047
254.188	2677
254.251	1488
254.314	1554
254.376	2931
254.439	2017
254.502	1218
254.565	5380
254.628	4749
254.690	1436
254.753	1258
254.816	933
254.878	1602
254.941	4841
255.004	1681
255.067	559
255.129	166
255.192	52
255.255	160
255.317	232
255.380	185
255.443	196
255.505	271
255.568	-691
255.631	657
255.693	-100
255.756	94
255.819	232
255.881	238
255.944	-576
256.006	50
256.069	-671
256.132	-28
256.194	909
256.257	1606
256.319	1092
256.382	566
256.444	-50
256.507	-181
256.569	-352
256.632	63
256.694	223
256.757	6457
256.819	5553
256.882	1207
256.944	981
257.007	-15
257.069	-420
257.132	-293
257.194	546
257.257	24
257.319	259
257.381	-278
257.444	4210
257.506	13470
257.569	7410
257.631	3897
257.693	2207
257.756	1219
257.818	923
257.880	345
257.943	-139
258.005	-11
258.067	-39
258.130	799
258.192	597
258.254	1310
258.317	67
258.379	798
258.441	2760
258.503	2034
258.566	6216
258.628	2276
258.690	77
258.753	418
258.815	1185
258.877	-145
258.939	-211
259.001	-477
259.064	490
259.126	99
259.188	215
259.250	-180
259.312	1149
259.375	2690
259.437	747
259.499	76
259.561	-315
259.623	177
259.685	21
259.747	77
259.809	5935
259.872	5357
259.934	12291
259.996	3772
260.058	980
260.120	840
260.182	-154
260.244	-78
260.306	-300
260.368	1164
260.430	664
260.492	1244
260.554	2305
260.616	1140
260.678	6229
260.740	2743
260.802	12
260.864	607
260.926	-472
260.988	158
261.050	-270
261.112	1788
261.174	8587
261.236	2846
261.298	19
261.359	4073
261.421	1744
261.483	677
261.545	73
261.607	-218
261.669	9
261.731	2106
261.793	2787
261.854	344
261.916	92
261.978	308
262.040	440
262.102	382
262.164	1525
262.225	-670
262.287	444
262.349	290
262.411	282
262.472	126
262.534	2826
262.596	2126
262.658	222
262.719	284
262.781	1821
262.843	2172
262.904	525
262.966	128
263.028	963
263.090	13357
263.151	10756
263.213	1875
263.275	1081
263.336	787
263.398	207
263.459	-334
263.521	582
263.583	1350
263.644	-151
263.706	23
263.767	263
263.829	596
263.891	-725
263.952	-732
264.014	-665
264.075	160
264.137	672
264.198	418
264.260	-1220
264.321	-111
264.383	1370
264.444	968
264.506	11
264.567	16
264.629	1353
264.690	-301
264.752	-509
264.813	-45
264.875	-684
264.936	105
264.998	-694
265.059	-661
265.120	-558
265.182	735
265.243	4145
265.305	983
265.366	48
265.427	157
265.489	-1119
265.550	-663
265.611	-143
265.673	-477
265.734	-119
265.795	298
265.857	-519
265.918	-24
265.979	2662
266.040	7784
266.102	1440
266.163	412
266.224	630
266.286	116
266.347	-756
266.408	13
266.469	-204
266.530	-295
266.592	-457
266.653	1091
266.714	80
266.775	-496
266.836	-495
266.898	-79
266.959	-733
267.020	-574
267.081	677
267.142	-919
267.203	-381
267.264	-793
267.326	-123
267.387	-677
267.448	-229
267.509	-588
267.570	-49
267.631	-12
267.692	-753
267.753	-563
267.814	-1385
267.875	1105
267.936	315
267.997	95
268.058	90
268.119	-355
268.180	219
268.241	-1415
268.302	-1212
268.363	-1253
268.424	-771
268.485	-1098
268.546	-1372
268.607	-528
268.668	-615
268.729	-420
268.790	-571
268.851	-245
268.912	611
268.972	-5
269.033	-440
269.094	-1366
269.155	84
269.216	-544
269.277	-275
269.338	-982
269.398	70
269.459	-628
269.520	-113
269.581	403
269.642	468
269.702	-744
269.763	-741
269.824	-638
269.885	-244
269.945	-261
270.006	594
270.067	-944
270.128	-128
270.188	-654
270.249	-366
270.310	-638
270.370	534
270.431	-85
270.492	-454
270.553	90
270.613	892
270.674	900
270.734	-595
270.795	-137
270.856	-284
270.916	-991
270.977	-69
271.038	-167
271.098	-585
271.159	-232
271.219	-861
271.280	-626
271.340	-747
271.401	-290
271.462	988
271.522	-190
271.583	-311
271.643	284
271.704	-861
271.764	289
271.825	2113
271.885	13388
271.946	5920
272.006	1618
272.066	8898
272.127	4673
272.187	749
272.248	-330
272.308	1985
272.369	5619
272.429	1183
272.489	1475
272.550	643
272.610	947
272.671	420
272.731	1241
272.791	1385
272.852	-421
272.912	308
272.972	284
273.033	418
273.093	-408
273.153	-164
273.214	-211
273.274	892
273.334	5993
273.394	4133
273.455	1599
273.515	4148
273.575	2412
273.635	1271
273.696	6660
273.756	5074
273.816	594
273.876	1143
273.936	5970
273.997	2964
274.057	1452
274.117	41
274.177	2959
274.237	11164
274.297	4719
274.358	4234
274.418	5154
274.478	1269
274.538	227
274.598	1279
274.658	6547
274.718	4131
274.778	627
274.838	932
274.898	5253
274.958	8215
275.018	9216
275.078	2793
275.138	1057
275.198	-200
275.258	-14
275.318	867
275.378	761
275.438	834
275.498	1599
275.558	7411
275.618	7224
275.678	2750
275.738	1950
275.798	507
275.858	-211
275.918	-346
275.978	884
276.038	5
276.098	-292
276.157	1576
276.217	2404
276.277	703
276.337	342
276.397	-13
276.457	74
276.517	-315
276.576	577
276.636	-219
276.696	153
276.756	2835
276.815	514
276.875	51
276.935	40
276.995	-188
277.055	-609
277.114	210
277.174	1089
277.234	2263
277.293	465
277.353	85
277.413	20
277.472	281
277.532	-87
277.592	300
277.651	8016
277.711	3566
277.771	3387
277.830	10088
277.890	3616
277.950	12876
278.009	15044
278.069	3631
278.128	8189
278.188	3949
278.248	4559
278.307	8105
278.367	2130
278.426	727
278.486	231
278.545	-3
278.605	491
278.664	-295
278.724	41
278.783	6839
278.843	5952
278.902	1131
278.962	925
279.021	618
279.081	2249
279.140	881
279.199	354
279.259	1194
279.318	1066
279.378	2300
279.437	6813
279.496	29086
279.556	63012
279.615	20831
279.675	6713
279.734	4985
279.793	10240
279.853	8208
279.912	2776
279.971	1115
280.031	1710
280.090	6303
280.149	5113
280.208	11719
280.268	51962
280.327	18471
280.386	5468
280.445	3971
280.505	2062
280.564	1012
280.623	1329
280.682	2839
280.742	1887
280.801	97
280.860	166
280.919	887
280.978	-291
281.037	-404
281.097	-121
281.156	302
281.215	521
281.274	1686
281.333	5870
281.392	578
281.451	-258
281.510	372
281.569	239
281.628	-159
281.688	-489
281.747	260
281.806	165
281.865	-495
281.924	-836
281.983	-368
282.042	-33
282.101	-805
282.160	-573
282.219	-283
282.278	182
282.337	1687
282.396	258
282.454	36
282.513	1143
282.572	2538
282.631	366
282.690	-282
282.749	-470
282.808	-251
282.867	321
282.926	168
282.985	-431
283.043	-574
283.102	-22
283.161	-621
283.220	3296
283.279	2244
283.338	-332
283.396	-268
283.455	387
283.514	265
283.573	891
283.631	331
283.690	101
283.749	501
283.808	1374
283.866	1191
283.925	332
283.984	-82
284.043	-344
284.101	664
284.160	179
284.219	699
284.277	-34
284.336	1552
284.395	5726
284.453	1697
284.512	262
284.570	1375
284.629	949
284.688	1077
284.746	1251
284.805	1900
284.863	2687
284.922	2817
284.981	3504
285.039	5699
285.098	13429
285.156	50055
285.215	107657
285.273	57963
285.332	23387
285.390	12233
285.449	7817
285.507	5178
285.566	3134
285.624	1488
285.683	1743
285.741	1068
285.799	624
285.858	636
285.916	810
285.975	430
286.033	-98
286.091	452
286.150	428
286.208	269
286.267	1242
286.325	-75
286.383	1090
286.442	504
286.500	768
286.558	-29
286.616	228
286.675	1287
286.733	90
286.791	72
286.850	421
286.908	982
286.966	779
287.024	-525
287.083	-258
287.141	-290
287.199	-268
287.257	-477
287.315	102
287.374	169
287.432	1454
287.490	-12
287.548	394
287.606	-402
287.664	585
287.723	729
287.781	-153
287.839	-14
287.897	-226
287.955	202
288.013	77
288.071	5217
288.129	56054
288.187	62369
288.245	15137
288.303	5345
288.361	3830
288.419	2324
288.477	1329
288.535	36
288.593	164
288.651	-90
288.709	-739
288.767	-53
288.825	-929
288.883	239
288.941	463
288.999	-820
289.057	-375
289.115	-718
289.173	-821
289.231	-292
289.289	43
289.346	92
289.404	-322
289.462	-849
289.520	356
289.578	-684
289.636	-985
289.694	118
289.751	-850
289.809	-783
289.867	-1208
289.925	-390
289.983	-1329
290.040	-354
290.098	-523
290.156	-243
290.214	90
290.271	-1210
290.329	-510
290.387	-1598
290.444	-725
290.502	-1004
290.560	-823
290.617	-864
290.675	-666
290.733	-523
290.790	-1196
290.848	-1069
290.906	-670
290.963	-695
291.021	-878
291.078	-1007
291.136	-86
291.194	2387
291.251	2612
291.309	-517
291.366	-847
291.424	-1149
291.481	-692
291.539	-502
291.596	-357
291.654	-1015
291.711	-687
291.769	-131
291.826	-83
291.884	-450
291.941	-1436
291.999	-197
292.056	-456
292.114	-462
292.171	-1419
292.228	-948
292.286	-213
292.343	236
292.401	191
292.458	-350
292.515	-373
292.573	-686
292.630	-604
292.687	-368
292.745	-669
292.802	180
292.859	2616
292.917	4484
292.974	383
293.031	-39
293.089	-1124
293.146	-578
293.203	-715
293.260	-1227
293.318	88
293.375	59
293.432	-208
293.489	-305
293.546	-1017
293.604	64
293.661	8733
293.718	8880
293.775	3063
293.832	964
293.889	866
293.947	804
294.004	117
294.061	-485
294.118	2706
294.175	4690
294.232	3279
294.289	372
294.346	-218
294.403	164
294.460	322
294.517	-610
294.574	-464
294.631	-745
294.688	467
294.745	6994
294.802	14746
294.859	7481
294.916	2650
294.973	564
295.030	1179
295.087	110
295.144	74
295.201	210
295.258	-967
295.315	590
295.372	8146
295.429	6274
295.486	1410
295.542	803
295.599	5562
295.656	4582
295.713	6442
295.770	4645
295.827	1614
295.883	596
295.940	717
295.997	485
296.054	645
296.111	-627
296.167	122
296.224	-457
296.281	-832
296.338	-775
296.394	-140
296.451	328
296.508	4881
296.564	4431
296.621	5234
296.678	18680
296.734	11916
296.791	3264
296.848	918
296.904	2483
296.961	5975
297.018	10190
297.074	4454
297.131	617
297.187	14
297.244	2698
297.301	21789
297.357	15643
297.414	5653
297.470	1285
297.527	603
297.583	258
297.640	143
297.696	-247
297.753	190
297.809	-664
297.866	-184
297.922	-710
297.979	-341
298.035	-799
298.092	1818
298.148	5618
298.204	2751
298.261	1415
298.317	10665
298.374	15511
298.430	5254
298.486	2447
298.543	940
298.599	1498
298.656	1367
298.712	3667
298.768	7460
298.824	3244
298.881	1184
298.937	-103
298.993	518
299.050	-186
299.106	267
299.162	-87
299.218	-341
299.275	-184
299.331	-200
299.387	5802
299.443	16494
299.500	10216
299.556	3123
299.612	787
299.668	735
299.724	1701
299.780	611
299.837	-321
299.893	3720
299.949	10344
300.005	7208
300.061	14836
300.117	16513
300.173	5814
300.229	2408
300.285	2775
300.341	2198
300.397	944
300.453	-205
300.510	-662
300.566	-359
300.622	1482
300.678	5922
300.734	8419
300.790	12391
300.845	9562
300.901	7317
300.957	8775
301.013	4046
301.069	2183
301.125	1051
301.181	208
301.237	119
301.293	-121
301.349	-521
301.405	179
301.461	-706
301.516	975
301.572	1144
301.628	943
301.684	1784
301.740	3791
301.796	3911
301.851	2762
301.907	5110
301.963	5459
302.019	27157
302.074	50661
302.130	33246
302.186	13551
302.242	5402
302.297	2201
302.353	3664
302.409	6079
302.464	3598
302.520	5059
302.576	16153
302.631	11673
302.687	4389
302.743	1565
302.798	1445
302.854	6
302.910	315
302.965	1718
303.021	2414
303.076	2243
303.132	3327
303.187	3101
303.243	865
303.299	-58
303.354	-381
303.410	-353
303.465	141
303.521	-414
303.576	-537
303.632	330
303.687	7059
303.743	15242
303.798	8086
303.853	2338
303.909	1238
303.964	561
304.020	2006
304.075	1538
304.130	2994
304.186	4672
304.241	5832
304.297	2917
304.352	841
304.358	728
304.407	-188
304.449	838
304.463	1183
304.518	674
304.539	460
304.573	120
304.629	145
304.630	229
304.684	3971
304.720	11818
304.739	15920
304.794	12997
304.811	11099
304.850	6071
304.902	2156
304.905	1925
304.960	1072
304.992	1101
305.015	1132
305.071	1016
305.083	1072
305.126	1200
305.173	551
305.181	453
305.236	-501
305.264	-359
305.292	-172
305.347	769
305.354	716
305.402	304
305.445	851
305.457	1019
305.512	1550
305.535	1158
305.567	567
305.622	1446
305.626	1660
305.678	5716
305.716	11507
305.733	13936
305.788	11587
305.807	11707
305.843	11409
305.897	16983
305.898	17067
305.953	12005
305.988	9123
306.008	7122
306.063	3077
306.078	2384
306.118	1218
306.168	386
306.173	333
306.228	961
306.259	868
306.283	669
306.338	180
306.349	184
306.393	518
306.440	800
306.448	814
306.503	992
306.530	1249
306.558	1923
306.613	5227
306.620	5750
306.668	9288
306.711	11857
306.723	12217
306.778	8788
306.801	7189
306.833	4617
306.888	1931
306.892	1796
306.943	1389
306.982	1052
306.997	900
307.052	951
307.072	956
307.107	1167
307.162	1923
307.163	1933
307.217	3100
307.253	3908
307.272	4247
307.327	4817
307.343	4485
307.381	3271
307.434	3320
307.436	3416
307.491	7121
307.524	9988
307.546	11469
307.600	10506
307.614	9821
307.655	5756
307.704	2631
307.710	2523
307.765	3222
307.795	4425
307.819	6378
307.874	10045
307.885	10084
307.929	6851
307.975	4731
307.984	4725
308.038	4936
308.065	6352
308.093	10317
308.148	29339
308.156	33297
308.202	67531
308.246	78993
308.257	73756
308.312	38606
308.336	25494
308.366	19234
308.421	11638
308.426	10967
308.475	6773
308.517	4490
308.530	4179
308.585	3496
308.607	3388
308.639	3225
308.694	3178
308.697	3280
308.748	7669
308.787	11212
308.803	11715
308.857	9639
308.877	9033
308.912	7033
308.967	4802
308.967	4778
309.021	6595
309.058	8316
309.076	10408
309.130	18534
309.148	23321
309.185	42864
309.238	85707
309.239	86637
309.293	112995
309.328	119728
309.348	99635
309.402	43228
309.418	28605
309.457	19162
309.508	10894
309.511	10711
309.566	9595
309.598	10029
309.620	12413
309.674	20213
309.688	21748
309.729	21986
309.778	19843
309.783	19186
309.837	11471
309.868	7669
309.892	7666
309.946	9985
309.959	10770
310.001	16219
310.049	20446
310.055	19800
310.109	12496
310.139	8683
310.163	6795
310.218	3397
310.229	2875
310.272	3013
310.319	2860
310.326	2702
310.381	1725
310.409	1498
310.435	1637
310.489	1521
310.499	1488
310.543	1600
310.589	1983
310.598	1978
310.652	1802
310.679	1717
310.706	1665
310.760	1449
310.769	1430
310.814	1334
310.859	1200
310.868	1183
310.923	1045
310.948	999
310.977	1099
311.031	1480
311.038	1503
311.085	1866
311.128	2216
311.139	2078
311.193	1357
311.218	1005
311.247	1123
311.301	1292
311.308	1333
311.356	1341
311.398	1190
311.410	1196
311.464	1304
311.488	1343
311.518	1240
311.572	1077
311.578	1057
311.626	1663
311.668	2154
311.680	2107
311.734	1914
311.758	1807
311.788	1948
311.842	2221
311.847	2244
311.896	1700
311.937	1282
311.950	1582
312.004	2875
312.027	3437
312.058	2695
312.112	1366
312.117	1236
312.165	970
312.207	749
312.297	1696
312.386	1443
312.476	1070
312.566	3632
312.656	1602
312.745	992
312.835	653
312.925	1817
313.015	1480
313.104	1507
313.194	870
313.284	1055
313.374	1164
313.463	1445
313.553	185
313.643	1191
313.732	581
313.822	703
313.912	306
314.001	1023
314.091	1289
314.180	2307
314.270	1673
314.360	2588
314.449	1830
314.539	338
314.628	1392
314.718	1792
314.808	1658
314.897	1481
314.987	831
315.076	1660
315.166	1724
315.255	2769
315.345	2012
315.434	2007
315.524	1759
315.613	2629
315.703	2149
315.792	4020
315.881	12244
315.971	8922
316.060	3509
316.150	6203
316.239	6297
316.328	4327
316.418	518
316.507	1261
316.597	1827
316.686	2276
316.775	1837
316.865	7425
316.954	3368
317.043	1264
317.133	1322
317.222	852
317.311	981
317.400	1367
317.490	1145
317.579	2103
317.668	657
317.757	2787
317.847	6190
317.936	23503
318.025	14156
318.114	5329
318.203	4278
318.293	3362
318.382	5944
318.471	5382
318.560	6923
318.649	12930
318.738	5217
318.828	2160
318.917	2517
319.006	2651
319.095	6740
319.184	15050
319.273	13084
319.362	6271
319.451	1508
319.540	1252
319.629	3287
319.718	7546
319.807	2372
319.896	4948
319.985	19880
320.074	13753
320.163	2444
320.252	4376
320.341	2234
320.430	2810
320.519	2930
320.608	2930
320.697	1290
320.786	1495
320.875	1880
320.964	2908
321.053	3821
321.142	6249
321.230	8090
321.319	4653
321.408	10727
321.497	7904
321.586	4479
321.675	5630
321.764	7103
321.852	4393
321.941	5459
322.030	5321
322.119	3831
322.207	11842
322.296	12114
322.385	4932
322.474	3795
322.562	12264
322.651	11593
322.740	5057
322.829	8449
322.917	8826
323.006	6045
323.095	3827
323.183	3045
323.272	4400
323.361	7321
323.449	29572
323.538	17293
323.626	16731
323.715	19708
323.804	3902
323.892	15006
323.981	15466
324.069	2467
324.158	7113
324.246	14536
324.335	2657
324.424	3762
324.512	2570
324.601	1218
324.689	3848
324.778	10824
324.866	7611
324.954	2767
325.043	912
325.131	2366
325.220	7191
325.308	9233
325.397	6039
325.485	4696
325.574	794
325.662	347
325.750	1477
325.839	1074
325.927	744
326.015	778
326.104	2487
326.192	4301
326.280	1032
326.369	728
326.457	1554
326.545	2296
326.634	2562
326.722	481
326.810	1239
326.898	664
326.987	446
327.075	2636
327.163	4492
327.251	1698
327.340	2747
327.428	5678
327.516	1465
327.604	881
327.692	1823
327.781	925
327.869	2639
327.957	2452
328.045	1945
328.133	904
328.221	926
328.309	1368
328.397	1655
328.485	1161
328.574	1072
328.662	6166
328.750	6445
328.838	2181
328.926	1007
329.014	644
329.102	2132
329.190	2855
329.278	2883
329.366	959
329.454	673
329.542	465
329.630	439
329.718	377
329.806	1210
329.893	1684
329.981	1004
330.069	1144
330.157	4606
330.245	20920
330.333	16925
330.421	2222
330.509	1706
330.597	6748
330.684	8256
330.772	2150
330.860	2971
330.948	3470
331.036	2857
331.123	417
331.211	1275
331.299	730
331.387	1854
331.475	5179
331.562	2446
331.650	469
331.738	1133
331.825	1708
331.913	941
332.001	107
332.089	1460
332.176	2321
332.264	7089
332.352	10171
332.439	2160
332.527	1632
332.614	692
332.702	1597
332.790	1129
332.877	2493
332.965	9881
333.052	3891
333.140	1859
333.228	7782
333.315	2733
333.403	957
333.490	3720
333.578	5990
333.665	7758
333.753	5577
333.840	1512
333.928	1449
334.015	3362
334.103	7293
334.190	24094
334.278	12422
334.365	2379
334.452	1994
334.540	1353
334.627	1468
334.715	2715
334.802	4004
334.889	24442
334.977	55467
335.064	8244
335.151	974
335.239	1218
335.326	953
335.413	6832
335.501	19960
335.588	3123
335.675	1472
335.762	1546
335.850	2820
335.937	2573
336.024	4678
336.111	30933
336.199	27781
336.286	4452
336.373	1757
336.460	1069
336.547	1104
336.635	1067
336.722	1320
336.809	1280
336.896	1013
336.983	4506
337.070	13229
337.157	25223
337.245	20996
337.332	27512
337.419	2967
337.506	1322
337.593	1223
337.680	1984
337.767	14094
337.854	6741
337.941	4397
338.028	7499
338.115	3745
338.202	1914
338.289	3043
338.376	21280
338.463	12649
338.550	5956
338.637	11586
338.724	2846
338.811	7627
338.898	2162
338.984	874
339.071	778
339.158	1055
339.245	3527
339.332	3967
339.419	2976
339.506	6482
339.593	729
339.679	179
339.766	742
339.853	246
339.940	2069
340.027	1223
340.113	735
340.200	1075
340.287	1357
340.374	690
340.460	2771
340.547	1303
340.634	1771
340.720	6106
340.807	8442
340.894	727
340.980	853
341.067	1022
341.154	977
341.240	400
341.327	3817
341.414	1530
341.500	1154
341.587	988
341.674	1056
341.760	1932
341.847	3648
341.933	1216
342.020	655
342.106	245
342.193	1740
342.279	2436
342.366	1570
342.452	3197
342.539	1499
342.625	1956
342.712	9589
342.798	5877
342.885	2491
342.971	129
343.058	688
343.144	242
343.230	1221
343.317	558
343.403	-28
343.490	352
343.576	842
343.662	483
343.749	1060
343.835	1211
343.921	2071
344.008	12000
344.094	67086
344.180	25930
344.267	3303
344.353	7676
344.439	18811
344.525	5101
344.612	2648
344.698	841
344.784	1367
344.870	113
344.957	831
345.043	2020
345.129	1466
345.215	1551
345.301	1790
345.387	694
345.474	926
345.560	804
345.646	680
345.732	932
345.818	982
345.904	1571
345.990	1123
346.076	740
346.162	2541
346.249	1323
346.335	797
346.421	1061
346.507	2274
346.593	17887
346.679	9816
346.765	1398
346.851	1314
346.937	952
347.023	903
347.108	-75
347.194	1040
347.280	889
347.366	1971
347.452	2623
347.538	20046
347.624	21227
347.710	14670
347.796	3112
347.882	1099
347.967	689
348.053	1614
348.139	511
348.225	899
348.311	949
348.397	289
348.482	681
348.568	1823
348.654	771
348.740	521
348.825	765
348.911	1647
348.997	5552
349.083	26330
349.168	7683
349.254	1484
349.340	826
349.425	541
349.511	619
349.597	1681
349.682	2347
349.768	9528
349.854	8622
349.939	984
350.025	89
350.110	950
350.196	-42
350.282	694
350.367	-229
350.453	1388
350.538	2351
350.624	1050
350.709	1229
350.795	504
350.880	442
350.966	849
351.051	1377
351.137	2346
351.222	427
351.308	1654
351.393	8924
351.479	4567
351.564	1123
351.649	687
351.735	286
351.820	763
351.906	436
351.991	534
352.076	2909
352.162	10891
352.247	2156
352.332	1064
352.418	1274
352.503	2449
352.588	7788
352.673	15497
352.759	3343
352.844	920
352.929	294
353.014	1460
353.100	779
353.185	969
353.270	2451
353.355	3704
353.441	1370
353.526	901
353.611	1342
353.696	4026
353.781	1786
353.866	484
353.952	381
354.037	2225
354.122	5627
354.207	6049
354.292	3314
354.377	1217
354.462	363
354.547	751
354.632	1273
354.717	1520
354.802	2242
354.887	1523
354.972	-210
355.057	331
355.142	-284
355.227	443
355.312	554
355.397	2284
355.482	8929
355.567	8372
355.652	2496
355.737	4012
355.822	7866
355.907	17559
355.991	2500
356.076	792
356.161	1064
356.246	630
356.331	789
356.416	1585
356.501	13547
356.585	41213
356.670	6516
356.755	1708
356.840	1613
356.924	8339
357.009	57824
357.094	49553
357.179	5256
357.263	3664
357.348	2105
357.433	3056
357.517	1945
357.602	2147
357.687	1445
357.771	1565
357.856	7645
357.941	9532
358.025	5160
358.110	54032
358.195	58164
358.279	5803
358.364	2222
358.448	5532
358.533	19912
358.617	21875
358.702	16177
358.787	10963
358.871	1997
358.956	3672
359.040	890
359.125	636
359.209	381
359.294	2834
359.378	9596
359.462	4966
359.547	2384
359.631	1062
359.716	767
359.800	257
359.885	1356
359.969	1869
360.053	-1
360.138	1533
360.222	1159
360.306	2240
360.391	2506
360.475	1893
360.559	12090
360.644	9253
360.728	8427
360.812	6625
360.896	38308
360.981	24103
361.065	8470
361.149	2428
361.233	1425
361.318	1105
361.402	1175
361.486	1718
361.570	434
361.654	713
361.739	2711
361.823	13262
361.907	51559
361.991	15753
362.075	2405
362.159	5765
362.243	5508
362.327	3412
362.411	5663
362.495	3975
362.580	2167
362.664	795
362.748	1322
362.832	904
362.916	1762
363.000	5030
363.084	19611
363.168	56679
363.252	23014
363.336	2869
363.420	2750
363.503	9172
363.587	23666
363.671	5518
363.755	1471
363.839	2948
363.923	898
364.007	2620
364.091	4242
364.175	3147
364.258	17971
364.342	23561
364.426	17222
364.510	16204
364.594	5266
364.677	3659
364.761	22014
364.845	40558
364.929	7292
365.013	5233
365.096	2627
365.180	5426
365.264	3152
365.347	19986
365.431	20172
365.515	3328
365.598	1168
365.682	1394
365.766	919
365.849	2471
365.933	1311
366.017	2093
366.100	1304
366.184	275
366.267	-86
366.351	769
366.435	44
366.518	679
366.602	-243
366.685	750
366.769	512
366.852	1045
366.936	2612
367.019	2422
367.103	282
367.186	2897
367.270	1151
367.353	186
367.436	-147
367.520	736
367.603	678
367.687	1097
367.770	2122
367.853	2440
367.937	3696
368.020	15954
368.104	5474
368.187	1499
368.270	2876
368.353	3113
368.437	3767
368.520	12292
368.603	12150
368.687	5776
368.770	18661
368.853	8348
368.936	2178
369.020	3741
369.103	1984
369.186	284
369.269	-187
369.352	1305
369.436	2795
369.519	2620
369.602	1205
369.685	566
369.768	630
369.851	1158
369.934	-219
370.018	775
370.101	2579
370.184	2879
370.267	1099
370.350	2396
370.433	4080
370.516	9383
370.599	27576
370.682	9860
370.765	6743
370.848	9476
370.931	19625
371.014	15942
371.097	1875
371.180	1761
371.263	370
371.346	839
371.429	243
371.511	671
371.594	843
371.677	2719
371.760	3256
371.843	2471
371.926	8442
372.009	57320
372.091	34405
372.174	5861
372.257	20742
372.340	17792
372.423	3329
372.505	6200
372.588	2851
372.671	3258
372.754	16394
372.836	20359
372.919	4016
373.002	12768
373.085	7311
373.167	2816
373.250	5563
373.332	18213
373.415	23761
373.498	72036
373.580	50412
373.663	19704
373.746	64732
373.828	22090
373.911	4273
373.993	2913
374.076	7521
374.159	16747
374.241	5641
374.324	12590
374.406	17974
374.489	8903
374.571	52621
374.654	43784
374.736	7835
374.819	24634
374.901	44409
374.983	71298
375.066	22134
375.148	2468
375.231	4412
375.313	21271
375.395	11860
375.478	3095
375.560	903
375.643	1136
375.725	3542
375.807	30207
375.890	52248
375.972	20016
376.054	7379
376.136	10609
376.219	8690
376.301	4308
376.383	30676
376.465	27394
376.548	5649
376.630	6461
376.712	20802
376.794	25357
376.877	2395
376.959	905
377.041	553
377.123	1375
377.205	2997
377.287	1383
377.369	-53
377.452	142
377.534	176
377.616	1212
377.698	9
377.780	-170
377.862	-229
377.944	239
378.026	-305
378.108	395
378.190	64
378.272	502
378.354	-622
378.436	49
378.518	-27
378.600	3138
378.682	4275
378.764	6919
378.846	13389
378.928	3014
379.010	2693
379.091	1748
379.173	569
379.255	-293
379.337	-136
379.419	1307
379.501	14204
379.583	14386
379.664	1396
379.746	2502
379.828	7378
379.910	14236
379.991	18410
380.073	5307
380.155	622
380.237	1077
380.318	-606
380.400	712
380.482	1053
380.564	3138
380.645	2626
380.727	4429
380.809	2427
380.890	1283
380.972	744
381.053	554
381.135	623
381.217	1580
381.298	9032
381.380	10370
381.461	3088
381.543	14208
381.624	46361
381.706	15632
381.787	2427
381.869	3151
381.951	3813
382.032	41353
382.113	62076
382.195	11252
382.276	3467
382.358	4490
382.439	19931
382.521	29702
382.602	51684
382.684	36605
382.765	24432
382.846	42081
382.928	57413
383.009	60806
383.090	19333
383.172	47535
383.253	164827
383.334	87864
383.416	38494
383.497	38794
383.578	11394
383.659	13686
383.741	36044
383.822	174384
383.903	193062
383.984	40073
384.066	42527
384.147	44550
384.228	12854
384.309	4369
384.390	3529
384.471	2688
384.553	2269
384.634	2335
384.715	4099
384.796	2618
384.877	2187
384.958	6236
385.039	15622
385.120	6837
385.201	1908
385.282	1759
385.363	2311
385.444	1842
385.525	2055
385.606	12148
385.687	26729
385.768	7617
385.849	2710
385.930	10696
386.011	49174
386.092	28908
386.173	3380
386.254	1604
386.335	1209
386.416	1374
386.496	2854
386.577	11771
386.658	6947
386.739	2775
386.820	1851
386.901	1502
386.981	441
387.062	759
387.143	301
387.224	5702
387.304	14337
387.385	4633
387.466	2186
387.547	2424
387.627	1951
387.708	2341
387.789	11106
387.869	32306
387.950	16403
388.031	2270
388.111	482
388.192	2674
388.273	3843
388.353	4300
388.434	1536
388.514	1641
388.595	13137
388.676	37719
388.756	19343
388.837	8314
388.917	9322
388.998	1941
389.078	427
389.159	446
389.239	125
389.320	1487
389.400	1121
389.480	2075
389.561	8735
389.641	10795
389.722	1261
389.802	2384
389.883	3391
389.963	10993
390.043	16454
390.124	4744
390.204	1255
390.284	9474
390.365	12268
390.445	5155
390.525	19167
390.605	34331
390.686	12438
390.766	3314
390.846	1330
390.927	694
391.007	327
391.087	814
391.167	1382
391.247	686
391.328	1311
391.408	3082
391.488	2223
391.568	553
391.648	409
391.728	2156
391.808	1355
391.888	2489
391.969	2619
392.049	11368
392.129	7997
392.209	3888
392.289	10406
392.369	13075
392.449	5218
392.529	5405
392.609	3242
392.689	3208
392.769	8596
392.849	18510
392.929	7263
393.009	15569
393.089	24488
393.169	13680
393.248	26088
393.328	130870
393.408	329274
393.488	140911
393.568	25929
393.648	10780
393.728	5510
393.807	4139
393.887	3683
393.967	3203
394.047	2269
394.127	3226
394.206	3733
394.286	9193
394.366	55320
394.446	161978
394.525	58908
394.605	9340
394.685	4272
394.764	6521
394.844	10999
394.924	14063
395.003	4832
395.083	2446
395.163	2337
395.242	1767
395.322	2572
395.402	1960
395.481	1920
395.561	2596
395.640	11754
395.720	16505
395.799	12417
395.879	19455
395.958	7875
396.038	12048
396.117	73957
396.197	206197
396.276	83542
396.356	16096
396.435	8815
396.515	6437
396.594	6068
396.673	10795
396.753	24666
396.832	143209
396.912	243203
396.991	72383
397.070	14013
397.150	5745
397.229	3214
397.308	3128
397.388	5301
397.467	5447
397.546	2266
397.625	1009
397.705	1743
397.784	2129
397.863	745
397.942	454
398.022	923
398.101	1443
398.180	9777
398.259	11761
398.338	2923
398.417	1336
398.497	904
398.576	803
398.655	85
398.734	569
398.813	179
398.892	1808
398.971	9732
399.050	13519
399.129	1823
399.208	131
399.287	-269
399.366	-198
399.445	155
399.524	-205
399.603	-591
399.682	585
399.761	1721
399.840	9590
399.919	19070
399.998	4510
400.077	-215
400.156	-765
400.235	146
400.313	-284
400.392	-258
400.471	1537
400.550	9003
400.629	5785
400.708	924
400.786	354
400.865	864
400.944	3093
401.023	2129
401.102	-647
401.180	-751
401.259	140
401.338	264
401.416	420
401.495	145
401.574	217
401.652	-338
401.731	681
401.810	602
401.888	255
401.967	-399
402.046	-333
402.124	56
402.203	225
402.281	274
402.360	-33
402.438	1370
402.517	2963
402.596	818
402.674	781
402.753	-420
402.831	-355
402.910	-583
402.988	841
403.066	7820
403.145	14057
403.223	3054
403.302	6997
403.380	10435
403.459	7228
403.537	5262
403.615	897
403.694	-787
403.772	203
403.850	-830
403.929	390
404.007	-660
404.085	375
404.164	832
404.242	253
404.320	-668
404.398	507
404.477	520
404.555	16611
404.633	49941
404.711	13129
404.789	296
404.868	206
404.946	-182
405.024	-609
405.102	-905
405.180	-470
405.258	-1062
405.336	558
405.415	-1028
405.493	469
405.571	324
405.649	65
405.727	-632
405.805	-87
405.883	287
405.961	55
406.039	342
406.117	351
406.195	-220
406.273	1683
406.351	16257
406.429	30819
406.507	5292
406.585	571
406.663	-568
406.740	443
406.818	306
406.896	428
406.974	-196
407.052	-293
407.130	4267
407.208	25407
407.285	12817
407.363	797
407.441	-388
407.519	17
407.596	-187
407.674	149
407.752	2858
407.830	7564
407.907	3168
407.985	723
408.063	-399
408.141	-661
408.218	-892
408.296	430
408.373	-166
408.451	-161
408.529	200
408.606	342
408.684	-734
408.762	-297
408.839	-1344
408.917	-729
408.994	-419
409.072	-652
409.149	-1182
409.227	-722
409.304	-451
409.382	-35
409.459	-636
409.537	495
409.614	262
409.692	97
409.769	-60
409.846	597
409.924	280
410.001	1033
410.079	494
410.156	-119
410.233	-467
410.311	224
410.388	-880
410.465	-389
410.543	-915
410.620	-221
410.697	15
410.775	-90
410.852	-1086
410.929	129
411.006	-104
411.083	97
411.161	221
411.238	1620
411.315	134
411.392	-415
411.469	-566
411.547	193
411.624	-344
411.701	-649
411.778	-1152
411.855	-101
411.932	365
412.009	-444
412.086	-932
412.163	-550
412.240	-710
412.317	-255
412.394	-545
412.471	-833
412.548	-966
412.625	364
412.702	-1091
412.779	135
412.856	163
412.933	-340
413.010	-902
413.087	-732
413.164	475
413.241	8003
413.318	3572
413.395	521
413.471	-364
413.548	827
413.625	-1647
413.702	-518
413.779	-562
413.855	-529
413.932	-399
414.009	-1443
414.086	-1000
414.162	-319
414.239	-1050
414.316	1179
414.393	8909
414.469	9323
414.546	-264
414.623	-789
414.699	-1670
414.776	-1003
414.853	-562
414.929	-739
415.006	-1643
415.082	-1600
415.159	-768
415.236	-881
415.312	-503
415.389	-514
415.465	522
415.542	280
415.618	-1236
415.695	723
415.771	-674
415.848	-202
415.924	-1246
416.000	-1201
416.077	-429
416.153	-975
416.230	-1544
416.306	-1262
416.383	-1204
416.459	-807
416.535	-1866
416.612	-833
416.688	-1103
416.764	-574
416.841	-818
416.917	-1256
416.993	-1160
417.069	-324
417.146	-1204
417.222	-93
417.298	-39
417.374	-565
417.451	-1451
417.527	-812
417.603	-808
417.679	-749
417.755	-826
417.831	-1185
417.908	-886
417.984	-567
418.060	-1710
418.136	-1389
418.212	1027
418.288	773
418.364	-807
418.440	-206
418.516	-764
418.592	185
418.668	-549
418.744	2174
418.820	2625
418.896	977
418.972	-864
419.048	-991
419.124	-161
419.200	207
419.276	-548
419.352	-1318
419.428	-1297
419.504	-1205
419.579	-260
419.655	-957
419.731	-946
419.807	-751
419.883	2587
419.959	3947
420.034	959
420.110	209
420.186	2052
420.262	8228
420.337	1684
420.413	-392
420.489	-1291
420.565	-360
420.640	-1541
420.716	-782
420.792	-863
420.867	-567
420.943	-1066
421.019	-1081
421.094	9
421.170	-641
421.245	-1145
421.321	722
421.397	-1138
421.472	-509
421.548	417
421.623	3597
421.699	685
421.774	384
421.850	-662
421.925	25
422.001	626
422.076	326
422.152	-398
422.227	948
422.302	2366
422.378	2289
422.453	4876
422.529	10694
422.604	29115
422.679	100622
422.755	130889
422.830	49783
422.905	12693
422.981	5485
423.056	2580
423.131	1966
423.207	1086
423.282	407
423.357	1585
423.432	2269
423.508	754
423.583	1296
423.658	3727
423.733	1200
423.808	-216
423.883	966
423.959	277
424.034	-43
424.109	191
424.184	-526
424.259	-1115
424.334	-320
424.409	-788
424.484	-802
424.559	138
424.634	-944
424.709	-366
424.784	89
424.859	-314
424.934	-691
425.009	1026
425.084	6783
425.159	6708
425.234	881
425.309	-1581
425.384	-920
425.459	2875
425.534	2939
425.609	-778
425.683	-941
425.758	-1298
425.833	-801
425.908	-1175
425.983	-43
426.058	5055
426.132	8405
426.207	687
426.282	-322
426.357	-539
426.431	-271
426.506	-1251
426.581	-781
426.655	-274
426.730	-557
426.805	-894
426.879	-825
426.954	-873
427.029	72
427.103	1433
427.178	15258
427.253	24647
427.327	4690
427.402	-598
427.476	1989
427.551	4849
427.625	1307
427.700	-481
427.774	-1004
427.849	-873
427.923	-259
427.998	-1279
428.072	-786
428.147	10
428.221	850
428.296	12598
428.370	24448
428.444	5792
428.519	325
428.593	683
428.667	2666
428.742	1443
428.816	2103
428.890	4000
428.965	20613
429.039	19927
429.113	4736
429.188	1964
429.262	-381
429.336	-415
429.410	2165
429.485	3697
429.559	1508
429.633	1898
429.707	873
429.781	-290
429.855	4111
429.930	21295
430.004	19824
430.078	11241
430.152	16845
430.226	16374
430.300	45576
430.374	24025
430.448	2880
430.522	971
430.596	7900
430.670	15741
430.744	9938
430.818	40648
430.892	31790
430.966	2586
431.040	335
431.114	-815
431.188	-165
431.262	-1160
431.336	-686
431.410	-303
431.484	1579
431.557	3483
431.631	1064
431.705	-1069
431.779	-500
431.853	7763
431.927	24069
432.000	7995
432.074	-210
432.148	-830
432.222	9
432.295	-1400
432.369	-917
432.443	-1043
432.516	1659
432.590	16431
432.664	25729
432.737	4556
432.811	-519
432.885	-1496
432.958	-669
433.032	-1219
433.106	-513
433.179	-960
433.253	-867
433.326	-1367
433.400	-527
433.473	-672
433.547	-1060
433.620	-1386
433.694	-1413
433.767	-34
433.841	-686
433.914	-1395
433.988	-191
434.061	-1109
434.134	-1483
434.208	-657
434.281	-1262
434.355	-948
434.428	-846
434.501	-678
434.575	-807
434.648	-1327
434.721	-1429
434.795	-1490
434.868	-1196
434.941	-1111
435.014	-1607
435.088	-756
435.161	-435
435.234	-380
435.307	927
435.381	-431
435.454	-1026
435.527	-677
435.600	-459
435.673	140
435.746	-244
435.819	-1003
435.892	-739
435.966	-820
436.039	-879
436.112	-1331
436.185	-1199
436.258	-1416
436.331	-1767
436.404	-1200
436.477	-1233
436.550	-2029
436.623	-901
436.696	-1559
436.769	-816
436.842	-1486
436.915	-585
436.987	-1389
437.060	-548
437.133	-1187
437.206	-1378
437.279	-1389
437.352	-1095
437.425	-1515
437.498	-983
437.570	-799
437.643	366
437.716	-83
437.789	-639
437.861	-1098
437.934	1374
438.007	3198
438.080	219
438.152	-1277
438.225	-139
438.298	2011
438.370	25191
438.443	47272
438.516	12310
438.588	1770
438.661	-492
438.734	-851
438.806	-421
438.879	-1154
438.951	-1046
439.024	336
439.096	-116
439.169	-323
439.241	-629
439.314	-1383
439.386	-566
439.459	-485
439.531	553
439.604	1246
439.676	261
439.749	-1150
439.821	-325
439.893	-1995
439.966	-1304
440.038	-922
440.110	-935
440.183	-324
440.255	-836
440.327	-814
440.400	767
440.472	8833
440.544	31117
440.617	12792
440.689	1076
440.761	380
440.833	2261
440.905	2480
440.978	1961
441.050	-987
441.122	-130
441.194	-1377
441.266	-276
441.338	-1456
441.411	-409
441.483	701
441.555	10470
441.627	10766
441.699	1710
441.771	527
441.843	478
441.915	-686
441.987	-149
442.059	-1148
442.131	-805
442.203	-184
442.275	253
442.347	994
442.419	789
442.491	2653
442.563	17465
442.635	30869
442.706	11818
442.778	6923
442.850	3337
442.922	81
442.994	-442
443.066	-26
443.137	846
443.209	362
443.281	473
443.353	1750
443.425	5560
443.496	24195
443.568	70142
443.640	54823
443.711	17713
443.783	2402
443.855	975
443.926	-44
443.998	67
444.070	15
444.141	813
444.213	57
444.285	1761
444.356	947
444.428	1428
444.499	612
444.571	-89
444.642	-664
444.714	-271
444.785	-15
444.857	1323
444.928	1291
445.000	3930
445.071	1953
445.143	2760
445.214	3636
445.285	2294
445.357	5389
445.428	16028
445.500	60376
445.571	101551
445.642	60781
445.714	28169
445.785	11915
445.856	7854
445.928	2115
445.999	2545
446.070	1620
446.141	1582
446.213	1639
446.284	1189
446.355	237
446.426	401
446.497	147
446.569	-323
446.640	933
446.711	2431
446.782	967
446.853	-103
446.924	634
446.995	32
447.066	261
447.138	-142
447.209	878
447.280	-191
447.351	-553
447.422	-83
447.493	-637
447.564	352
447.635	257
447.706	879
447.777	-581
447.847	-899
447.918	-888
447.989	-268
448.060	-627
448.131	428
448.202	2527
448.273	2320
448.344	57
448.414	-100
448.485	-860
448.556	-245
448.627	-1149
448.698	-78
448.768	-1581
448.839	-830
448.910	-1092
448.981	1273
449.051	415
449.122	-1203
449.193	-955
449.263	-980
449.334	-852
449.405	-426
449.475	578
449.546	1849
449.616	743
449.687	1332
449.758	854
449.828	-243
449.899	-750
449.969	-323
450.040	-1041
450.110	-664
450.181	-306
450.251	-294
450.322	-767
450.392	-325
450.463	-731
450.533	-714
450.604	-626
450.674	-373
450.744	-529
450.815	-347
450.885	-1178
450.955	-437
451.026	-251
451.096	-449
451.166	-634
451.237	-158
451.307	2856
451.377	4756
451.447	695
451.518	-535
451.588	-551
451.658	-6
451.728	-754
451.799	1311
451.869	6814
451.939	5793
452.009	-436
452.079	-165
452.149	-774
452.219	46
452.289	1896
452.360	7553
452.430	4418
452.500	-22
452.570	-131
452.640	645
452.710	2130
452.780	7389
452.850	9042
452.920	7734
452.990	5238
453.060	1425
453.129	-540
453.199	867
453.269	1566
453.339	20429
453.409	39345
453.479	29379
453.549	33390
453.619	46161
453.688	42812
453.758	15324
453.828	1186
453.898	271
453.968	163
454.037	72
454.087	290
454.107	378
454.168	145
454.177	103
454.247	-1101
454.249	-1074
454.316	-687
454.330	-614
454.386	-373
454.411	-196
454.456	-5
454.492	2168
454.525	4107
454.574	4617
454.595	4860
454.655	937
454.665	291
454.734	-335
454.736	-323
454.804	-353
454.817	125
454.873	1828
454.898	4014
454.943	8000
454.979	7178
455.013	6507
455.060	3152
455.082	1634
455.141	933
455.152	789
455.221	776
455.222	851
455.291	5176
455.303	5374
455.360	6542
455.384	5392
455.430	3303
455.465	2524
455.499	1668
455.546	2686
455.569	3078
455.627	5675
455.638	6218
455.707	3415
455.708	3396
455.777	22
455.789	-8
455.846	-418
455.869	-572
455.916	-668
455.950	-159
455.985	199
456.031	447
456.054	593
456.112	299
456.124	237
456.193	-762
456.193	-772
456.262	-472
456.274	-408
456.332	-122
456.355	-33
456.401	13
456.436	183
456.470	379
456.516	187
456.540	82
456.597	-458
456.609	-598
456.678	-448
456.678	-450
456.747	-809
456.759	-773
456.817	-857
456.840	-782
456.886	-627
456.920	-397
456.955	-197
457.001	-600
457.024	-713
457.082	159
457.093	289
457.162	330
457.163	340
457.232	1132
457.243	1063
457.301	443
457.324	436
457.370	694
457.405	170
457.439	-456
457.485	-161
457.508	60
457.566	-37
457.577	-109
457.646	370
457.647	373
457.715	975
457.727	1150
457.784	2137
457.808	2651
457.853	2832
457.889	4863
457.922	6428
457.969	6484
457.991	7135
458.050	6025
458.060	5881
458.129	6823
458.130	6956
458.198	9012
458.211	9167
458.267	10368
458.292	8319
458.336	5745
458.372	3916
458.405	2742
458.453	2923
458.474	3510
458.533	6512
458.543	6624
458.611	10277
458.614	10615
458.680	15214
458.694	13809
458.749	11209
458.775	8321
458.818	3772
458.855	2395
458.887	1314
458.936	597
458.955	378
459.016	319
459.024	294
459.093	435
459.097	432
459.162	430
459.177	493
459.230	709
459.257	978
459.299	1254
459.338	1211
459.368	1083
459.418	977
459.437	1000
459.499	1063
459.505	1054
459.574	618
459.579	559
459.643	154
459.659	304
459.711	523
459.740	376
459.780	357
459.820	905
459.849	1051
459.900	446
459.917	402
459.981	1017
459.986	1028
460.054	932
460.061	952
460.123	1647
460.141	1670
460.191	1354
460.222	1441
460.260	1769
460.302	1973
460.328	1730
460.382	1965
460.397	2175
460.462	1190
460.465	1168
460.534	1650
460.543	1718
460.602	3250
460.623	4009
460.671	6346
460.703	8072
460.739	6940
460.783	7372
460.808	7768
460.864	4880
460.876	4769
460.944	1769
460.945	1724
461.013	155
461.024	152
461.081	812
461.104	838
461.150	681
461.184	765
461.218	948
461.264	980
461.286	826
461.345	504
461.355	531
461.423	1131
461.425	1130
461.491	606
461.505	642
461.559	1946
461.585	2306
461.628	3388
461.665	4587
461.696	4854
461.745	6469
461.764	6102
461.825	5001
461.832	5203
461.901	3236
461.905	3118
461.969	1226
461.985	1201
462.037	1304
462.065	1146
462.105	1110
462.145	1294
462.173	1756
462.225	2518
462.241	2630
462.305	3517
462.310	3434
462.378	3127
462.385	2939
462.446	2865
462.465	2510
462.514	1692
462.545	1592
462.582	1384
462.625	1236
462.650	1123
462.705	868
462.718	848
462.785	771
462.786	779
462.854	1497
462.865	1533
462.922	2201
462.945	2798
462.990	2576
463.025	2003
463.058	1636
463.104	1102
463.126	1179
463.184	953
463.194	868
463.262	822
463.264	831
463.330	1280
463.344	1352
463.398	1780
463.424	1765
463.466	1414
463.504	1468
463.533	1396
463.583	910
463.601	896
463.663	1149
463.669	1235
463.737	1718
463.743	1814
463.805	3118
463.823	3487
463.873	4889
463.903	5756
463.940	5933
463.982	6514
464.008	5771
464.062	4043
464.076	4137
464.142	2868
464.144	2816
464.211	1192
464.221	1038
464.279	1478
464.301	1755
464.347	1582
464.381	1433
464.414	1549
464.461	1686
464.482	1713
464.540	1738
464.550	1772
464.617	2276
464.620	2280
464.685	1802
464.699	1686
464.753	2263
464.779	2586
464.820	2528
464.859	2543
464.888	2741
464.938	2838
464.956	2725
465.018	2550
465.023	2567
465.091	2785
465.098	2782
465.158	2545
465.177	2464
465.226	2395
465.257	2453
465.293	2453
465.336	2248
465.361	2337
465.416	2732
465.428	2892
465.495	3724
465.496	3746
465.563	6360
465.575	6815
465.631	7719
465.654	8284
465.698	5639
465.734	3290
465.765	3388
465.813	2901
465.833	2830
465.893	2846
465.900	2712
465.968	1926
465.972	1859
466.035	2383
466.052	2558
466.102	2702
466.131	2728
466.170	2450
466.210	2231
466.237	2344
466.290	2455
466.304	2590
466.369	3190
466.372	3184
466.439	2878
466.449	2838
466.506	3531
466.528	3756
466.573	4641
466.607	5342
466.641	7405
466.687	10219
466.708	10987
466.766	13127
466.775	12246
466.842	5857
466.845	5541
466.909	4031
466.925	3655
466.977	3395
467.004	3370
467.044	3485
467.083	3609
467.111	3792
467.163	4132
467.178	4025
467.242	3573
467.245	3583
467.312	3741
467.321	3761
467.379	3420
467.400	3289
467.446	3560
467.480	3754
467.559	3048
467.638	3225
467.717	3573
467.796	3376
467.875	3983
467.955	3887
468.034	4737
468.113	10765
468.192	14713
468.271	5036
468.350	3690
468.429	4529
468.508	4160
468.588	3557
468.667	3166
468.746	2720
468.825	2985
468.904	2969
468.983	3024
469.062	5077
469.141	5681
469.220	1788
469.299	2615
469.378	2166
469.456	3049
469.535	3095
469.614	2528
469.693	3365
469.772	3855
469.851	6101
469.930	3176
470.009	2688
470.088	1669
470.166	4271
470.245	6324
470.324	7622
470.403	4385
470.482	4043
470.560	2394
470.639	2710
470.718	3560
470.797	2675
470.875	2750
470.954	3987
471.033	4192
471.111	2030
471.190	2427
471.269	2313
471.347	1580
471.426	2379
471.505	3268
471.583	2346
471.662	3357
471.740	2122
471.819	2330
471.898	2534
471.976	2050
472.055	2032
472.133	1904
472.212	3670
472.290	2948
472.369	2338
472.447	1593
472.526	2408
472.604	1776
472.683	2808
472.761	2409
472.839	1807
472.918	2502
472.996	2666
473.075	2138
473.153	2771
473.231	2627
473.310	3053
473.388	2348
473.466	2379
473.545	2480
473.623	4426
473.701	3554
473.780	2445
473.858	2444
473.936	2899
474.014	2556
474.093	3399
474.171	3271
474.249	5615
474.327	3112
474.405	1980
474.484	1879
474.562	2332
474.640	1980
474.718	2476
474.796	2679
474.874	1916
474.952	2479
475.030	2192
475.108	2017
475.187	2981
475.265	2573
475.343	5037
475.421	4371
475.499	2134
475.577	2240
475.655	3374
475.733	5543
475.811	9838
475.889	9742
475.966	5674
476.044	2267
476.122	3792
476.200	3614
476.278	2811
476.356	2056
476.434	2608
476.512	2589
476.590	4171
476.667	3113
476.745	1674
476.823	2115
476.901	1699
476.979	1997
477.056	2359
477.134	2416
477.212	2252
477.290	2015
477.367	1662
477.445	1787
477.523	1935
477.601	1936
477.678	2710
477.756	2495
477.834	3039
477.911	1836
477.989	2541
478.066	1378
478.144	2541
478.222	2698
478.299	5208
478.377	4213
478.454	1978
478.532	1430
478.609	1975
478.687	2445
478.764	2589
478.842	1925
478.919	2076
478.997	2124
479.074	1673
479.152	1839
479.229	3385
479.307	1702
479.384	1200
479.461	1384
479.539	2106
479.616	2558
479.694	1875
479.771	2109
479.848	2084
479.926	3185
480.003	3025
480.080	2154
480.157	1801
480.235	1954
480.312	2385
480.389	2343
480.467	3478
480.544	4020
480.621	2562
480.698	2233
480.775	2419
480.853	2043
480.930	2236
481.007	973
481.084	2524
481.161	1949
481.238	2575
481.315	1216
481.392	1682
481.470	2115
481.547	1857
481.624	1558
481.701	2377
481.778	1858
481.855	2149
481.932	2567
482.009	6218
482.086	2944
482.163	2495
482.240	3467
482.317	7078
482.393	4267
482.470	2082
482.547	2023
482.624	2584
482.701	2096
482.778	2094
482.855	2093
482.932	2091
483.009	1292
483.085	2462
483.162	2214
483.239	2674
483.316	1814
483.393	1991
483.469	1863
483.546	1794
483.623	1604
483.699	1543
483.776	1383
483.853	2395
483.930	3579
484.006	8463
484.083	13410
484.160	7056
484.236	9477
484.313	7604
484.389	5412
484.466	4660
484.543	4491
484.619	5160
484.696	4840
484.772	5738
484.849	5301
484.925	4445
485.002	4578
485.078	4750
485.155	4235
485.231	4243
485.308	3637
485.384	4129
485.461	5561
485.537	8512
485.614	9172
485.690	4007
485.766	4407
485.843	5160
485.919	5644
485.995	6715
486.072	3088
486.148	4412
486.224	3457
486.301	3827
486.377	4324
486.453	5484
486.530	4311
486.606	5434
486.682	5490
486.758	7892
486.835	8826
486.911	6754
486.987	11139
487.063	12875
487.139	15660
487.215	10278
487.292	5081
487.368	4223
487.444	4645
487.520	7089
487.596	6173
487.672	10307
487.748	25648
487.824	39687
487.900	11580
487.976	6538
488.052	5236
488.128	7462
488.204	5578
488.280	4651
488.356	4688
488.432	9078
488.508	15280
488.584	5271
488.660	3143
488.736	4468
488.812	4776
488.888	5302
488.964	7040
489.039	16118
489.115	24939
489.191	13303
489.267	3302
489.343	3989
489.418	2769
489.494	3079
489.570	2549
489.646	2823
489.722	2719
489.797	3245
489.873	5216
489.949	10838
490.024	8730
490.100	2977
490.176	2731
490.251	4316
490.327	5037
490.403	3281
490.478	3097
490.554	2366
490.629	2604
490.705	2771
490.781	3051
490.856	3324
490.932	3058
491.007	4111
491.083	2924
491.158	3524
491.234	3948
491.309	8375
491.385	7968
491.460	2297
491.536	3021
491.611	3260
491.686	2371
491.762	3930
491.837	9183
491.913	16783
491.988	22832
492.063	29097
492.139	6773
492.214	4624
492.289	2859
492.365	3005
492.440	3031
492.515	3039
492.590	2981
492.666	2609
492.741	3466
492.816	4699
492.891	2907
492.967	3032
493.042	2158
493.117	2098
493.192	1898
493.267	3171
493.342	4124
493.418	4842
493.493	1859
493.568	1707
493.643	2242
493.718	2865
493.793	4148
493.868	5319
493.943	2806
494.018	2945
494.093	2651
494.168	1827
494.243	2042
494.318	1497
494.393	1765
494.468	2281
494.543	2008
494.618	2595
494.693	2277
494.768	2538
494.842	2444
494.917	2488
494.992	1694
495.067	1545
495.142	1636
495.217	2994
495.292	1504
495.366	2555
495.441	2667
495.516	4050
495.591	6203
495.665	20568
495.740	52172
495.815	18166
495.890	2829
495.964	2419
496.039	3130
496.114	2816
496.188	3203
496.263	3213
496.338	3036
496.412	3269
496.487	3849
496.561	4502
496.636	3826
496.710	3500
496.785	3600
496.860	4717
496.934	3027
497.009	3336
497.083	3707
497.158	4081
497.232	3626
497.307	4614
497.381	3922
497.455	5276
497.530	6179
497.604	3772
497.679	5592
497.753	7342
497.827	9994
497.902	8900
497.976	10786
498.050	23187
498.125	79340
498.199	77705
498.273	16895
498.348	12188
498.422	8890
498.496	8496
498.570	7683
498.645	5799
498.719	4394
498.793	5891
498.867	8016
498.941	12134
499.016	29019
499.090	84899
499.164	25795
499.238	4503
499.312	3394
499.386	5696
499.460	4238
499.534	3563
499.609	4056
499.683	6184
499.757	5902
499.831	14632
499.905	53326
499.979	47971
500.053	7571
500.127	7726
500.201	6483
500.275	3934
500.349	3124
500.422	4537
500.496	6301
500.570	13883
500.644	28286
500.718	55640
500.792	11249
500.866	2893
500.940	3677
501.013	3314
501.087	3069
501.161	6106
501.235	8318
501.309	16753
501.382	46727
501.456	38735
501.530	8534
501.603	15170
501.677	5511
501.751	1935
501.825	2906
501.898	6382
501.972	17782
502.046	11345
502.119	3247
502.193	8472
502.266	19853
502.340	8952
502.413	8248
502.487	17060
502.561	9063
502.634	3306
502.708	2326
502.781	1972
502.855	1632
502.928	1697
503.002	983
503.075	2260
503.149	1307
503.222	1206
503.295	2000
503.369	2706
503.442	3870
503.516	13124
503.589	33721
503.662	21460
503.736	7053
503.809	15913
503.882	12330
503.956	19378
504.029	17048
504.102	15862
504.175	20059
504.249	6675
504.322	3840
504.395	2578
504.468	2096
504.542	2096
504.615	855
504.688	1289
504.761	1238
504.834	942
504.907	2904
504.980	5228
505.053	1610
505.127	2353
505.200	3027
505.273	2521
505.346	1755
505.419	1251
505.492	906
505.565	792
505.638	1189
505.711	799
505.784	717
505.857	478
505.930	1400
506.003	830
506.076	1597
506.149	2169
506.221	1779
506.294	2078
506.367	6510
506.440	23764
506.513	12209
506.586	3093
506.659	1018
506.731	1792
506.804	1035
506.877	3030
506.950	1790
507.022	1139
507.095	1181
507.168	2842
507.241	1448
507.313	912
507.386	1607
507.459	2356
507.531	1257
507.604	960
507.677	1209
507.749	650
507.822	1807
507.894	4070
507.967	3589
508.040	2264
508.112	1493
508.185	1900
508.257	1254
508.330	2952
508.402	1462
508.475	1599
508.547	1410
508.620	1969
508.692	3061
508.765	2127
508.837	443
508.909	1762
508.982	1175
509.054	1873
509.127	1375
509.199	1138
509.271	873
509.344	1014
509.416	543
509.488	1370
509.560	999
509.633	2146
509.705	1585
509.777	1446
509.849	2108
509.922	1282
509.994	1162
510.066	1460
510.138	1096
510.210	2012
510.283	2314
510.355	2698
510.427	1438
510.499	1818
510.571	1566
510.643	3285
510.715	3135
510.787	2510
510.859	1178
510.931	1972
511.003	3503
511.076	2222
511.148	1027
511.219	2212
511.291	2831
511.363	3900
511.435	968
511.507	1856
511.579	812
511.651	1537
511.723	1576
511.795	1703
511.867	1084
511.939	2223
512.010	4342
512.082	3269
512.154	1698
512.226	2752
512.298	2253
512.369	3615
512.441	3433
512.513	3470
512.585	1435
512.656	2059
512.728	2117
512.800	1596
512.871	805
512.943	1952
513.015	1446
513.086	1778
513.158	1670
513.230	2128
513.301	2856
513.373	4226
513.444	2333
513.516	1730
513.588	1053
513.659	1756
513.731	2727
513.802	2445
513.874	4836
513.945	10512
514.016	3311
514.088	2116
514.159	2600
514.231	2639
514.302	3387
514.374	2216
514.445	2332
514.516	4808
514.588	3614
514.659	2584
514.730	4230
514.802	4057
514.873	2732
514.944	4001
515.016	2907
515.087	3371
515.158	3595
515.229	5474
515.301	3457
515.372	4451
515.443	2938
515.514	2072
515.585	1808
515.656	2541
515.728	1038
515.799	1817
515.870	2347
515.941	1923
516.012	1709
516.083	2780
516.154	2638
516.225	4009
516.296	3312
516.367	3260
516.438	3750
516.509	5780
516.580	10788
516.651	34884
516.722	117852
516.793	48652
516.864	6920
516.935	6919
517.006	9290
517.077	14976
517.148	41185
517.219	141488
517.289	225016
517.360	44534
517.431	11244
517.502	4022
517.573	3650
517.643	3622
517.714	4137
517.785	4027
517.856	3820
517.926	5077
517.997	5247
518.068	7787
518.138	13722
518.209	29571
518.280	100230
518.350	347529
518.421	129010
518.492	12030
518.562	5532
518.633	6361
518.703	5644
518.774	9407
518.845	22948
518.915	22048
518.986	7120
519.056	5873
519.127	8632
519.197	13437
519.268	26225
519.338	17828
519.408	4234
519.479	5157
519.549	3782
519.620	3210
519.690	1511
519.760	1745
519.831	955
519.901	2196
519.971	1379
520.042	1345
520.112	2237
520.182	2666
520.253	2586
520.323	1768
520.393	3841
520.463	6837
520.534	3615
520.604	10798
520.674	4282
520.744	3488
520.814	10426
520.885	10171
520.955	8315
521.025	29845
521.095	12116
521.165	2271
521.235	820
521.305	632
521.375	963
521.445	2452
521.515	2436
521.585	2847
521.655	3179
521.725	2940
521.795	1439
521.865	1192
521.935	2437
522.005	1922
522.075	709
522.145	1780
522.215	903
522.285	2228
522.355	3212
522.424	7074
522.494	6017
522.564	3788
522.634	6915
522.704	21485
522.774	9063
522.843	2105
522.913	932
522.983	2019
523.053	1438
523.122	2537
523.192	3265
523.262	11209
523.331	11756
523.401	2538
523.471	893
523.540	1492
523.610	755
523.680	1302
523.749	781
523.819	454
523.888	1238
523.958	430
524.027	1327
524.097	853
524.166	921
524.236	1413
524.305	1309
524.375	1233
524.444	-441
524.514	1267
524.583	1443
524.653	1092
524.722	1550
524.791	1386
524.861	937
524.930	1140
524.999	558
525.069	2675
525.138	1703
525.207	2486
525.277	569
525.346	1146
525.415	1290
525.484	1394
525.554	1705
525.623	1358
525.692	1077
525.761	1583
525.830	1090
525.900	2483
525.969	4108
526.038	8437
526.107	15582
526.176	44682
526.245	38073
526.314	12858
526.383	24031
526.452	35335
526.522	52408
526.591	55899
526.660	14365
526.729	6513
526.797	8978
526.867	22020
526.935	74402
527.004	128902
527.073	74515
527.142	7275
527.211	3055
527.280	3149
527.349	2552
527.418	1205
527.487	1413
527.555	936
527.624	709
527.693	1673
527.762	788
527.831	747
527.899	369
527.968	399
528.037	936
528.106	1563
528.174	4052
528.243	2506
528.312	2719
528.380	5046
528.449	1523
528.518	1183
528.586	1017
528.655	938
528.723	187
528.792	29
528.861	693
528.929	491
528.998	802
529.066	875
529.135	874
529.203	589
529.272	144
529.340	779
529.409	370
529.477	300
529.545	1067
529.614	1769
529.682	757
529.751	2101
529.819	2388
529.887	1237
529.956	511
530.024	591
530.092	323
530.161	1494
530.229	1494
530.297	1353
530.365	651
530.434	399
530.502	-379
530.570	71
530.638	15
530.707	786
530.775	1043
530.843	174
530.911	157
530.979	261
531.047	292
531.115	700
531.183	-237
531.252	819
531.320	385
531.388	527
531.456	296
531.524	432
531.592	426
531.660	424
531.728	237
531.796	1043
531.864	-557
531.932	1094
532.000	352
532.067	439
532.135	202
532.203	844
532.271	1918
532.339	3448
532.407	7865
532.475	5813
532.542	1664
532.610	2206
532.678	4502
532.746	15362
532.814	42749
532.881	10359
532.949	1425
533.017	584
533.084	1453
533.152	971
533.220	129
533.287	1080
533.355	283
533.423	276
533.490	-89
533.558	135
533.625	1052
533.693	799
533.761	385
533.828	939
533.896	239
533.963	2502
534.031	2858
534.098	4718
534.166	1841
534.233	977
534.300	379
534.368	710
534.435	-183
534.503	654
534.570	884
534.637	2017
534.705	13
534.772	3098
534.840	5184
534.907	18618
534.974	27383
535.041	3643
535.109	1568
535.176	1257
535.243	460
535.310	784
535.378	242
535.445	746
535.512	751
535.579	324
535.646	181
535.714	1274
535.781	467
535.848	1330
535.915	246
535.982	170
536.049	64
536.116	1487
536.183	667
536.250	1027
536.317	1495
536.384	1954
536.451	2397
536.518	2164
536.585	546
536.652	2875
536.719	2715
536.786	2221
536.853	1523
536.920	2949
536.987	5519
537.053	6051
537.120	18511
537.187	19006
537.254	1239
537.321	1132
537.388	1606
537.454	836
537.521	264
537.588	604
537.654	1385
537.721	1782
537.788	900
537.855	558
537.921	512
537.988	834
538.055	1574
538.121	1323
538.188	951
538.254	2608
538.321	4922
538.388	2443
538.454	1130
538.521	1517
538.587	882
538.654	702
538.720	504
538.787	1166
538.853	658
538.920	1324
538.986	1172
539.053	1515
539.119	145
539.185	1461
539.252	1346
539.318	3900
539.385	2214
539.451	1427
539.517	1434
539.583	3378
539.650	5693
539.716	15263
539.782	3989
539.849	985
539.915	1272
539.981	1136
540.047	1355
540.114	1837
540.180	899
540.246	2303
540.312	1770
540.378	4777
540.444	7176
540.510	6154
540.576	15575
540.643	5608
540.709	1785
540.775	846
540.841	885
540.907	2054
540.973	3926
541.039	2571
541.105	2494
541.171	1702
541.237	279
541.303	1289
541.369	2419
541.435	1902
541.500	4992
541.566	2762
541.632	985
541.698	385
541.764	601
541.830	153
541.896	297
541.961	1245
542.027	1110
542.093	705
542.159	1295
542.224	1052
542.290	2647
542.356	4546
542.421	6166
542.487	2167
542.553	1170
542.618	1663
542.684	964
542.750	1546
542.815	1951
542.881	3936
542.947	12795
543.012	12480
543.078	1159
543.143	1568
543.209	1223
543.274	1467
543.340	2846
543.405	4951
543.471	8799
543.536	1769
543.602	1020
543.667	-145
543.732	550
543.798	1448
543.863	1226
543.928	171
543.994	746
544.059	604
544.124	-17
544.190	751
544.255	1260
544.320	1349
544.386	1023
544.451	2182
544.516	2469
544.581	2950
544.646	7759
544.712	15061
544.777	3434
544.842	1633
544.907	1594
544.972	1506
545.037	1045
545.102	1023
545.168	1191
545.233	1739
545.298	2003
545.363	2622
545.428	2998
545.493	5497
545.558	12276
545.623	5720
545.688	1168
545.753	1763
545.818	1340
545.883	2121
545.947	1088
546.012	2138
546.077	1409
546.142	2339
546.207	2268
546.272	3295
546.337	3153
546.401	2411
546.466	1944
546.531	1552
546.596	2977
546.661	2675
546.725	2166
546.790	2130
546.855	2785
546.919	2025
546.984	2702
547.049	2791
547.113	3621
547.178	3646
547.243	3352
547.307	4974
547.372	4551
547.436	5811
547.501	4592
547.565	6000
547.630	5424
547.695	5323
547.759	5528
547.823	5074
547.888	4277
547.952	5590
548.017	4970
548.081	5766
548.146	6984
548.210	6308
548.274	5322
548.339	5276
548.403	4868
548.468	5263
548.532	4708
548.596	4917
548.660	4045
548.725	5088
548.789	5599
548.853	6776
548.917	4954
548.982	5582
549.046	5413
549.110	4358
549.174	4324
549.238	5223
549.303	5156
549.367	6649
549.431	5352
549.495	5242
549.559	5056
549.623	6353
549.687	7854
549.751	8159
549.815	7628
549.879	8512
549.943	6782
550.007	8414
550.071	7468
550.135	8271
550.199	6350
550.263	6666
550.327	6386
550.391	7562
550.455	7295
550.519	7127
550.582	8490
550.646	9995
550.710	10548
550.774	9138
550.838	9039
550.901	9111
550.965	9743
551.029	10956
551.093	13230
551.156	14956
551.220	19141
551.284	23323
551.347	16109
551.411	16597
551.475	19766
551.538	11048
551.602	9282
551.666	8943
551.729	7397
551.793	8359
551.856	7719
551.920	7536
551.983	8618
552.047	7757
552.110	7525
552.174	8243
552.237	7588
552.301	8340
552.364	7281
552.428	7070
552.491	6625
552.554	7218
552.618	7845
552.681	9568
552.745	8739
552.808	12565
552.871	16401
552.934	11718
552.998	7827
553.061	7232
553.124	7515
553.187	6718
553.251	7322
553.314	8422
553.377	6589
553.440	8099
553.503	8625
553.567	8816
553.630	7657
553.693	7610
553.756	6818
553.819	6951
553.882	6995
553.945	7692
554.008	6275
554.071	6500
554.134	7273
554.197	6681
554.260	7235
554.323	7080
554.386	7000
554.449	7366
554.512	7847
554.575	7318
554.638	6738
554.701	6970
554.764	7409
554.827	5718
554.889	6385
554.952	6338
555.015	5900
555.078	5450
555.141	6456
555.203	6993
555.266	5853
555.329	6413
555.391	4888
555.454	6430
555.517	6299
555.580	6109
555.642	5011
555.705	5930
555.768	5413
555.830	5778
555.893	4843
555.955	4901
556.018	5212
556.080	4618
556.143	4939
556.206	5367
556.268	5679
556.330	5482
556.393	5308
556.455	4754
556.518	5944
556.580	6234
556.643	5387
556.705	4504
556.767	3589
556.830	5480
556.892	4494
556.955	6610
557.017	5103
557.079	4552
557.142	5002
557.204	4976
557.266	8145
557.328	8411
557.391	4072
557.453	4298
557.515	4116
557.577	4850
557.639	4407
557.701	4440
557.764	3447
557.826	3736
557.888	5308
557.950	5347
558.012	6659
558.074	10739
558.136	17597
558.198	40028
558.260	21888
558.322	5528
558.384	4803
558.446	6843
558.508	7656
558.570	11158
558.632	17627
558.694	33072
558.756	47088
558.818	84366
558.880	199205
558.942	95545
559.003	44771
559.065	30469
559.127	9309
559.189	10484
559.251	15694
559.312	27653
559.374	46489
559.436	116860
559.498	89698
559.559	14966
559.621	11545
559.683	18592
559.744	28811
559.806	54926
559.868	99940
559.929	30764
559.991	15562
560.052	21469
560.114	43412
560.176	42846
560.237	25895
560.299	44194
560.360	16181
560.422	5563
560.483	4876
560.545	4272
560.606	2553
560.667	3081
560.729	3289
560.790	3943
560.852	3093
560.913	3618
560.974	2641
561.036	3329
561.097	2667
561.158	2912
561.220	3508
561.281	3998
561.342	3226
561.403	5330
561.465	6146
561.526	11449
561.587	18098
561.648	6797
561.709	2931
561.771	2685
561.832	2404
561.893	3242
561.954	2284
562.015	3018
562.076	2933
562.137	2937
562.198	2618
562.259	3792
562.320	3036
562.381	3063
562.442	3421
562.503	5004
562.564	3143
562.625	3750
562.686	2992
562.747	2883
562.808	3756
562.869	3122
562.930	3680
562.991	4138
563.051	3806
563.112	3026
563.173	3175
563.234	3052
563.294	2987
563.355	3843
563.416	3683
563.477	3470
563.537	3524
563.598	4262
563.659	3527
563.720	3070
563.780	3905
563.841	3597
563.901	3488
563.962	3324
564.023	3500
564.083	3589
564.144	3164
564.204	3593
564.265	3873
564.325	5679
564.386	8032
564.446	8473
564.507	3663
564.567	3701
564.628	4171
564.688	4181
564.749	3515
564.809	4882
564.869	5579
564.930	4872
564.990	3701
565.050	3097
565.111	4089
565.171	3903
565.231	3842
565.292	4468
565.352	3787
565.412	4814
565.472	4364
565.532	4422
565.593	4526
565.653	4290
565.713	4901
565.773	5859
565.833	5866
565.893	7318
565.953	5058
566.013	5857
566.074	6354
566.134	7982
566.194	9724
566.254	11942
566.314	9119
566.374	6981
566.434	6141
566.494	6849
566.554	6363
566.614	7668
566.673	7290
566.733	7839
566.793	8528
566.853	9784
566.913	9314
566.973	10251
567.033	10761
567.092	11144
567.152	10008
567.212	10412
567.272	11037
567.331	11596
567.391	11790
567.451	12535
567.511	13999
567.570	14199
567.630	11703
567.690	10396
567.749	10679
567.809	11415
567.868	12698
567.928	14286
567.988	16707
568.047	22147
568.107	27180
568.166	35173
568.226	46297
568.285	60254
568.345	59005
568.404	53553
568.464	49985
568.523	47690
568.582	49613
568.642	55497
568.701	65320
568.761	82111
568.820	105909
568.879	113386
568.939	98366
568.998	81036
569.057	66898
569.116	58005
569.176	46744
569.235	39618
569.294	33960
569.353	29122
569.413	26746
569.472	23363
569.531	20104
569.590	19233
569.649	17316
569.708	16385
569.767	14845
569.827	15564
569.886	14362
569.945	12899
570.004	11764
570.063	10601
570.122	10496
570.181	11387
570.240	10871
570.299	11608
570.358	11798
570.417	9690
570.475	8590
570.534	8721
570.593	8881
570.652	9105
570.711	8818
570.770	8168
570.829	8610
570.887	8866
570.946	8033
571.005	8116
571.064	7006
571.122	7915
571.181	8361
571.240	7971
571.299	6900
571.357	7302
571.416	8015
571.475	7714
571.533	8270
571.592	6799
571.650	6997
571.709	6928
571.768	5856
571.826	6358
571.885	6229
571.943	5574
572.002	4941
572.060	6594
572.119	5557
572.177	5353
572.236	5165
572.294	5823
572.352	5126
572.411	5153
572.469	5315
572.528	5980
572.586	5795
572.644	6776
572.703	8500
572.761	7605
572.819	5604
572.877	4819
572.936	4759
572.994	5607
573.052	5187
573.110	5776
573.169	5655
573.227	5585
573.285	5555
573.343	4924
573.401	5117
573.459	5089
573.517	4663
573.576	5417
573.634	5071
573.692	5749
573.750	5820
573.808	6457
573.866	6006
573.924	7060
573.982	7302
574.040	5803
574.098	5130
574.155	4774
574.213	4792
574.271	5022
574.329	5654
574.387	5186
574.445	5346
574.503	4311
574.560	4279
574.618	5222
574.676	3732
574.734	4863
574.792	4603
574.849	4535
574.907	4256
574.965	4895
575.022	4287
575.080	4107
575.138	4711
575.195	4961
575.253	4231
575.311	5526
575.368	5384
575.426	4653
575.483	4839
575.541	4419
575.598	4726
575.656	5459
575.713	5208
575.771	4918
575.828	5165
575.886	5005
575.943	5371
576.001	5751
576.058	5085
576.115	6526
576.173	6503
576.230	7503
576.287	8518
576.345	7356
576.402	5916
576.459	6155
576.517	5854
576.574	6446
576.631	6267
576.688	6651
576.746	5007
576.803	5006
576.860	5053
576.917	6121
576.974	5527
577.031	5333
577.089	5626
577.146	6290
577.203	5967
577.260	6709
577.317	6332
577.374	6818
577.431	6374
577.488	5619
577.545	5538
577.602	5280
577.659	5341
577.716	5200
577.773	4808
577.830	5363
577.886	5578
577.943	5156
578.000	5305
578.057	6404
578.114	5752
578.171	6147
578.227	5951
578.284	6417
578.341	6033
578.398	6528
578.454	6920
578.511	8214
578.568	7512
578.625	7500
578.681	5965
578.738	5742
578.794	6282
578.851	6615
578.908	5118
578.964	6621
579.021	5726
579.077	5847
579.134	5248
579.190	6131
579.247	6336
579.303	6109
579.360	5354
579.416	5861
579.473	5841
579.529	5690
579.586	5888
579.642	7088
579.698	5439
579.755	6038
579.811	5878
579.867	6447
579.924	6223
579.980	6479
580.036	5614
580.093	6695
580.149	5752
580.205	7142
580.261	7483
580.317	6268
580.374	7201
580.430	7958
580.486	8675
580.542	7488
580.598	7403
580.619	7606
580.654	7967
580.692	7517
580.710	7307
580.765	7660
580.767	7679
580.823	6637
580.838	6927
580.879	7711
580.911	7574
580.935	7493
580.984	7343
580.991	7334
581.047	7189
581.057	7229
581.103	7406
581.130	7261
581.159	7146
581.203	7976
581.215	8197
581.270	7928
581.276	7925
581.326	7998
581.349	7707
581.382	7264
581.422	7674
581.438	7852
581.494	7363
581.494	7364
581.550	8126
581.567	7935
581.606	7544
581.640	7871
581.661	8048
581.713	7859
581.717	7852
581.773	7960
581.786	7983
581.829	8074
581.859	7722
581.885	7459
581.932	7771
581.940	7822
581.996	7863
582.004	7903
582.052	8148
582.077	8208
582.107	8265
582.150	7703
582.163	7578
582.219	8325
582.223	8283
582.274	7679
582.296	7778
582.330	7988
582.368	8226
582.386	8350
582.441	8419
582.441	8421
582.497	7800
582.514	7931
582.552	8412
582.587	8491
582.608	8502
582.659	8154
582.663	8129
582.719	8274
582.732	8255
582.774	8195
582.805	8277
582.830	8402
582.877	8276
582.885	8224
582.941	8671
582.950	8645
582.996	8657
583.023	8684
583.052	8617
583.095	8819
583.107	8947
583.162	9295
583.168	9310
583.218	9209
583.240	9294
583.273	9593
583.313	9447
583.328	9307
583.384	9255
583.385	9257
583.439	9351
583.458	9535
583.494	9978
583.531	9528
583.549	9235
583.603	8917
583.605	8907
583.660	9742
583.676	9714
583.715	9735
583.748	9691
583.770	9712
583.820	10038
583.825	10048
583.881	11259
583.893	10924
583.936	9771
583.965	9931
583.991	10021
584.038	9974
584.046	9995
584.101	10112
584.110	10104
584.156	10107
584.183	10355
584.211	10448
584.255	10012
584.266	9948
584.321	10845
584.328	10781
584.376	10133
584.400	10323
584.431	10693
584.472	10561
584.486	10429
584.541	11192
584.545	11184
584.596	11359
584.617	11715
584.651	12003
584.689	11480
584.706	11421
584.761	12086
584.762	12094
584.816	11956
584.834	12054
584.871	12460
584.906	12614
584.926	12655
584.978	12716
584.980	12715
585.035	12868
585.051	13151
585.090	14039
585.123	14238
585.145	14249
585.195	15266
585.200	15385
585.254	16489
585.267	16853
585.309	18061
585.340	19522
585.364	20739
585.412	23905
585.419	24324
585.473	29527
585.484	31485
585.528	39779
585.556	45811
585.583	52826
585.628	64593
585.637	69538
585.692	112714
585.700	124148
585.747	213401
585.772	231988
585.801	210262
585.845	132387
585.856	108283
585.910	39914
585.917	33599
585.965	26784
585.989	24072
586.019	22472
586.061	21240
586.074	21039
586.128	20177
586.133	20218
586.183	20840
586.205	21030
586.237	21357
586.277	21646
586.292	21670
586.346	21750
586.349	21808
586.401	22221
586.421	22586
586.455	23448
586.493	24487
586.509	25039
586.564	26297
586.565	26450
586.618	35291
586.637	38009
586.672	42220
586.709	39271
586.727	34744
586.781	27375
586.781	27346
586.835	28296
586.853	28111
586.889	27346
586.925	26718
586.944	26513
586.996	26988
586.998	26980
587.052	27599
587.068	28177
587.106	29478
587.140	29940
587.161	30047
587.212	31062
587.215	31067
587.269	32279
587.284	32788
587.323	34173
587.356	35000
587.377	35230
587.427	36424
587.431	36491
587.485	38571
587.499	39036
587.539	40183
587.571	41839
587.593	42746
587.643	44618
587.648	44731
587.702	48010
587.715	48630
587.755	50676
587.786	52936
587.810	54271
587.858	58285
587.864	58622
587.917	62999
587.930	64009
587.971	67624
588.001	71731
588.025	75348
588.073	82993
588.079	83577
588.133	90950
588.145	93079
588.187	101181
588.217	108014
588.241	113952
588.288	127500
588.295	129007
588.348	147570
588.360	151975
588.402	170173
588.431	186513
588.456	199604
588.503	228461
588.510	232400
588.564	274693
588.575	285233
588.617	329221
588.646	363686
588.671	397366
588.718	464368
588.725	477159
588.778	591539
588.789	615757
588.832	750792
588.861	838212
588.886	920537
588.932	1044182
588.939	1037719
588.993	963501
589.004	955572
589.047	962294
589.075	985003
589.100	1003198
589.147	1004799
589.154	980506
589.207	756356
589.218	712307
589.261	614377
589.290	555827
589.314	539614
589.361	523418
589.368	527555
589.421	588753
589.433	604445
589.475	728665
589.504	811738
589.528	886295
589.576	997528
589.582	990124
589.635	923328
589.647	916171
589.689	898297
589.718	862468
589.742	751287
589.790	512001
589.795	494938
589.849	349578
589.861	318720
589.902	264726
589.932	229083
589.955	210123
590.004	173938
590.009	170356
590.062	139433
590.075	132920
590.115	119212
590.146	109596
590.168	103871
590.218	93266
590.222	92189
590.275	82711
590.289	80454
590.328	75500
590.360	72502
590.381	69660
590.431	63692
590.435	63143
590.488	57559
590.503	56315
590.541	53985
590.574	52242
590.594	50949
590.645	48491
590.647	48194
590.700	44284
590.716	43340
590.753	42015
590.787	41002
590.806	39930
590.859	37653
590.859	37516
590.912	36639
590.930	36466
590.965	34995
591.001	33847
591.018	33269
591.071	31749
591.072	31833
591.124	30581
591.143	30265
591.177	29597
591.214	29082
591.230	28896
591.283	28515
591.285	28591
591.336	27827
591.356	27588
591.389	28050
591.427	28766
591.442	28162
591.495	26102
591.498	26028
591.547	24560
591.569	24011
591.600	23570
591.640	23194
591.653	23102
591.706	22872
591.711	22919
591.759	22797
591.782	22878
591.811	23381
591.853	24429
591.864	24371
591.917	23955
591.924	23969
591.969	22044
591.995	21047
592.022	21149
592.066	21442
592.075	21415
592.127	21630
592.137	21735
592.180	23191
592.208	24222
592.233	24243
592.279	24254
592.285	23856
592.338	20865
592.350	20255
592.390	19401
592.421	18798
592.443	18807
592.491	19019
592.495	18936
592.548	18445
592.562	18357
592.600	18586
592.633	18871
592.653	18660
592.704	18121
592.705	18220
592.775	18077
592.846	18009
592.916	18610
592.987	18843
593.058	19103
593.128	18033
593.199	16635
593.270	16698
593.341	16145
593.411	16987
593.482	17704
593.553	17485
593.623	16828
593.694	16351
593.764	17618
593.835	19109
593.906	16145
593.976	16720
594.047	17432
594.117	17400
594.188	21735
594.258	19885
594.329	16570
594.399	16104
594.470	17362
594.540	16714
594.611	16427
594.681	17477
594.751	16835
594.822	18073
594.892	18931
594.963	19488
595.033	18349
595.103	18462
595.174	19560
595.244	21611
595.314	30748
595.384	30631
595.455	19523
595.525	19390
595.595	19796
595.665	20227
595.736	20686
595.806	19725
595.876	19381
595.946	19167
596.016	19690
596.087	19536
596.157	19778
596.227	19969
596.297	20544
596.367	21576
596.437	23413
596.507	25379
596.577	31501
596.647	32685
596.717	23297
596.787	24242
596.857	24051
596.927	24425
596.997	23669
597.067	24266
597.137	23602
597.207	24576
597.277	24981
597.347	24829
597.417	23727
597.487	23105
597.557	23448
597.626	24403
597.696	25118
597.766	26487
597.836	30003
597.906	32940
597.975	23155
598.045	21593
598.115	22412
598.185	23176
598.254	24691
598.324	27013
598.394	29363
598.464	29812
598.533	28796
598.603	27395
598.672	25392
598.742	26205
598.812	25326
598.881	26463
598.951	25874
599.020	24676
599.090	26764
599.159	26146
599.229	26636
599.299	24945
599.368	24715
599.437	25290
599.507	25411
599.576	24134
599.646	23885
599.715	22495
599.785	24333
599.854	23295
599.924	24222
599.993	25015
600.062	22882
600.132	22828
600.201	22487
600.270	25689
600.340	29078
600.409	26973
600.478	26826
600.547	27160
600.617	28192
600.686	25046
600.755	21235
600.824	21501
600.894	20844
600.963	19746
601.032	17963
601.101	18693
601.170	18466
601.239	17858
601.308	18164
601.378	18562
601.447	18358
601.516	17896
601.585	17760
601.654	19180
601.723	20085
601.792	17943
601.861	19373
601.930	19344
601.999	20788
602.068	21334
602.137	20696
602.206	22040
602.275	21420
602.343	20509
602.412	24121
602.481	22279
602.550	19667
602.619	19587
602.688	20909
602.756	20367
602.825	20624
602.894	20266
602.963	20413
603.032	21738
603.100	20191
603.169	20882
603.238	21196
603.307	21373
603.375	21534
603.444	20727
603.513	21808
603.581	21647
603.650	22631
603.719	23468
603.787	21969
603.856	22511
603.924	23102
603.993	25157
604.061	24727
604.130	26002
604.198	26747
604.267	26190
604.335	26694
604.404	26575
604.472	28273
604.541	26500
604.609	28430
604.678	27805
604.746	28711
604.815	27622
604.883	28949
604.951	29141
605.020	29448
605.088	30709
605.156	29879
605.225	31182
605.293	30781
605.361	30516
605.429	30679
605.498	32160
605.566	33191
605.634	34772
605.702	34525
605.771	34671
605.839	36599
605.907	35770
605.975	35244
606.043	33504
606.111	33540
606.180	33388
606.248	32616
606.316	33358
606.384	32233
606.452	34358
606.520	36823
606.588	39318
606.656	34133
606.724	34840
606.792	33117
606.860	31513
606.928	28372
606.996	26641
607.064	25062
607.132	25051
607.200	26532
607.267	27526
607.335	28354
607.403	28685
607.471	28368
607.539	28537
607.607	27969
607.674	26320
607.742	25473
607.810	25600
607.878	26568
607.946	25314
608.013	24880
608.081	27805
608.149	27532
608.216	27411
608.284	27814
608.352	27792
608.419	29127
608.487	29588
608.555	33558
608.622	28335
608.690	28954
608.757	30718
608.825	33362
608.893	33333
608.960	33175
609.028	34787
609.095	34473
609.163	36678
609.230	30991
609.298	27329
609.365	24527
609.432	26137
609.500	27573
609.567	29503
609.635	34815
609.702	39625
609.769	40346
609.837	39016
609.904	31989
609.971	29970
610.039	33055
610.106	42076
610.173	71837
610.241	169146
610.308	389598
610.375	213947
610.442	86070
610.509	39861
610.577	32229
610.644	28877
610.711	29353
610.778	30120
610.845	29244
610.912	30786
610.980	32165
611.047	33048
611.114	33615
611.181	33314
611.248	32654
611.315	31293
611.382	32459
611.449	33808
611.516	34568
611.583	35541
611.650	35348
611.717	35639
611.784	36127
611.851	38156
611.918	42487
611.984	50895
612.051	68903
612.118	124139
612.185	312213
612.252	757859
612.319	292616
612.386	69157
612.452	51972
612.519	45194
612.586	44782
612.653	47885
612.719	42851
612.786	42648
612.853	39664
612.919	36104
612.986	36228
613.053	35440
613.120	34035
613.186	31447
613.253	31215
613.319	29654
613.386	31531
613.453	31910
613.519	32602
613.586	35104
613.652	38351
613.719	43198
613.785	38830
613.852	35232
613.918	32642
613.985	31618
614.051	31354
614.118	34161
614.184	35356
614.250	33558
614.317	31672
614.383	31975
614.449	31639
614.516	32450
614.582	32300
614.648	32623
614.715	32248
614.781	31907
614.847	30525
614.914	30809
614.980	31611
615.046	31449
615.112	30050
615.179	32366
615.245	32085
615.311	33773
615.377	39519
615.443	54024
615.509	50817
615.575	38041
615.642	36803
615.708	36828
615.774	38690
615.840	41651
615.906	49434
615.972	61624
616.038	97794
616.104	199512
616.170	404513
616.236	959495
616.302	545771
616.368	118565
616.434	83637
616.500	54784
616.565	51284
616.631	61385
616.697	78603
616.763	57131
616.829	65666
616.895	123369
616.961	226269
617.026	180226
617.092	60952
617.158	41215
617.224	35842
617.289	32758
617.355	30585
617.421	29792
617.487	29828
617.552	28548
617.618	25420
617.684	25893
617.749	27192
617.815	26482
617.880	24697
617.946	24495
618.012	25112
618.077	24764
618.143	24540
618.208	24811
618.274	24636
618.339	26826
618.405	26331
618.470	21866
618.536	22282
618.601	22766
618.667	22805
618.732	21158
618.798	20289
618.863	19832
618.928	19973
618.994	20021
619.059	20827
619.124	22767
619.190	29027
619.255	21464
619.320	19343
619.386	20367
619.451	19079
619.516	19379
619.581	18784
619.647	18351
619.712	19629
619.777	19392
619.842	18167
619.907	18690
619.972	19453
620.038	19213
620.103	18786
620.168	18768
620.233	18822
620.298	18857
620.363	18950
620.428	19004
620.493	19304
620.558	19784
620.623	19525
620.688	20387
620.753	19833
620.818	19536
620.883	20044
620.948	19620
621.013	20190
621.078	20208
621.143	20383
621.207	21276
621.272	21351
621.337	20621
621.402	20868
621.467	21232
621.532	24997
621.596	24489
621.661	22334
621.726	19887
621.791	19229
621.855	20204
621.920	21360
621.985	20638
622.049	22858
622.114	24227
622.179	22556
622.243	20617
622.308	21888
622.373	21921
622.437	22383
622.502	21534
622.566	20354
622.631	20438
622.695	20134
622.760	19772
622.824	21155
622.889	20289
622.953	21109
623.018	24053
623.082	32587
623.147	29092
623.211	22195
623.276	21572
623.340	21704
623.404	20191
623.469	19321
623.533	19753
623.597	19151
623.662	18493
623.726	19448
623.790	18001
623.854	16481
623.919	16872
623.983	17600
624.047	17649
624.111	17961
624.176	17386
624.240	18840
624.304	21291
624.368	20820
624.432	17984
624.496	17927
624.560	18849
624.625	21279
624.689	22479
624.753	18803
624.817	20002
624.881	18026
624.945	18559
625.009	16897
625.073	17124
625.137	16990
625.201	19602
625.265	22693
625.329	20816
625.393	17266
625.456	19046
625.520	18564
625.584	19340
625.648	21058
625.712	25060
625.776	36785
625.839	72636
625.903	72599
625.967	26473
626.031	20156
626.095	32262
626.158	43915
626.222	19419
626.286	13598
626.349	13324
626.413	13260
626.477	12616
626.540	13436
626.604	13127
626.668	12344
626.731	12382
626.795	11987
626.858	12545
626.922	12651
626.986	11810
627.049	12061
627.113	11688
627.176	12814
627.240	11208
627.303	11402
627.366	11152
627.430	12047
627.493	11569
627.557	12471
627.620	12081
627.684	12497
627.747	12569
627.810	12260
627.874	11648
627.937	10241
628.000	11325
628.064	11179
628.127	10800
628.190	9087
628.253	9383
628.317	9560
628.380	9495
628.443	9115
628.506	9767
628.569	9911
628.632	8261
628.696	8593
628.759	8436
628.822	8222
628.885	8289
628.948	8238
629.011	7958
629.074	7887
629.137	8430
629.200	7964
629.263	8283
629.326	7661
629.389	7775
629.452	7688
629.515	7899
629.578	8015
629.641	7734
629.704	8907
629.767	8616
629.830	7583
629.892	7065
629.955	6883
630.018	7826
630.081	7605
630.144	9521
630.207	10330
630.269	8674
630.332	8297
630.395	9056
630.458	7441
630.520	7114
630.583	7467
630.646	6392
630.708	6884
630.771	6035
630.834	6328
630.896	6790
630.959	6389
631.021	7090
631.084	7047
631.146	7385
631.209	8024
631.272	9064
631.334	7106
631.397	7163
631.459	7579
631.522	7842
631.584	8547
631.646	8967
631.709	8963
631.771	10946
631.834	13272
631.896	9133
631.958	8466
632.021	7881
632.083	7191
632.145	7056
632.208	6925
632.270	6844
632.332	6105
632.395	6278
632.457	7412
632.519	6166
632.581	6471
632.643	5843
632.706	7348
632.768	6047
632.830	5906
632.892	6274
632.954	5643
633.016	6428
633.078	6826
633.141	5651
633.203	6150
633.265	6444
633.327	5801
633.389	6503
633.451	6887
633.513	7162
633.575	8947
633.637	8673
633.698	9532
633.760	8365
633.822	7525
633.884	6773
633.946	7532
634.008	7583
634.070	7595
634.132	8604
634.193	9532
634.255	10398
634.317	11447
634.379	11008
634.441	10679
634.502	10234
634.564	9159
634.626	6844
634.687	7017
634.749	6961
634.811	6424
634.873	5673
634.934	6349
634.996	5814
635.057	5491
635.119	5254
635.181	6317
635.242	6595
635.304	6308
635.365	6500
635.427	6225
635.488	6426
635.550	7248
635.611	6477
635.673	5992
635.734	6972
635.796	8082
635.857	8565
635.918	8984
635.980	9965
636.041	10674
636.102	12084
636.164	13077
636.225	12756
636.286	12657
636.348	10226
636.409	8291
636.470	6969
636.531	6792
636.593	6916
636.654	7925
636.715	5727
636.776	5985
636.838	4790
636.899	5323
636.960	4590
637.021	5565
637.082	4812
637.143	4624
637.204	4935
637.265	4155
637.326	4669
637.387	4318
637.448	4624
637.509	4655
637.570	4644
637.631	4430
637.692	4251
637.753	4138
637.814	3814
637.875	4407
637.936	3869
637.997	3865
638.058	5277
638.119	5430
638.179	4659
638.240	4667
638.301	4417
638.362	3894
638.423	4077
638.483	3233
638.544	4266
638.605	3648
638.666	4081
638.726	4290
638.787	3955
638.848	3613
638.908	3270
638.969	3865
639.030	3036
639.090	3945
639.151	4190
639.211	3651
639.272	4375
639.332	6636
639.393	10010
639.453	5018
639.514	5320
639.574	5163
639.635	3287
639.695	3250
639.756	3952
639.816	3595
639.877	3996
639.937	5994
639.997	9654
640.058	11017
640.118	4529
640.178	3597
640.239	3664
640.299	3217
640.359	3451
640.420	4278
640.480	3541
640.540	5248
640.600	5838
640.661	5153
640.721	4139
640.781	5824
640.841	5676
640.901	4642
640.961	4003
641.021	4367
641.082	4565
641.142	6209
641.202	8548
641.262	4679
641.322	3433
641.382	3078
641.442	2193
641.502	2758
641.562	3685
641.622	3089
641.682	3088
641.742	4025
641.802	4032
641.861	4022
641.921	3780
641.981	3863
642.041	4421
642.101	4567
642.161	5905
642.221	3752
642.280	2611
642.340	3246
642.400	2935
642.460	2753
642.519	3059
642.579	2927
642.639	3022
642.698	2117
642.758	3784
642.818	3060
642.877	3111
642.937	2725
642.997	3050
643.056	3945
643.116	6507
643.175	3713
643.235	4023
643.294	3790
643.354	3623
643.414	3862
643.473	4694
643.532	6606
643.592	8702
643.651	13150
643.711	24845
643.770	47761
643.830	100447
643.889	249017
643.948	503679
644.008	98197
644.067	16675
644.126	9987
644.186	7596
644.245	6348
644.304	4074
644.363	4855
644.423	3938
644.482	3626
644.541	4042
644.600	3394
644.659	4084
644.719	5740
644.778	9220
644.837	12928
644.896	26116
644.955	55079
645.014	127469
645.073	35332
645.132	6743
645.191	5765
645.250	4472
645.309	3975
645.368	3620
645.427	5123
645.486	7139
645.545	13250
645.604	23311
645.663	6884
645.722	3992
645.781	3911
645.840	3995
645.898	5409
645.957	7868
646.016	12481
646.075	23254
646.134	45813
646.192	89812
646.251	247988
646.310	344361
646.369	42019
646.427	11222
646.486	8335
646.545	5732
646.603	4485
646.662	3985
646.721	3768
646.779	3164
646.838	3247
646.896	3310
646.955	6344
647.014	8386
647.072	14133
647.131	26671
647.189	82548
647.248	33873
647.306	5503
647.365	3345
647.423	2014
647.481	3137
647.540	2391
647.598	3188
647.657	1814
647.715	2568
647.773	2147
647.832	1901
647.890	1340
647.948	2084
648.007	2071
648.065	2087
648.123	2269
648.181	1768
648.240	1497
648.298	1951
648.356	2160
648.414	1261
648.472	1815
648.531	1822
648.589	1581
648.647	1907
648.705	2200
648.763	1228
648.821	2039
648.879	1958
648.937	2780
648.995	3435
649.053	4428
649.111	5629
649.169	10595
649.227	18613
649.285	35259
649.343	72837
649.401	225170
649.459	97381
649.516	19849
649.574	10062
649.632	4863
649.690	5384
649.748	5797
649.806	6764
649.863	10645
649.921	18194
649.979	54687
650.037	34805
650.094	3973
650.152	2486
650.210	2423
650.268	1816
650.325	1967
650.383	1811
650.440	1893
650.498	1291
650.556	1113
650.613	1470
650.671	1972
650.728	856
650.786	2045
650.843	1448
650.901	2129
650.958	1475
651.016	1072
651.073	1269
651.131	1322
651.188	849
651.246	1080
651.303	1260
651.360	1738
651.418	463
651.475	1181
651.532	725
651.590	560
651.647	1540
651.704	686
651.762	754
651.819	1391
651.876	585
651.933	1138
651.990	1031
652.048	1316
652.105	328
652.162	436
652.219	1052
652.276	1147
652.333	1562
652.390	628
652.448	681
652.505	1010
652.562	914
652.619	1004
652.676	739
652.733	974
652.790	1027
652.847	298
652.904	1137
652.961	680
653.017	464
653.074	564
653.131	689
653.188	949
653.245	454
653.302	884
653.359	702
653.415	1052
653.472	1012
653.529	444
653.586	-120
653.642	511
653.699	1126
653.756	361
653.813	744
653.869	80
653.926	95
653.983	759
654.039	575
654.096	964
654.152	1297
654.209	452
654.266	506
654.322	160
654.379	1429
654.435	766
654.492	1440
654.548	1632
654.605	3149
654.661	5787
654.717	2768
654.774	1327
654.830	1393
654.887	1470
654.943	862
655.000	1410
655.056	1063
655.112	1335
655.168	1166
655.225	874
655.281	959
655.337	1066
655.394	2922
655.450	4416
655.506	3142
655.562	1582
655.618	4469
655.675	3599
655.731	672
655.787	1022
655.843	1045
655.899	678
655.955	1172
656.011	909
656.067	527
656.123	1153
656.179	983
656.235	1261
656.291	817
656.347	1306
656.403	1034
656.459	1798
656.515	1538
656.571	1235
656.627	1704
656.683	628
656.739	1496
656.795	675
656.850	1877
656.906	972
656.962	1450
657.018	1230
657.074	910
657.129	1447
657.185	1494
657.241	1855
657.297	5345
657.352	3388
657.408	630
657.464	1089
657.519	942
657.575	1066
657.630	279
657.686	1054
657.742	168
657.797	648
657.853	108
657.908	695
657.964	893
658.019	174
658.075	1299
658.130	607
658.186	527
658.241	260
658.297	344
658.352	-144
658.407	1264
658.463	564
658.518	726
658.573	719
658.629	133
658.684	737
658.739	768
658.795	875
658.850	564
658.905	195
658.960	392
659.016	930
659.071	752
659.126	1380
659.181	877
659.236	1659
659.291	2664
659.346	2981
659.401	353
659.457	2012
659.512	423
659.567	1670
659.622	490
659.677	291
659.732	452
659.787	628
659.842	487
659.897	1088
659.952	1171
660.007	809
660.061	509
660.116	420
660.171	429
660.226	387
660.281	637
660.336	-355
660.391	337
660.445	690
660.500	500
660.555	-145
660.610	-596
660.664	1563
660.719	-226
660.774	764
660.828	346
660.883	847
660.938	580
660.992	509
661.047	558
661.101	451
661.156	481
661.211	207
661.265	49
661.320	818
661.374	96
661.429	65
661.483	-241
661.538	417
661.592	142
661.647	384
661.701	-175
661.755	533
661.810	674
661.864	40
661.919	99
661.973	495
662.027	439
662.081	508
662.136	-68
662.190	392
662.244	1073
662.299	228
662.353	984
662.407	32
662.461	-116
662.515	602
662.569	563
662.624	309
662.678	297
662.732	224
662.786	185
662.840	844
662.894	738
662.948	572
663.002	452
663.056	322
663.110	640
663.164	526
663.218	-61
663.272	214
663.326	679
663.380	-58
663.434	1123
663.488	47
663.542	332
663.595	270
663.649	-96
663.703	1083
663.757	555
663.811	830
663.864	105
663.918	558
663.972	8
664.026	194
664.079	-2
664.133	-18
664.187	676
664.240	85
664.294	586
664.348	-59
664.401	125
664.455	1239
664.508	-301
664.562	206
664.615	331
664.669	-27
664.722	144
664.776	468
664.829	-231
664.883	-432
664.936	345
664.990	191
665.043	554
665.097	-312
665.150	126
665.203	166
665.257	574
665.310	307
665.363	1072
665.417	850
665.470	540
665.523	732
665.576	480
665.630	882
665.683	4
665.736	1070
665.789	-408
665.842	487
665.895	170
665.949	1624
666.002	536
666.055	925
666.108	1319
666.161	747
666.214	990
666.267	908
666.320	787
666.373	803
666.426	-642
666.479	548
666.532	156
666.585	795
666.638	1199
666.691	1485
666.744	524
666.796	1233
666.849	994
666.902	1543
666.955	1006
667.008	314
667.060	-188
667.113	203
667.166	-89
667.219	188
667.271	-129
667.324	318
667.377	-59
667.430	764
667.482	-396
667.535	614
667.587	740
667.640	772
667.693	949
667.745	1554
667.798	2471
667.850	2692
667.903	1245
667.955	555
668.008	963
668.060	602
668.113	639
668.165	359
668.218	1083
668.270	888
668.322	501
668.375	681
668.427	1004
668.479	788
668.532	867
668.584	316
668.636	652
668.689	738
668.741	382
668.793	861
668.845	519
668.898	899
668.950	325
669.002	492
669.054	145
669.106	-41
669.158	429
669.211	504
669.263	930
669.315	-3
669.367	523
669.419	378
669.471	1014
669.523	1371
669.575	1528
669.627	2330
669.679	1508
669.731	1571
669.783	1328
669.835	1038
669.886	1322
669.938	1418
669.990	1165
670.042	-132
670.094	1194
670.146	730
670.197	1324
670.249	1595
670.301	2243
670.353	1956
670.404	4729
670.456	6079
670.508	9653
670.560	17165
670.611	29543
670.663	52693
670.715	90044
670.766	188257
670.818	328579
670.869	142394
670.921	25508
670.972	11023
671.024	6443
671.075	5227
671.127	3477
671.178	2835
671.230	2606
671.281	2814
671.333	1978
671.384	1446
671.436	1711
671.487	2821
671.538	3044
671.590	4257
671.641	5877
671.692	9337
671.744	15304
671.795	32479
671.846	24649
671.897	7413
671.949	3298
672.000	1993
672.051	1035
672.102	865
672.153	667
672.204	862
672.256	690
672.307	415
672.358	41
672.409	874
672.460	435
672.511	887
672.562	689
672.613	-448
672.664	-6
672.715	975
672.766	268
672.817	-360
672.868	211
672.919	285
672.970	520
673.021	-128
673.071	103
673.122	165
673.173	174
673.224	178
673.275	66
673.326	170
673.376	-293
673.427	253
673.478	407
673.528	707
673.579	-20
673.630	-215
673.680	73
673.731	-160
673.782	-459
673.832	95
673.883	-298
673.934	-93
673.984	-748
674.035	-64
674.085	298
674.136	242
674.186	-534
674.237	368
674.287	668
674.338	2476
674.388	1149
674.438	457
674.489	397
674.539	-138
674.589	863
674.640	399
674.690	533
674.740	-467
674.791	328
674.841	-155
674.891	396
674.942	267
674.992	90
675.042	-93
675.092	259
675.142	441
675.193	-257
675.243	-105
675.293	-94
675.343	139
675.393	190
675.443	-825
675.493	83
675.543	-214
675.593	333
675.643	-46
675.693	-212
675.743	-547
675.793	273
675.843	-433
675.893	355
675.943	-175
675.993	-441
676.043	-376
676.093	337
676.142	502
676.192	-12
676.242	826
676.292	-102
676.341	-571
676.391	81
676.441	643
676.491	-727
676.540	-866
676.590	-30
676.640	-747
676.689	296
676.739	-102
676.789	-166
676.838	-593
676.888	-107
676.937	0
676.987	56
677.037	195
677.086	54
677.136	-448
677.185	-852
677.235	20
677.284	154
677.333	-744
677.383	-504
677.432	-926
677.482	-481
677.531	-212
677.580	-1028
677.630	-78
677.679	-141
677.728	-727
677.778	-86
677.827	137
677.876	-283
677.925	-804
677.975	-791
678.024	-209
678.073	-835
678.122	-225
678.171	-434
678.220	125
678.269	-617
678.319	213
678.368	-114
678.417	-221
678.466	-540
678.515	-5
678.564	-23
678.613	149
678.662	-662
678.711	-744
678.760	223
678.809	-686
678.857	-636
678.906	269
678.955	-354
679.004	83
679.053	-68
679.102	-691
679.151	-941
679.199	-235
679.248	-717
679.297	-343
679.346	-276
679.394	96
679.443	-367
679.492	-179
679.540	-975
679.589	-210
679.638	-440
679.686	48
679.735	-829
679.784	-394
679.832	-96
679.881	-347
679.929	168
679.978	-585
680.026	-1154
680.075	-618
680.123	-613
680.172	-426
680.220	-1042
680.268	-728
680.317	-532
680.365	-773
680.414	-265
680.462	-268
680.510	-852
680.559	-786
680.607	-733
680.655	-614
680.703	-703
680.752	-830
680.800	-377
680.848	-1097
680.896	-1620
680.945	-647
680.993	-324
681.041	-618
681.089	-469
681.137	-835
681.185	-814
681.233	-189
681.258	-255
681.281	-352
681.329	26
681.377	-733
681.380	-655
681.425	157
681.473	-699
681.502	-673
681.521	-712
681.569	389
681.617	120
681.624	222
681.665	629
681.713	-393
681.745	105
681.761	289
681.809	154
681.857	667
681.867	821
681.904	1221
681.952	760
681.989	522
682.000	413
682.048	608
682.096	-55
682.111	245
682.143	793
682.191	520
682.233	504
682.239	463
682.286	1361
682.334	638
682.354	657
682.382	619
682.430	983
682.476	1021
682.477	993
682.525	1893
682.572	794
682.598	1047
682.620	1209
682.667	1047
682.715	1080
682.720	1162
682.763	1627
682.810	2064
682.841	1979
682.857	1915
682.905	1525
682.952	1740
682.963	1799
683.000	1831
683.047	1380
683.085	2402
683.095	2646
683.142	1844
683.190	2541
683.206	2186
683.237	1445
683.284	2165
683.328	2136
683.332	2114
683.379	2123
683.426	2992
683.449	2647
683.473	2233
683.521	2305
683.568	2466
683.571	2531
683.615	3066
683.662	2869
683.693	2838
683.709	2794
683.757	2788
683.804	2935
683.814	2989
683.851	3113
683.898	3068
683.936	3283
683.945	3307
683.992	3255
684.039	3266
684.057	3193
684.086	3026
684.133	3571
684.179	3884
684.180	3877
684.227	4463
684.274	4023
684.300	4240
684.321	4297
684.368	4366
684.415	4299
684.422	4269
684.462	3958
684.509	3728
684.543	3653
684.556	3637
684.603	4143
684.649	4234
684.665	4234
684.696	4086
684.743	4332
684.786	4229
684.790	4220
684.837	4686
684.883	4765
684.908	4717
684.930	4660
684.977	5147
685.023	5026
685.029	5088
685.070	5358
685.117	5854
685.150	5422
685.164	5195
685.210	5475
685.257	5483
685.272	5540
685.303	5754
685.350	5626
685.393	5921
685.396	5917
685.443	6080
685.490	6822
685.514	6436
685.536	6150
685.583	6009
685.629	6804
685.636	6720
685.675	5962
685.722	6376
685.757	6069
685.768	5965
685.815	6094
685.861	6027
685.878	6245
685.908	6758
685.954	6328
686.000	6730
686.000	6725
686.047	6944
686.093	6845
686.121	7180
686.139	7570
686.185	7445
686.232	8523
686.242	8480
686.278	7867
686.324	8087
686.363	7667
686.370	7518
686.416	7155
686.463	6696
686.484	6571
686.509	6701
686.555	6042
686.601	6411
686.606	6482
686.647	7253
686.693	7049
686.727	6900
686.739	6789
686.785	7186
686.831	7312
686.848	7230
686.877	7118
686.923	7117
686.969	7025
686.969	7022
687.015	7185
687.061	7596
687.090	7779
687.107	7837
687.153	7537
687.199	7229
687.211	7186
687.245	7271
687.291	7540
687.332	7794
687.336	7799
687.382	7705
687.428	7617
687.453	7691
687.474	7878
687.520	8196
687.565	8494
687.574	8527
687.611	8275
687.657	7663
687.695	7615
687.702	7660
687.748	7788
687.794	8306
687.816	8359
687.839	8553
687.885	8449
687.931	8798
687.937	8868
687.976	8946
688.022	8636
688.058	8624
688.067	8622
688.113	8481
688.158	8558
688.179	8488
688.204	8568
688.249	8471
688.295	8680
688.300	8746
688.340	9004
688.386	8915
688.421	8749
688.431	8816
688.477	8755
688.522	9148
688.542	9399
688.567	9478
688.613	9582
688.658	9061
688.663	9110
688.703	9728
688.749	9338
688.784	9581
688.794	9599
688.839	9307
688.884	9252
688.905	9158
688.930	9156
688.975	8672
689.020	9212
689.026	9190
689.065	9206
689.110	8904
689.146	9014
689.155	9069
689.201	9507
689.246	9757
689.267	9555
689.291	9226
689.336	9239
689.381	9095
689.388	9139
689.426	9516
689.471	9119
689.509	9172
689.516	9247
689.561	9561
689.606	9820
689.630	9917
689.651	9760
689.696	9421
689.741	9440
689.750	9310
689.785	9333
689.830	10042
689.871	10333
689.875	10346
689.920	9967
689.965	10058
689.992	9822
690.010	9724
690.054	9949
690.099	9785
690.112	9770
690.144	9676
690.189	9648
690.233	9779
690.233	9796
690.278	9608
690.323	10093
690.354	10280
690.367	10278
690.412	9868
690.457	9680
690.474	9792
690.501	10072
690.546	9792
690.590	10006
690.595	9951
690.635	9741
690.680	9637
690.716	10115
690.724	10229
690.769	9824
690.813	10068
690.836	10050
690.857	10204
690.902	10619
690.946	11041
690.957	11026
690.991	10757
691.035	11011
691.077	10603
691.080	10626
691.124	10890
691.168	11301
691.198	11714
691.213	11993
691.257	12472
691.301	12821
691.318	12921
691.346	12759
691.390	12835
691.434	12897
691.439	12834
691.478	12202
691.522	11528
691.559	11263
691.567	11369
691.611	11442
691.655	12171
691.680	12115
691.699	11957
691.743	11898
691.787	11865
691.800	11844
691.831	11845
691.875	11829
691.919	11645
691.921	11618
691.964	11863
692.008	12340
692.041	12454
692.052	12528
692.096	12799
692.139	12925
692.162	13004
692.183	12823
692.227	12716
692.271	11942
692.282	11896
692.315	12205
692.359	12351
692.402	12484
692.403	12510
692.447	12416
692.490	12219
692.523	12238
692.534	12385
692.578	12451
692.622	12588
692.643	12740
692.666	12920
692.709	12968
692.753	13288
692.763	13354
692.797	13448
692.840	13280
692.884	13148
692.884	13174
692.928	12742
692.971	12547
693.004	12313
693.015	12347
693.059	12446
693.102	12262
693.124	12273
693.146	12348
693.189	12266
693.233	12391
693.245	12399
693.276	12665
693.320	12878
693.363	12999
693.365	12980
693.407	13133
693.450	13034
693.485	13197
693.493	13263
693.537	13260
693.580	13421
693.605	13336
693.624	13420
693.667	13617
693.710	13569
693.725	13615
693.753	13622
693.797	13463
693.840	13697
693.845	13626
693.883	14041
693.926	15049
693.966	15563
693.970	15633
694.013	16091
694.056	16500
694.086	16701
694.099	16335
694.142	15290
694.185	13869
694.206	13290
694.229	13417
694.272	13528
694.315	13677
694.326	13653
694.358	13967
694.401	14263
694.444	14884
694.446	14872
694.487	14806
694.530	14717
694.566	14298
694.573	14309
694.616	14566
694.659	14750
694.686	14816
694.702	14618
694.745	13845
694.787	13077
694.806	12787
694.830	12803
694.873	12598
694.916	12442
694.926	12378
694.959	12560
695.002	12639
695.044	13018
695.046	12987
695.087	12858
695.130	12869
695.166	12824
695.172	12901
695.215	13154
695.258	13446
695.286	13582
695.301	13642
695.343	13673
695.386	13794
695.406	13785
695.428	13973
695.471	14410
695.514	14534
695.526	14642
695.556	14653
695.599	14447
695.641	14063
695.646	14006
695.684	14100
695.726	14028
695.766	13930
695.769	13964
695.811	14138
695.854	14124
695.886	14093
695.896	14152
695.938	14253
695.981	14319
696.005	14281
696.023	14175
696.065	14049
696.108	13641
696.125	13493
696.150	13754
696.192	14115
696.235	14492
696.245	14557
696.277	14917
696.319	15286
696.361	15585
696.365	15574
696.404	15290
696.446	14946
696.485	14575
696.488	14615
696.530	14578
696.572	14676
696.604	14527
696.614	14511
696.656	14354
696.698	14239
696.724	14160
696.740	14322
696.783	14600
696.825	14814
696.844	14888
696.867	14782
696.909	14508
696.951	14275
696.964	14131
696.992	14295
697.034	14601
697.076	14791
697.083	14791
697.118	14835
697.160	14790
697.202	14881
697.203	14837
697.244	14893
697.286	15020
697.323	15085
697.327	15149
697.369	15311
697.411	15450
697.442	15514
697.453	15489
697.494	15275
697.536	15009
697.562	14822
697.578	15010
697.620	15357
697.661	15718
697.682	15855
697.703	15702
697.744	15245
697.786	14899
697.801	14707
697.828	15185
697.869	15885
697.911	16568
697.921	16688
697.952	16821
697.994	16939
698.035	17072
698.040	17045
698.077	16821
698.118	16398
698.160	16053
698.160	16005
698.201	15880
698.243	15717
698.279	15569
698.284	15601
698.325	15496
698.367	15311
698.399	15109
698.408	15213
698.449	15513
698.491	15843
698.518	15995
698.532	16033
698.573	16023
698.614	15997
698.638	15948
698.656	15896
698.697	15656
698.738	15402
698.757	15244
698.779	15466
698.820	15805
698.862	16135
698.877	16217
698.903	16323
698.944	16409
698.985	16491
698.996	16469
699.026	16516
699.067	16511
699.116	16460
699.235	15156
699.354	15747
699.474	15486
699.593	14768
699.713	17380
699.832	17806
699.951	14558
700.070	16540
700.190	15600
700.309	15509
700.428	15212
700.547	16992
700.667	15668
700.786	14928
700.905	15304
701.024	15026
701.143	14794
701.262	15684
701.381	14100
701.500	14132
701.619	14967
701.738	15637
701.857	14733
701.976	14247
702.095	13874
702.214	13825
702.333	14153
702.452	14505
702.571	14054
702.690	14497
702.809	13068
702.928	14116
703.047	12462
703.165	13409
703.284	12985
703.403	13495
703.522	13060
703.640	14469
703.759	14532
703.878	15019
703.997	20038
704.115	15551
704.234	12873
704.353	12420
704.471	13209
704.590	12441
704.708	13173
704.827	12291
704.946	11960
705.064	11882
705.183	14363
705.301	12505
705.420	14077
705.538	17183
705.656	16929
705.775	14948
705.893	14535
706.012	14296
706.130	16089
706.249	15665
706.367	16029
706.485	15912
706.604	16005
706.722	15656
706.840	15120
706.958	17037
707.077	18000
707.195	16295
707.313	13987
707.431	14325
707.549	14285
707.668	14576
707.786	14044
707.904	14396
708.022	14289
708.140	13275
708.258	12912
708.376	14248
708.494	13454
708.612	13120
708.730	14737
708.848	18265
708.966	19381
709.084	17950
709.202	16632
709.320	16654
709.438	16270
709.556	15837
709.674	16156
709.791	16370
709.909	16010
710.027	15458
710.145	15378
710.263	15758
710.380	15195
710.498	15572
710.616	15139
710.733	14730
710.851	14630
710.969	15718
711.086	16013
711.204	15051
711.322	14949
711.439	15284
711.557	14425
711.674	15916
711.792	14097
711.909	13920
712.027	13762
712.144	13874
712.262	13628
712.379	13951
712.497	15253
712.614	19201
712.732	21988
712.849	18149
712.966	17161
713.084	16989
713.201	20633
713.318	18672
713.436	17268
713.553	16458
713.670	17915
713.787	17812
713.905	18063
714.022	20422
714.139	17632
714.256	17556
714.373	19713
714.490	22042
714.608	32296
714.725	58452
714.842	229856
714.959	487286
715.076	59223
715.193	22324
715.310	18515
715.427	17651
715.544	15216
715.661	14650
715.778	14708
715.895	15172
716.011	16959
716.128	16328
716.245	15179
716.362	14943
716.479	15565
716.596	17256
716.713	14178
716.829	14822
716.946	13639
717.063	14209
717.180	12482
717.296	14000
717.413	13194
717.530	12957
717.646	12987
717.763	13789
717.880	12665
717.996	12967
718.113	12416
718.229	13592
718.346	12525
718.462	12587
718.579	12375
718.695	13725
718.812	19727
718.928	19653
719.045	16887
719.161	15318
719.277	11815
719.394	12654
719.510	11393
719.626	12700
719.743	12756
719.859	15354
719.975	16909
720.092	24270
720.208	68119
720.324	242148
720.440	69162
720.557	15543
720.673	14699
720.789	18198
720.905	23756
721.021	43416
721.137	30683
721.253	12071
721.369	11996
721.486	12655
721.602	12446
721.718	18422
721.834	12888
721.950	10470
722.066	10559
722.181	11490
722.297	10408
722.413	11086
722.529	10523
722.645	9483
722.761	9571
722.877	9272
722.993	10160
723.108	9929
723.224	11197
723.340	10609
723.456	10633
723.571	9904
723.687	9709
723.803	9424
723.918	9370
724.034	9209
724.150	8981
724.265	9983
724.381	10129
724.497	15417
724.612	29113
724.728	10777
724.843	9820
724.959	9400
725.074	10031
725.190	15274
725.305	25813
725.421	10416
725.536	9913
725.651	8387
725.767	8439
725.882	8116
725.997	7678
726.113	8490
726.228	8428
726.343	8596
726.459	8008
726.574	7997
726.689	8229
726.804	8216
726.920	7514
727.035	8711
727.150	7828
727.265	8141
727.380	7561
727.495	8904
727.610	8044
727.725	7407
727.841	7391
727.956	8080
728.071	7975
728.186	8275
728.301	7777
728.416	7306
728.531	8191
728.645	7316
728.760	7220
728.875	6883
728.990	8536
729.105	7252
729.220	8111
729.335	7761
729.449	7795
729.564	7095
729.679	6972
729.794	6242
729.908	7144
730.023	7371
730.138	7549
730.253	6779
730.367	6257
730.482	7505
730.596	6494
730.711	7379
730.826	6959
730.940	7454
731.055	7926
731.169	7394
731.284	6808
731.398	6439
731.513	7322
731.627	7437
731.742	7976
731.856	7964
731.970	10505
732.085	8429
732.199	9557
732.313	10450
732.428	16075
732.542	32522
732.656	97445
732.771	109568
732.885	21366
732.999	10795
733.113	9009
733.227	9407
733.342	7798
733.456	7023
733.570	6871
733.684	7596
733.798	6154
733.912	7486
734.026	6636
734.140	6496
734.254	5937
734.368	8285
734.482	9336
734.596	16372
734.710	7631
734.824	6074
734.938	5832
735.052	6340
735.166	5919
735.280	7190
735.393	6838
735.507	6421
735.621	5995
735.735	8458
735.849	11835
735.962	9583
736.076	6230
736.190	6429
736.303	5999
736.417	6946
736.531	11712
736.644	6881
736.758	7217
736.872	5982
736.985	5564
737.099	5140
737.212	5658
737.326	5435
737.439	5660
737.553	4614
737.666	5101
737.780	5521
737.893	5388
738.007	5233
738.120	3707
738.233	4979
738.347	5352
738.460	4751
738.573	5340
738.687	5981
738.800	5610
738.913	5397
739.026	6875
739.140	6185
739.253	5183
739.366	5219
739.479	5153
739.592	5010
739.705	5094
739.818	5010
739.932	4912
740.045	4737
740.158	5366
740.271	5550
740.384	5570
740.497	4629
740.610	5260
740.723	4628
740.836	5269
740.949	5199
741.062	5027
741.174	6022
741.287	6645
741.400	5454
741.513	4568
741.626	4492
741.739	5488
741.851	4739
741.964	5164
742.077	4710
742.189	4741
742.302	5230
742.415	5076
742.527	5354
742.640	5002
742.753	4041
742.865	5033
742.978	4138
743.090	4370
743.203	4863
743.316	4328
743.428	5236
743.541	4041
743.653	4840
743.766	3878
743.878	4842
743.990	4442
744.103	5834
744.215	5568
744.327	4128
744.440	4490
744.552	5911
744.664	6944
744.777	5759
744.889	4360
745.001	3254
745.113	4272
745.226	3994
745.338	3901
745.450	4445
745.562	4133
745.674	3661
745.786	3894
745.898	3867
746.010	3990
746.122	3869
746.234	3682
746.347	4266
746.459	4372
746.570	4321
746.682	4056
746.794	3777
746.906	4372
747.018	4000
747.130	4320
747.242	3604
747.354	3609
747.466	4415
747.577	4117
747.689	3955
747.801	4443
747.913	3098
748.024	3947
748.136	4003
748.248	3103
748.359	4125
748.471	3563
748.583	3224
748.694	3395
748.806	4093
748.918	4195
749.029	4582
749.141	4166
749.252	4124
749.364	3685
749.475	3913
749.587	7571
749.698	7555
749.809	4345
749.921	4166
750.032	3849
750.144	3517
750.255	3746
750.366	3038
750.478	4036
750.589	3651
750.700	3595
750.811	3363
750.923	4026
751.034	3884
751.145	6656
751.256	10713
751.367	3999
751.479	3964
751.590	3275
751.701	3536
751.812	3363
751.923	3364
752.034	3129
752.145	3391
752.256	2550
752.367	3670
752.478	2862
752.589	3605
752.700	3114
752.811	3132
752.922	3711
753.032	3084
753.143	4015
753.254	4434
753.365	3873
753.476	3816
753.586	2895
753.697	3224
753.808	3493
753.919	3191
754.029	2266
754.140	3220
754.251	2605
754.361	3452
754.472	3445
754.582	2741
754.693	3080
754.804	3846
754.914	3279
755.025	3060
755.135	2564
755.246	3313
755.356	3142
755.466	3581
755.577	2749
755.687	2910
755.798	2119
755.908	3180
756.018	2941
756.129	2974
756.239	2311
756.349	3117
756.460	3006
756.570	3310
756.680	3162
756.790	2635
756.900	3461
757.011	3899
757.121	3280
757.231	2366
757.341	2848
757.451	2703
757.561	3358
757.671	3443
757.781	3278
757.891	2786
758.001	2544
758.111	2483
758.221	3024
758.331	3184
758.441	3657
758.551	4044
758.661	3593
758.771	5711
758.880	3758
758.990	3884
759.100	3687
759.210	4056
759.320	3333
759.429	4076
759.539	2993
759.649	4102
759.758	3775
759.868	3214
759.978	3780
760.087	4150
760.197	3703
760.307	4173
760.416	3635
760.526	3904
760.635	3364
760.745	3875
760.854	3988
760.964	3465
761.073	4515
761.182	4467
761.292	4376
761.401	3738
761.511	4406
761.620	4237
761.729	2989
761.839	3496
761.948	2755
762.057	3108
762.166	3245
762.276	2552
762.385	2606
762.494	2526
762.603	4055
762.712	3170
762.822	2529
762.931	3616
763.040	2241
763.149	2907
763.258	2848
763.367	3440
763.476	2714
763.585	2754
763.694	2399
763.803	2900
763.912	3233
764.021	2914
764.130	2555
764.238	3367
764.347	3028
764.456	2832
764.565	3479
764.674	3522
764.783	3226
764.891	2618
765.000	3421
765.109	3039
765.217	3545
765.326	2908
765.435	3795
765.543	4757
765.652	5110
765.761	5222
765.869	5849
765.978	6901
766.086	9369
766.195	13751
766.303	26901
766.412	60576
766.520	180671
766.629	315213
766.737	105114
766.846	27978
766.954	14910
767.062	9671
767.171	8068
767.279	6728
767.387	5303
767.496	5400
767.604	4897
767.712	4268
767.820	3890
767.928	3613
768.037	4212
768.145	3256
768.253	4132
768.361	3888
768.469	3769
768.577	4057
768.685	4296
768.793	3334
768.901	2934
769.009	3353
769.117	3416
769.225	4308
769.333	4333
769.441	5876
769.549	7222
769.657	11159
769.765	20972
769.873	61841
769.981	203639
770.088	155524
770.196	26322
770.304	10559
770.412	7438
770.519	5465
770.627	5631
770.735	3773
770.842	4049
770.950	3194
771.058	3332
771.165	4540
771.273	3059
771.380	4076
771.488	3798
771.595	3657
771.703	3206
771.810	3505
771.918	3210
772.025	2973
772.133	3116
772.240	3468
772.348	3602
772.455	3369
772.562	3335
772.670	3527
772.777	3034
772.884	3298
772.991	3266
773.099	3034
773.206	2914
773.313	3370
773.420	3185
773.528	3116
773.635	2585
773.742	3737
773.849	3010
773.956	2823
774.063	3110
774.170	2622
774.277	2675
774.384	3116
774.491	2963
774.598	2767
774.705	3141
774.812	3472
774.919	3889
775.026	3808
775.133	3939
775.239	3126
775.346	3145
775.453	2869
775.560	2744
775.667	2687
775.773	2643
775.880	2685
775.987	3291
776.093	3413
776.200	3160
776.307	2021
776.413	3421
776.520	2479
776.627	3148
776.733	3221
776.840	3041
776.946	3495
777.053	2931
777.159	2462
777.266	2538
777.372	2926
777.478	3383
777.585	4246
777.691	3747
777.798	3613
777.904	3024
778.010	3235
778.117	3280
778.223	4436
778.329	2172
778.435	3051
778.542	3611
778.648	2545
778.754	2202
778.860	2092
778.966	2569
779.072	2483
779.178	3046
779.284	3346
779.391	2140
779.497	2706
779.603	2767
779.708	3112
779.815	2957
779.920	3281
780.026	3853
780.132	7577
780.238	4786
780.344	2663
780.450	2825
780.556	2287
780.661	2557
780.767	2616
780.873	2921
780.979	2856
781.085	2629
781.190	1924
781.296	2416
781.402	2722
781.507	2496
781.613	2150
781.719	2027
781.824	2081
781.930	1471
782.035	2849
782.141	2029
782.246	1393
782.352	2717
782.457	2421
782.563	1467
782.668	2239
782.773	2452
782.879	1812
782.984	2574
783.090	2718
783.195	2828
783.300	3310
783.405	4205
783.511	2684
783.616	2674
783.721	1618
783.826	2806
783.932	1701
784.037	1883
784.142	2336
784.247	2517
784.352	2405
784.457	2096
784.562	3211
784.667	1404
784.772	1695
784.877	2780
784.982	2131
785.087	1683
785.192	2116
785.297	2093
785.402	2307
785.507	2420
785.611	2259
785.716	1621
785.821	2035
785.926	2376
786.031	1958
786.135	1496
786.240	1808
786.345	2521
786.450	2135
786.554	1782
786.659	1873
786.763	2370
786.868	1757
786.973	1419
787.077	2074
787.182	1865
787.286	1504
787.391	2618
787.495	2071
787.600	2030
787.704	1751
787.809	1820
787.913	1663
788.017	1776
788.122	1808
788.226	2419
788.330	1328
788.435	1863
788.539	1719
788.643	2335
788.747	1818
788.852	982
788.956	2129
789.060	1603
789.164	2210
789.268	1580
789.372	1233
789.476	1004
789.580	1968
789.684	1796
789.788	1975
789.892	1482
789.996	2712
790.100	1549
790.204	2582
790.308	1791
790.412	1223
790.516	2802
790.620	633
790.724	2137
790.828	1803
790.931	1783
791.035	1968
791.139	2193
791.242	1703
791.346	1715
791.450	1853
791.554	2183
791.657	1823
791.761	2120
791.864	1709
791.968	1593
792.072	2074
792.175	1758
792.279	1745
792.382	2040
792.486	1643
792.589	1969
792.693	2135
792.796	2168
792.899	1809
793.003	1920
793.106	1114
793.209	1668
793.313	1398
793.416	1204
793.519	2237
793.623	1737
793.726	2401
793.829	3656
793.932	2323
794.035	1061
794.138	1399
794.242	2504
794.345	1983
794.448	1925
794.551	1441
794.654	2892
794.757	4210
794.860	3944
794.963	3816
795.066	2739
795.169	1659
795.272	1983
795.375	1907
795.477	1729
795.580	1191
795.683	794
795.786	1834
795.889	805
795.991	1388
796.094	975
796.197	1179
796.300	2084
796.402	1898
796.505	1511
796.608	1937
796.710	1678
796.813	1230
796.915	1277
797.018	2006
797.120	1369
797.223	1009
797.326	869
797.428	1564
797.530	1331
797.633	1597
797.735	1780
797.838	1671
797.940	2281
798.042	3302
798.145	1444
798.247	1061
798.349	1493
798.452	1105
798.554	1164
798.656	1304
798.758	1434
798.860	1084
798.962	1684
799.065	1452
799.167	1182
799.269	1433
799.371	2423
799.473	2325
799.575	1845
799.677	1576
799.779	2246
799.881	1553
799.983	2804
800.085	3611
800.187	1088
800.289	855
800.390	979
800.492	1443
800.594	2003
800.696	1222
800.798	1509
800.899	214
801.001	2007
801.103	1551
801.205	1592
801.306	1349
801.408	1624
801.509	1152
801.611	1139
801.713	918
801.814	788
801.916	772
802.017	367
802.119	391
802.220	528
802.322	590
802.423	1213
802.525	1334
802.626	2026
802.727	1712
802.829	1002
802.930	742
803.031	1978
803.133	912
803.234	433
803.335	1133
803.436	482
803.538	601
803.639	335
803.740	1189
803.841	794
803.942	893
804.043	796
804.144	684
804.245	651
804.346	1560
804.447	1756
804.548	1182
804.649	2048
804.750	2329
804.851	1124
804.952	892
805.053	590
805.154	769
805.255	942
805.355	875
805.456	1005
805.557	984
805.658	466
805.758	739
805.859	1158
805.960	592
806.061	1075
806.161	1037
806.262	711
806.362	819
806.463	850
806.564	1463
806.664	802
806.765	750
806.865	968
806.966	1460
807.066	1266
807.166	1461
807.267	171
807.367	998
807.468	1074
807.568	1646
807.668	1418
807.769	67
807.869	1519
807.969	875
808.069	782
808.170	731
808.270	878
808.370	818
808.470	1109
808.570	1775
808.670	2295
808.770	1455
808.870	581
808.970	487
809.070	935
809.170	937
809.271	834
809.370	1094
809.470	275
809.570	863
809.670	1397
809.770	950
809.870	1268
809.970	982
810.070	933
810.169	540
810.269	-65
810.369	943
810.469	749
810.568	1123
810.668	1268
810.768	556
810.867	995
810.967	649
811.066	1234
811.166	671
811.265	598
811.365	239
811.464	709
811.564	1082
811.663	1554
811.763	614
811.862	1723
811.962	716
812.061	949
812.160	794
812.260	615
812.359	1729
812.458	1757
812.557	2905
812.657	7015
812.756	16653
812.855	9103
812.954	2148
813.053	1662
813.153	1332
813.252	1468
813.351	1227
813.450	1037
813.549	1358
813.648	1118
813.747	1017
813.846	1045
813.945	1376
814.044	991
814.143	1435
814.242	2273
814.341	1194
814.439	1187
814.538	1863
814.637	1847
814.736	1907
814.835	2276
814.933	2115
815.032	1818
815.131	1346
815.229	1717
815.328	2220
815.427	2496
815.525	1974
815.624	1687
815.722	2877
815.821	2675
815.919	2323
816.018	2657
816.116	2639
816.215	2364
816.313	2437
816.412	2671
816.510	2996
816.609	3498
816.707	3633
816.805	3323
816.904	4763
817.002	4115
817.100	4951
817.198	5773
817.296	6301
817.395	6872
817.493	8457
817.591	9112
817.689	11098
817.787	13701
817.885	18710
817.983	27003
818.081	42673
818.179	77860
818.277	151575
818.375	301281
818.473	407493
818.571	245814
818.669	108083
818.767	62873
818.865	45843
818.963	43163
819.061	46194
819.158	57330
819.256	84251
819.354	139870
819.452	248273
819.549	414581
819.647	450959
819.745	289921
819.842	146747
819.940	84596
820.038	54309
820.135	38417
820.233	29529
820.330	23550
820.428	18009
820.525	15356
820.623	12664
820.720	10567
820.818	10039
820.915	8670
821.012	8064
821.110	6448
821.207	6380
821.304	5771
821.402	5105
821.499	4834
821.596	4396
821.693	4596
821.791	4378
821.888	3750
821.985	4497
822.082	5385
822.179	6725
822.276	3398
822.373	2774
822.470	2813
822.567	2817
822.664	2225
822.761	2549
822.858	2076
822.955	2328
823.052	1720
823.149	2030
823.246	1997
823.343	2083
823.440	1577
823.536	1926
823.633	1410
823.730	1738
823.827	1701
823.923	1497
824.020	1900
824.117	1280
824.213	1257
824.310	1678
824.407	1495
824.503	1522
824.600	2032
824.696	1360
824.793	851
824.889	1185
824.986	1227
825.082	1112
825.179	1489
825.275	807
825.371	753
825.468	1218
825.564	1419
825.660	1110
825.757	699
825.853	942
825.949	733
826.045	820
826.142	910
826.238	1242
826.334	600
826.430	1101
826.526	441
826.622	902
826.718	520
826.814	1290
826.910	1051
827.006	1324
827.102	707
827.198	1018
827.294	800
827.390	811
827.486	1003
827.582	298
827.678	680
827.774	654
827.869	597
827.965	1290
828.061	773
828.157	1270
828.252	438
828.348	292
828.444	392
828.539	608
828.635	129
828.731	545
828.826	359
828.922	636
829.017	659
829.113	863
829.208	675
829.304	860
829.399	862
829.495	827
829.590	-401
829.685	653
829.781	-305
829.876	58
829.971	847
830.066	93
830.162	523
830.257	-112
830.352	590
830.447	898
830.543	744
830.638	841
830.733	819
830.828	1084
830.923	1285
831.018	1332
831.113	182
831.208	533
831.303	-33
831.398	148
831.493	23
831.588	431
831.683	1397
831.778	1544
831.873	-522
831.967	-58
832.062	618
832.157	881
832.252	611
832.346	50
832.441	437
832.536	1372
832.631	1640
832.725	2192
832.820	4259
832.914	1225
833.009	-244
833.104	692
833.198	850
833.293	929
833.387	-189
833.482	-93
833.576	198
833.670	725
833.765	157
833.859	882
833.954	175
834.048	522
834.142	64
834.237	52
834.331	-41
834.425	641
834.519	-154
834.613	568
834.708	262
834.802	-220
834.896	17
834.990	160
835.084	234
835.178	-368
835.272	123
835.366	-94
835.460	531
835.554	1038
835.648	219
835.742	113
835.836	-94
835.930	-445
836.024	18
836.117	696
836.211	972
836.305	928
836.399	1029
836.493	876
836.586	1170
836.680	48
836.774	791
836.867	-141
836.961	-69
837.055	349
837.148	174
837.242	120
837.335	337
837.429	83
837.522	-565
837.616	142
837.709	285
837.803	899
837.896	2394
837.989	837
838.083	187
838.176	923
838.269	1801
838.363	3397
838.456	1763
838.549	397
838.642	-176
838.735	1466
838.829	3169
838.922	3118
839.015	665
839.108	99
839.201	-85
839.294	90
839.387	-178
839.480	232
839.573	791
839.666	222
839.759	1578
839.852	995
839.945	-580
840.038	-697
840.131	-48
840.223	314
840.316	386
840.409	619
840.502	1080
840.594	29
840.687	-167
840.780	18
840.873	280
840.965	497
841.058	-275
841.150	823
841.243	1467
841.336	2852
841.428	607
841.521	444
841.613	-429
841.706	287
841.798	312
841.890	-357
841.983	-10
842.075	564
842.167	341
842.260	431
842.352	-197
842.444	492
842.537	1348
842.629	2542
842.721	4904
842.813	2219
842.905	-291
842.997	-335
843.090	-293
843.182	628
843.274	978
843.366	1990
843.458	4902
843.550	11316
843.642	12563
843.734	2641
843.826	210
843.918	547
844.009	479
844.101	165
844.193	-316
844.285	-648
844.377	159
844.469	-110
844.560	567
844.652	72
844.744	548
844.835	76
844.927	-273
845.019	352
845.110	56
845.202	1016
845.293	279
845.385	-66
845.476	-230
845.568	-199
845.659	387
845.751	108
845.842	-366
845.934	-19
846.025	-602
846.116	480
846.208	-475
846.299	346
846.390	-338
846.482	-499
846.573	-425
846.664	178
846.755	1186
846.846	1496
846.937	1669
847.029	455
847.120	-6
847.211	22
847.302	609
847.393	-667
847.484	54
847.575	-169
847.666	-619
847.757	-665
847.847	-175
847.938	-475
848.029	-142
848.120	-45
848.211	-722
848.302	153
848.392	-106
848.483	113
848.574	-121
848.664	81
848.755	327
848.846	-454
848.936	-279
849.027	16
849.118	194
849.208	-522
849.299	50
849.389	-420
849.480	922
849.570	1747
849.661	3446
849.751	7290
849.841	15254
849.932	12863
850.022	1221
850.112	735
850.203	179
850.293	-140
850.383	419
850.474	298
850.564	-142
850.654	270
850.744	-202
850.834	-136
850.924	-212
851.014	-1032
851.104	-338
851.194	154
851.284	282
851.374	559
851.464	298
851.554	240
851.644	288
851.734	113
851.824	771
851.914	1028
852.004	435
852.094	-452
852.183	182
852.273	-92
852.363	-824
852.452	-98
852.542	-56
852.632	196
852.721	-356
852.811	-123
852.901	146
852.990	-565
853.080	358
853.169	49
853.259	594
853.348	248
853.438	96
853.527	871
853.617	417
853.706	942
853.795	2143
853.885	5523
853.974	12406
854.063	25984
854.152	43994
854.242	92014
854.331	69982
854.420	13197
854.509	2552
854.598	1855
854.687	2286
854.777	1356
854.866	1196
854.955	572
855.044	547
855.133	-218
855.222	-53
855.311	-597
855.400	-11
855.488	1100
855.577	-213
855.666	267
855.755	-384
855.844	17
855.933	-876
856.021	-534
856.110	-617
856.199	121
856.288	-270
856.376	-706
856.465	-142
856.554	-324
856.642	93
856.731	-237
856.819	-161
856.908	255
856.996	-131
857.085	-413
857.173	-87
857.262	-243
857.350	-503
857.438	-50
857.527	-50
857.615	-403
857.703	-786
857.792	-779
857.880	-717
857.968	-101
858.056	-4
858.145	-108
858.233	-576
858.321	-366
858.409	55
858.497	-725
858.585	-537
858.673	-228
858.761	-325
858.849	-27
858.937	70
859.025	-45
859.113	-366
859.201	-403
859.289	0
859.377	156
859.465	-619
859.552	-305
859.640	-726
859.728	68
859.816	-782
859.903	88
859.991	-1281
860.079	-404
860.166	-315
860.254	-215
860.342	-983
860.429	-732
860.517	-425
860.604	-470
860.692	-404
860.779	-5
860.867	-774
860.954	285
861.042	-467
861.129	-600
861.216	-173
861.304	69
861.391	-668
861.478	-394
861.565	-256
861.653	-602
861.740	435
861.827	119
861.914	-573
862.001	-31
862.089	55
862.176	-185
862.263	-603
862.350	110
862.437	-450
862.524	-872
862.611	-1368
862.698	23
862.785	-94
862.871	-302
862.958	-190
863.045	-217
863.132	-236
863.219	171
863.306	-522
863.392	-332
863.479	-295
863.566	-345
863.652	-443
863.739	-60
863.826	119
863.912	-35
863.999	-138
864.086	-673
864.172	108
864.259	-252
864.345	-797
864.432	-26
864.518	-82
864.604	190
864.691	-192
864.777	-329
864.863	37
864.950	158
865.036	-352
865.122	342
865.209	311
865.295	545
865.381	298
865.467	912
865.553	935
865.639	612
865.726	844
865.812	2245
865.898	6024
865.984	12931
866.070	21397
866.156	31313
866.242	58882
866.328	29833
866.414	4074
866.499	1376
866.585	554
866.671	886
866.757	937
866.843	11
866.928	45
867.014	264
867.100	879
867.186	372
867.271	958
867.357	490
867.442	226
867.528	1775
867.614	868
867.699	573
867.785	280
867.870	-14
867.956	-276
868.041	472
868.127	253
868.212	51
868.297	731
868.383	443
868.468	135
868.553	545
868.639	1037
868.724	1836
868.809	3033
868.894	5846
868.979	2300
869.065	-286
869.150	218
869.235	-238
869.320	-66
869.405	-64
869.490	-410
869.575	256
869.660	-681
869.745	485
869.830	-123
869.915	-769
870.000	-633
870.085	-536
870.169	-383
870.254	-131
870.339	-164
870.424	-1009
870.509	-742
870.593	-28
870.678	248
870.763	-38
870.847	-238
870.932	346
871.016	-144
871.101	-247
871.186	-218
871.270	59
871.355	44
871.439	-265
871.523	-369
871.608	-250
871.692	-451
871.777	-315
871.861	-604
871.945	702
872.030	-632
872.114	-699
872.198	-130
872.282	-561
872.367	309
872.451	-821
872.535	-99
872.619	-165
872.703	-480
872.787	-753
872.871	-500
872.955	-294
873.039	-52
873.123	-398
873.207	-353
873.291	-460
873.375	-702
873.459	-689
873.543	34
873.627	-243
873.711	-26
873.794	-1002
873.878	-917
873.962	-30
874.045	66
874.129	-450
874.137	-439
874.213	-327
874.245	-166
874.296	93
874.352	-251
874.380	-418
874.460	-344
874.464	-341
874.547	-147
874.568	-333
874.631	-893
874.676	-331
874.714	148
874.784	-161
874.798	-227
874.881	461
874.892	369
874.965	-248
874.999	-176
875.048	-88
875.107	-165
875.131	-188
875.215	448
875.215	447
875.298	-718
875.323	-708
875.381	-664
875.430	-661
875.465	-684
875.538	-440
875.548	-397
875.631	140
875.646	-38
875.714	-944
875.753	-704
875.798	-395
875.861	-125
875.881	-40
875.964	-487
875.968	-480
876.047	-471
876.076	-297
876.130	72
876.183	-163
876.213	-278
876.291	624
876.296	679
876.379	-210
876.398	-142
876.462	94
876.506	63
876.545	122
876.613	184
876.628	153
876.711	-304
876.721	-259
876.794	236
876.828	27
876.877	-378
876.935	-581
876.960	-569
877.043	80
877.043	79
877.125	-289
877.150	-229
877.208	-18
877.258	-52
877.291	-3
877.365	233
877.374	238
877.456	-377
877.472	-390
877.539	-309
877.579	-219
877.622	-214
877.687	-71
877.704	-27
877.787	52
877.794	43
877.869	95
877.901	-76
877.952	-453
878.008	-17
878.034	232
878.115	316
878.117	315
878.199	-773
878.222	-495
878.282	226
878.329	-321
878.364	-641
878.437	-126
878.447	-88
878.529	-998
878.544	-928
878.611	-377
878.651	-325
878.694	-313
878.758	59
878.776	106
878.858	-667
878.865	-665
878.941	-309
878.972	-164
879.023	18
879.078	-226
879.105	-354
879.185	-234
879.187	-233
879.269	34
879.292	-168
879.351	-418
879.399	-70
879.433	39
879.506	-185
879.516	-217
879.598	-78
879.613	-159
879.680	-265
879.720	-114
879.762	-102
879.827	-694
879.844	-847
879.926	-398
879.933	-436
880.007	-698
880.040	-406
880.089	150
880.147	389
880.171	360
880.253	49
880.254	50
880.335	349
880.360	656
880.417	1462
880.467	1975
880.499	2309
880.574	3547
880.580	3649
880.662	7133
880.680	6426
880.744	3564
880.787	2081
880.825	694
880.893	-13
880.907	-57
880.989	-88
881.000	-80
881.070	-55
881.106	-93
881.152	-316
881.213	-208
881.233	-110
881.315	-206
881.319	-196
881.396	-423
881.426	-568
881.478	-401
881.532	-223
881.559	-247
881.639	-596
881.641	-607
881.722	-400
881.745	-505
881.803	-525
881.852	-551
881.885	-514
881.958	-165
881.966	-157
882.047	-109
882.064	-166
882.129	-346
882.171	-131
882.210	144
882.277	145
882.291	119
882.372	285
882.383	249
882.454	199
882.489	101
882.535	-194
882.596	-316
882.616	-310
882.697	-236
882.702	-234
882.778	-93
882.808	-27
882.859	-78
882.914	-203
882.940	-175
883.020	-31
883.021	-27
883.102	412
883.127	371
883.183	-120
883.233	-414
883.264	-372
883.339	-114
883.345	-106
883.426	-318
883.445	-270
883.507	-108
883.551	-100
883.587	-73
883.657	-207
883.668	-232
883.749	72
883.763	18
883.830	-678
883.869	-892
883.910	-540
883.975	-126
883.991	-209
884.072	-517
884.081	-538
884.152	-186
884.187	-165
884.233	-178
884.292	-186
884.314	-262
884.394	-103
884.398	-110
884.475	-81
884.504	-102
884.555	-74
884.610	25
884.636	-3
884.716	-492
884.716	-490
884.797	-54
884.821	-49
884.877	-191
884.927	-495
884.958	-460
885.033	-92
885.038	-122
885.118	-661
885.139	-819
885.199	-677
885.244	-526
885.279	-513
885.350	-487
885.359	-480
885.439	-559
885.456	-557
885.520	-521
885.561	-479
885.600	-247
885.667	61
885.680	-22
885.760	-323
885.773	-396
885.840	223
885.878	493
885.920	16
885.984	-619
886.000	-547
886.080	109
886.089	134
886.160	-183
886.195	-260
886.240	-322
886.300	-496
886.320	-556
886.400	-588
886.406	-600
886.480	-362
886.511	-254
886.560	-313
886.616	-384
886.640	-229
886.720	546
886.722	553
886.800	-168
886.827	-366
886.879	-523
886.932	-513
886.959	-326
887.038	-4
887.039	-4
887.119	-82
887.143	-170
887.198	-626
887.248	-1056
887.278	-769
887.354	99
887.358	86
887.437	-264
887.459	-371
887.517	-130
887.564	105
887.596	-22
887.669	-374
887.676	-351
887.755	-121
887.774	-48
887.835	-196
887.880	-299
887.914	-281
887.985	-298
887.994	-345
888.073	-701
888.090	-773
888.153	-447
888.195	-260
888.232	-245
888.300	-234
888.311	-266
888.391	-431
888.405	-470
888.470	-550
888.510	-625
888.549	-622
888.615	-515
888.628	-510
888.708	-548
888.720	-553
888.787	126
888.825	538
888.866	397
888.930	105
888.945	70
889.024	-79
889.035	-104
889.103	-238
889.140	-295
889.182	-314
889.245	-362
889.261	-382
889.340	-456
889.349	-463
889.419	-444
889.454	-432
889.498	-256
889.559	-10
889.577	-42
889.656	-179
889.664	-191
889.735	-556
889.768	-729
889.814	-469
889.873	-118
889.978	-503
890.083	-136
890.187	-708
890.292	-185
890.397	-912
890.501	224
890.606	11
890.710	726
890.815	-585
890.919	-918
891.024	-319
891.128	-126
891.233	-589
891.337	-44
891.442	-811
891.546	-976
891.650	-755
891.755	-729
891.859	-244
891.963	-139
892.068	-583
892.172	-425
892.276	-1123
892.380	388
892.484	-860
892.589	12
892.693	-812
892.797	10
892.901	-830
893.005	-950
893.109	-443
893.213	347
893.317	-89
893.421	79
893.525	-527
893.629	-629
893.733	67
893.837	281
893.941	-559
894.045	224
894.148	-538
894.252	-374
894.356	-400
894.460	91
894.564	-504
894.667	-77
894.771	-489
894.875	-141
894.978	-850
895.082	-392
895.186	-146
895.289	252
895.393	-163
895.496	-497
895.600	-215
895.703	-312
895.807	-774
895.910	-82
896.014	-906
896.117	-372
896.221	446
896.324	-437
896.427	-423
896.531	-595
896.634	-116
896.737	37
896.840	-852
896.944	-621
897.047	-54
897.150	-137
897.253	-431
897.356	385
897.460	-247
897.563	-660
897.666	-473
897.769	-551
897.872	49
897.975	-1095
898.078	-645
898.181	-525
898.284	-472
898.387	-394
898.490	-356
898.593	327
898.695	5
898.798	-73
898.901	89
899.004	-300
899.107	193
899.209	-95
899.312	-217
899.415	-881
899.518	-688
899.620	173
899.723	-738
899.826	-483
899.928	-636
900.031	-716
900.133	-119
900.236	190
900.338	-178
900.441	616
900.543	-573
900.646	-337
900.748	-331
900.851	-343
900.953	-923
901.055	-285
901.158	-242
901.260	-541
901.362	-454
901.465	170
901.567	-919
901.669	44
901.771	-545
901.873	362
901.976	-1397
902.078	-199
902.180	-307
902.282	-966
902.384	-780
902.486	-398
902.588	-324
902.690	-217
902.792	-1113
902.894	411
902.996	-897
903.098	-192
903.200	-1418
903.302	-10
903.404	131
903.505	660
903.607	-531
903.709	-386
903.811	-582
903.913	-78
904.014	-1395
904.116	-957
904.218	-295
904.319	230
904.421	-1013
904.523	-733
904.624	-81
904.726	27
904.827	-954
904.929	35
905.030	-583
905.132	-137
905.233	-682
905.335	295
905.436	-943
905.537	-415
905.639	201
905.740	-70
905.841	-203
905.943	-689
906.044	-18
906.145	33
906.247	-363
906.348	-423
906.449	-577
906.550	-649
906.651	-422
906.752	200
906.854	-709
906.955	-508
907.056	-655
907.157	80
907.258	-540
907.359	-327
907.460	-559
907.561	-802
907.662	-576
907.762	-879
907.863	-406
907.964	-63
908.065	-942
908.166	44
908.267	-390
908.367	-50
908.468	-370
908.569	-559
908.670	-610
908.770	-510
908.871	-269
908.971	-545
909.072	-252
909.173	-202
909.273	-9
909.374	-117
909.474	-580
909.575	-1630
909.675	-681
909.776	-446
909.876	-567
909.977	-266
910.077	28
910.177	-855
910.278	-805
910.378	-326
910.478	-817
910.579	-752
910.679	-174
910.779	-53
910.879	-140
910.980	-250
911.080	-544
911.180	-1151
911.280	-572
911.380	-75
911.480	-454
911.580	-451
911.680	-356
911.780	-117
911.880	-420
911.980	-150
912.080	-215
912.180	503
912.280	-866
912.380	-846
912.480	-757
912.580	-356
912.679	92
912.779	-679
912.879	-668
912.979	-304
913.078	-104
913.178	-402
913.278	-153
913.377	-393
913.477	-908
913.577	-367
913.676	117
913.776	-1115
913.875	-533
913.975	371
914.074	-701
914.174	-400
914.273	-896
914.373	-51
914.472	-330
914.572	-507
914.671	-502
914.770	12
914.870	-1050
914.969	-634
915.068	-1060
915.167	-346
915.267	-265
915.366	-482
915.465	-587
915.564	-67
915.663	-1284
915.763	-272
915.862	70
915.961	-409
916.060	-444
916.159	-368
916.258	-36
916.357	-803
916.456	53
916.555	4
916.654	-204
916.752	-107
916.851	-519
916.950	-376
917.049	-559
917.148	-46
917.247	-644
917.345	-286
917.444	-877
917.543	-630
917.642	-585
917.740	-88
917.839	-752
917.937	-181
918.036	-1311
918.135	-247
918.233	-1358
918.332	-860
918.430	-759
918.529	-495
918.627	205
918.726	-368
918.824	-1165
918.923	-108
919.021	-931
919.119	-370
919.218	-256
919.316	-339
919.414	-90
919.512	-113
919.611	403
919.709	36
919.807	-775
919.905	-181
920.003	-774
920.102	-278
920.200	-243
920.298	-1117
920.396	295
920.494	-491
920.592	-1050
920.690	399
920.788	-1221
920.886	-585
920.984	-492
921.082	207
921.180	-911
921.277	-17
921.375	-638
921.473	-858
921.571	-1184
921.669	-67
921.766	-110
921.864	-168
921.962	-558
922.060	-538
922.157	-492
922.255	-667
922.352	-254
922.450	17
922.548	101
922.645	-16
922.743	-557
922.840	-268
922.938	-608
923.035	-491
923.133	-545
923.230	148
923.327	-836
923.425	-211
923.522	-1011
923.619	-505
923.717	-405
923.814	-861
923.911	-1018
924.008	-62
924.106	-293
924.203	-774
924.300	-694
924.397	-255
924.494	-208
924.591	167
924.688	-600
924.786	-774
924.883	-1144
924.979	-27
925.077	-1028
925.173	-244
925.270	-1207
925.367	-260
925.464	-351
925.561	-642
925.658	-307
925.755	-915
925.852	-1216
925.948	-60
926.045	443
926.142	259
926.239	-1148
926.335	-528
926.432	-216
926.529	-306
926.625	-324
926.722	-767
926.818	-1231
926.915	278
927.011	-623
927.108	-473
927.204	-614
927.301	-226
927.397	-800
927.494	-662
927.590	-757
927.687	-697
927.783	-871
927.879	48
927.976	-900
928.072	-495
928.168	-626
928.264	-245
928.361	-460
928.457	313
928.553	-587
928.649	-746
928.745	-188
928.841	-391
928.937	-767
929.033	-916
929.129	578
929.225	-1754
929.321	-816
929.417	255
929.513	-579
929.609	-336
929.705	-133
929.801	-431
929.897	-685
929.993	-119
930.089	-145
930.184	-922
930.280	46
930.376	255
930.471	-439
930.567	-319
930.663	-1190
930.758	-1008
930.854	-637
930.950	-580
931.045	-295
931.141	-924
931.236	-769
931.332	-171
931.427	-734
931.523	-669
931.618	-479
931.714	-466
931.809	-552
931.905	-870
932.000	225
932.095	-482
932.191	-420
932.286	-169
932.381	27
932.476	-738
932.572	-567
932.667	407
932.762	-895
932.857	-191
932.952	-1066
933.047	-472
933.142	-707
933.237	-851
933.332	-873
933.427	-508
933.522	-802
933.617	-418
933.712	-660
933.807	-776
933.902	-155
933.997	-263
934.092	-509
934.187	-352
934.282	-390
934.376	-592
934.471	-691
934.566	-790
934.661	-486
934.755	-172
934.850	-1251
934.945	-996
935.039	-487
935.134	-699
935.228	-1336
935.323	-707
935.417	-689
935.512	-1031
935.606	-781
935.701	-417
935.795	-1066
935.890	-334
935.984	-359
936.079	-107
936.173	-865
936.267	-15
936.362	-897
936.456	-269
936.550	-1225
936.644	-1076
936.738	-1246
936.833	-443
936.927	-669
937.021	-524
937.115	-867
937.209	-700
937.303	-390
937.397	-540
937.491	-706
937.585	-583
937.679	-468
937.773	-382
937.867	-541
937.961	-1299
938.055	-374
938.149	-335
938.243	-649
938.337	-942
938.430	-1112
938.524	360
938.618	-988
938.712	-145
938.805	-645
938.899	-986
938.993	-209
939.086	-44
939.180	-1292
939.274	-261
939.367	-192
939.461	-783
939.554	-1626
939.648	-231
939.741	-672
939.835	-668
939.928	-222
940.022	-331
940.115	-1564
940.208	268
940.302	-886
940.395	-678
940.488	-909
940.582	-85
940.675	-1182
940.768	-223
940.861	-871
940.954	-84
941.048	-534
941.141	-345
941.234	-934
941.327	-238
941.420	-498
941.513	-839
941.606	-947
941.699	-609
941.792	-1441
941.885	-710
941.978	-695
942.071	-369
942.164	-832
942.257	-924
942.349	-1439
942.442	-932
942.535	-1081
942.628	-1309
942.721	234
942.813	-594
942.906	-544
942.999	-2
943.091	-953
943.184	-700
943.277	-1498
943.369	-414
943.462	-1041
943.554	113
943.647	-713
943.739	-143
943.832	-1048
943.924	-593
944.017	-558
944.109	-962
944.201	-1158
944.294	-143
944.386	-988
944.478	-592
944.571	-1355
944.663	-648
944.755	48
944.847	-435
944.940	-1515
945.032	-738
945.124	-995
945.216	130
945.308	-894
945.400	-285
945.492	-493
945.584	-617
945.676	-531
945.768	-462
945.860	-1335
945.952	-890
946.044	-319
946.136	-662
946.228	-767
946.320	-525
946.412	-864
946.503	-788
946.595	-398
946.687	-1372
946.779	-306
946.870	-680
946.962	-369
947.054	-990
947.145	-950
947.237	-467
947.329	-268
947.420	-808
947.512	-1101
947.603	401
947.695	-524
947.786	-637
947.878	-254
947.969	-707
948.061	-295
948.152	-423
948.243	-359
948.335	-696
948.426	14
948.517	-713
948.609	-717
948.700	-522
948.791	-334
948.882	-70
948.973	-189
949.065	-382
949.156	-1108
949.247	-604
949.338	-1126
949.429	-636
949.520	-934
949.611	-745
949.702	-720
949.793	-732
949.884	-1085
949.975	-1425
950.066	-926
950.157	-691
950.247	-710
950.338	-287
950.429	-885
950.520	-950
950.611	-1047
950.701	-886
950.792	-853
950.883	-767
950.973	-749
951.064	-582
951.155	-772
951.245	29
951.336	-650
951.427	-342
951.517	-716
951.608	259
951.698	-606
951.788	-760
951.879	-1290
951.969	-85
952.060	-670
952.150	-792
952.240	-1037
952.331	-1155
952.421	-604
952.511	-814
952.602	-534
952.692	-1895
952.782	-1121
952.872	-778
952.962	-537
953.052	-885
953.143	-1393
953.233	-854
953.323	-854
953.413	-968
953.503	-629
953.593	-843
953.683	-1446
953.773	-998
953.863	-693
953.953	-657
954.042	-1102
954.132	-1252
954.222	-1590
954.312	-1127
954.402	-522
954.492	-755
954.581	-869
954.671	-617
954.761	-1349
954.850	72
954.940	-1564
955.030	-928
955.119	-1183
955.209	-653
955.298	-1445
955.388	-47
955.477	-1005
955.567	-1183
955.656	-628
955.746	-467
955.835	-760
955.925	-627
956.014	-1106
956.103	-1215
956.193	-901
956.282	-1101
956.371	-1174
956.461	-815
956.550	-1040
956.639	-761
956.728	-756
956.817	-567
956.906	-1013
956.995	-305
957.085	-817
957.174	-1075
957.263	-819
957.352	-726
957.441	-862
957.530	-150
957.619	-1137
957.708	-636
957.796	-1121
957.885	-1297
957.974	-655
958.063	-571
958.152	-662
958.241	57
958.329	-1083
958.418	-450
958.507	-1215
958.596	-993
958.684	-1545
958.773	-1189
958.861	-1514
958.950	-335
959.039	-1270
959.127	-1254
959.216	-1396
959.304	-277
959.393	-1399
959.481	-721
959.570	-981
959.658	74
959.746	-1045
959.835	-938
959.923	-427
960.011	-568
960.100	-863
960.188	-712
960.276	-1590
960.365	-354
960.453	-442
960.541	-466
960.629	-1295
960.717	-1678
960.805	-995
960.893	-572
960.981	-1619
961.069	-1500
961.158	-1403
961.245	-701
961.333	-693
961.421	-509
961.509	-1828
961.597	-1189
961.685	-884
961.773	-893
961.861	-919
961.949	-1041
962.036	-1487
962.124	-539
962.212	-976
962.299	-623
962.387	-1314
962.475	-960
962.562	-1823
962.650	-1740
962.738	-1201
962.825	-701
962.913	-1285
963.000	-1215
963.088	-613
963.175	-334
963.263	-1419
963.350	-1204
963.438	-1027
963.525	-690
963.612	-491
963.700	-453
963.787	-876
963.874	-181
963.962	-430
964.049	-548
964.136	-633
964.223	-896
964.310	-1217
964.398	-834
964.485	-154
964.572	-850
964.659	-1019
964.746	-508
964.833	-595
964.920	-690
965.007	-514
965.094	-977
965.181	-1434
965.268	-875
965.355	-637
965.441	-757
965.528	-903
965.615	-876
965.702	-1946
965.789	-1382
965.875	-1021
965.962	-1428
966.049	-882
966.136	-1078
966.222	-1131
966.309	-1537
966.395	-832
966.482	-831
966.569	-995
966.655	-852
966.742	-779
966.828	-1025
966.915	-1078
967.001	-894
967.087	-1214
967.174	-1177
967.260	-952
967.347	-275
967.433	-1268
967.519	-697
967.605	-943
967.692	-1865
967.778	-985
967.864	-806
967.950	-1182
968.036	-1519
968.123	-1727
968.209	-797
968.295	-1750
968.381	-846
968.467	-994
968.553	-874
968.639	-1446
968.725	-1032
968.811	-964
968.897	-451
968.983	-1313
969.069	-1283
969.154	-540
969.240	-655
969.326	-1251
969.412	-775
969.497	-1392
969.583	-811
969.669	-1678
969.755	-729
969.840	-909
969.926	-1052
970.012	-1335
970.097	-1255
970.183	-879
970.268	-661
970.354	-931
970.439	-922
970.525	-1274
970.610	-1172
970.696	-1286
970.781	-1163
970.866	-901
970.952	-1273
971.037	-803
971.122	-684
971.208	-1272
971.293	-585
971.378	-1625
971.463	-954
971.549	-1295
971.634	-1473
971.719	-1194
971.804	-896
971.889	-706
971.974	-1028
972.059	-823
972.144	-1132
972.229	-170
972.314	-1423
972.399	-1319
972.484	-1035
972.569	-860
972.654	-731
972.739	-765
972.824	-559
972.908	-978
972.993	-595
973.078	-1813
973.163	-122
973.247	-1177
973.332	-1742
973.417	-716
973.501	-1362
973.586	-1410
973.671	-933
973.755	-1613
973.840	-992
973.924	-1029
974.009	-318
974.093	-1324
974.178	-1154
974.262	-1473
974.346	-1037
974.431	-519
974.515	-1602
974.600	-1768
974.684	-309
974.768	-1189
974.852	-622
974.937	-1050
975.021	-914
975.105	-1014
975.189	-1309
975.273	-1192
975.358	-725
975.442	-1500
975.526	-1039
975.610	-1753
975.694	-710
975.778	-898
975.862	-1239
975.946	-1706
976.030	-581
976.114	-979
976.198	-1165
976.281	-917
976.365	-635
976.449	-419
976.533	-716
976.617	-1373
976.700	-628
976.784	-1553
976.868	-743
976.951	-1134
977.035	-865
977.119	-1218
977.202	-1663
977.286	-981
977.369	-299
977.453	-1554
977.536	-864
977.620	-1053
977.703	-1188
977.787	-1832
977.870	-1099
977.953	-764
978.037	-1189
978.120	-1360
978.203	-1240
978.287	-408
978.370	-1501
978.453	-1320
978.536	-873
978.620	-1257
978.703	-1274
978.786	-1662
978.869	10
978.952	-1313
979.035	-725
979.118	-1188
979.201	-777
979.284	-1805
979.367	-575
979.450	-1446
979.533	-786
979.616	-990
979.699	-786
979.782	-1622
979.865	-673
979.948	-1127
980.030	-620
980.113	-1427
980.196	-123
980.279	-1458
980.361	-1757
980.444	-818
980.526	-1114
980.609	-1145
980.692	-677
980.774	-741
980.857	-735
980.939	-1570
981.022	-568
981.104	-1512
981.187	-1287
981.269	-971
981.352	-1001
981.434	-1465
981.516	-908
981.599	-1294
981.681	-1573
981.763	-1719
981.846	-1118
981.928	-1148
982.010	-1404
982.092	-226
982.174	-1290
982.256	-297
982.339	-474
982.421	-952
982.503	-879
982.585	-1067
982.667	-1254
982.749	-1665
982.831	-989
982.913	-1313
982.995	-1095
983.077	-1267
983.158	-1379
983.240	-1362
983.322	-1011
983.404	-597
983.486	-632
983.568	-1223
983.649	-716
983.731	-1597
983.813	-689
983.894	-496
983.976	-1076
984.058	-1129
984.139	-1066
984.221	-962
984.302	-592
984.384	-1745
984.465	-734
984.547	-892
984.628	-704
984.710	-355
984.791	-1098
984.872	-1276
984.954	-1082
985.035	-899
985.116	-1328
985.198	-1134
985.279	-1514
985.360	-1178
985.441	-841
985.522	-1225
985.604	-832
985.685	-1560
985.766	-1475
985.847	-704
985.928	-1072
986.009	-1114
986.090	-455
986.171	-1431
986.252	-958
986.333	-1258
986.414	-1163
986.495	-1627
986.576	-838
986.656	-1048
986.737	-1141
986.818	-497
986.899	-726
986.980	-990
987.060	-723
987.141	-1650
987.222	-1043
987.302	-899
987.383	-1014
987.464	-1179
987.544	-1262
987.625	-1304
987.705	-1398
987.786	-979
987.866	-765
987.947	-1459
988.027	-1288
988.108	-1853
988.188	-1486
988.268	-1581
988.349	-768
988.429	-1333
988.509	-1150
988.589	-2085
988.670	-1812
988.750	-759
988.830	-1012
988.910	-1238
988.990	-1413
989.070	-936
989.151	-938
989.231	-840
989.311	-1661
989.391	-1090
989.471	-407
989.551	-1295
989.631	-1067
989.711	-1203
989.791	-739
989.870	-1902
989.950	-851
990.030	-1661
990.110	-585
990.190	-1471
990.269	-745
990.349	-1037
990.429	-905
990.509	-923
990.588	-757
990.668	-1044
990.747	-1544
990.827	-1056
990.907	-1976
990.986	-543
991.066	-1057
991.145	-1414
991.225	-1207
991.304	-1618
991.383	-1015
991.463	-1322
991.542	-712
991.622	-1037
991.701	-1382
991.780	-1298
991.859	-1705
991.939	-1146
992.018	-1758
992.097	-1512
992.176	-1040
992.256	-2144
992.335	-824
992.414	-1395
992.493	-1845
992.572	-1743
992.651	-1126
992.730	-961
992.809	-2187
992.888	-1312
992.967	-212
993.046	-1585
993.125	-1297
993.203	-1309
993.282	-1180
993.361	-736
993.440	-1334
993.519	-1094
993.597	-1032
993.676	-1066
993.755	-1770
993.834	-1559
993.912	-1750
993.991	-1384
994.069	-1786
994.148	-1613
994.226	-1475
994.305	-1267
994.384	-953
994.462	-1878
994.540	-718
994.619	-1504
994.697	-991
994.776	-908
994.854	-933
994.932	-1169
995.011	-805
995.089	-1853
995.167	-1441
995.245	-1340
995.324	-1372
995.402	-984
995.480	-1694
995.558	-1151
995.636	-1464
995.714	-996
995.792	-1287
995.870	-1291
995.948	-1237
996.026	-1511
996.104	-1544
996.182	-705
996.260	-739
996.338	-959
996.416	-1527
996.494	-1728
996.572	-1573
996.649	-1288
996.727	-1445
996.805	-882
996.883	-1034
996.960	-1809
997.038	-1653
997.116	-1375
997.193	-1664
997.271	-939
997.348	-1172
997.426	-1588
997.504	-1340
997.581	-1017
997.658	-1177
997.736	-1270
997.813	-1949
997.891	-1394
997.968	-1668
998.046	-1423
998.123	-1412
998.200	-1867
998.277	-2154
998.355	-1311
998.432	-1315
998.509	-1185
998.586	-1120
998.663	-1230
998.741	-1039
998.818	-2029
998.895	-863
998.972	-1222
999.049	-1457
999.126	-1714
999.203	-525
999.280	-1727
999.357	-1181
999.434	-824
999.511	-1184
999.587	-1317
999.664	-1268
999.741	-1340
999.818	-822
999.895	-1605
999.971	-1173
1000.048	-1623
1000.125	-1224
1000.202	-1383
1000.278	-1399
1000.355	-1099
1000.431	-1116
1000.508	-1311
1000.584	-889
1000.661	-915
1000.738	-1566
1000.814	-1219
1000.890	-833
1000.967	-822
1001.043	-1081
1001.120	-1743
1001.196	-1061
1001.272	-2060
1001.349	-1408
1001.425	-1188
1001.501	-993
1001.577	-2095
1001.654	-1633
1001.730	-1767
1001.806	-1137
1001.882	-1064
1001.958	-1106
1002.034	-1587
1002.110	-1291
1002.186	-1052
1002.262	-1366
1002.338	-1817
1002.414	-759
1002.490	-2026
1002.566	-2124
1002.642	-1882
1002.718	-1324
1002.794	-986
1002.870	-1563
1002.945	-1411
1003.021	-1111
1003.097	-2103
1003.173	-685
1003.248	-1077
1003.324	-1643
1003.400	-882
1003.475	-600
1003.551	-1773
1003.626	-671
1003.702	-1264
1003.777	-1751
1003.853	-1442
1003.928	-1865
1004.004	-1928
1004.079	-1257
1004.155	-1226
1004.230	-829
1004.305	-671
1004.381	-1712
1004.456	-1142
1004.531	-715
1004.607	-1137
1004.682	-1095
1004.757	-1314
1004.832	-1150
1004.907	-2042
1004.982	-1258
1005.057	-1111
1005.133	-1263
1005.208	-1614
1005.283	-1387
1005.358	-1370
1005.433	-1296
1005.508	-795
1005.583	-1029
1005.657	-1865
1005.732	-1109
1005.807	-2099
1005.882	-1445
1005.957	-1800
1006.032	-1246
1006.106	-1463
1006.181	-1436
1006.256	-1595
1006.331	-1439
1006.405	-2405
1006.480	-1253
1006.554	-1305
1006.629	-1854
1006.704	-1423
1006.778	-1767
1006.853	-2018
1006.927	-1152
1007.002	-2141
1007.076	-1622
1007.150	-2124
1007.225	-1145
1007.299	-1363
1007.373	-874
1007.448	-772
1007.522	-1594
1007.596	-1715
1007.671	-1179
1007.745	-1772
1007.819	-1916
1007.893	-1581
1007.967	-1652
1008.041	-2135
1008.115	-988
1008.190	-2074
1008.264	-1151
1008.338	-1686
1008.412	-1390
1008.486	-1966
1008.560	-1947
1008.633	-1618
1008.707	-1742
1008.781	-1462
1008.855	-1350
1008.929	-1875
1009.003	-1926
1009.076	-1595
1009.150	-2039
1009.224	-1703
1009.298	-1991
1009.371	-1402
1009.445	-1471
1009.519	-1308
1009.592	-1268
1009.666	-927
1009.739	-1235
1009.813	-1470
1009.886	-1290
1009.960	-1464
1010.033	-1482
1010.107	-1933
1010.180	-1607
1010.253	-1580
1010.327	-1696
1010.400	-2179
1010.473	-1018
1010.547	-1783
1010.620	-1388
1010.693	-1971
1010.766	-1638
1010.840	-1847
1010.913	-1870
1010.986	-2061
1011.059	-1386
1011.132	-1899
1011.205	-710
1011.278	-1616
1011.351	-1551
1011.424	-922
1011.497	-1033
1011.570	-1161
1011.643	-1536
1011.716	-779
1011.789	-1187
1011.862	-1272
1011.934	-1877
1012.007	-2192
1012.080	-1118
1012.153	-1949
1012.225	-1945
1012.298	-2433
1012.371	-1625
1012.443	-1515
1012.516	-2357
1012.588	-1015
1012.661	-1969
1012.733	-1083
1012.806	-1143
1012.879	-808
1012.951	-1802
1013.023	-1828
1013.096	-1503
1013.168	-1954
1013.241	-1404
1013.313	-2276
1013.385	-1902
1013.458	-674
1013.530	-1842
1013.602	-1297
1013.674	-1168
1013.746	-1374
1013.819	-1325
1013.891	-1013
1013.963	-1914
1014.035	-1334
1014.107	-2002
1014.179	-2070
1014.251	-1690
1014.323	-1370
1014.395	-1060
1014.467	-1149
1014.539	-1525
1014.611	-1625
1014.683	-1623
1014.754	-1914
1014.826	-1640
1014.898	-1811
1014.970	-1906
1015.042	-1124
1015.113	-1838
1015.185	-1615
1015.257	-1870
1015.328	-1616
1015.400	-2180
1015.471	-1875
1015.543	-2238
1015.615	-1487
1015.686	-1745
1015.757	-2752
1015.829	-1416
1015.901	-2268
1015.972	-1906
1016.043	-2339
1016.115	-1471
1016.186	-1469
1016.257	-1184
1016.328	-975
1016.400	-2111
1016.471	-1870
1016.542	-1434
1016.613	-1984
1016.685	-1629
1016.756	-1903
1016.827	-1830
1016.898	-2482
1016.969	-1711
1017.040	-1561
1017.111	-1076
1017.182	-2315
1017.253	-1772
1017.324	-1906
1017.395	-1973
1017.466	-1877
1017.537	-1636
1017.608	-2325
1017.678	-747
1017.749	-2155
1017.820	-1525
1017.891	-1858
1017.961	-1222
1018.032	-1732
1018.103	-1851
1018.173	-2089
1018.244	-1379
1018.315	-2199
1018.385	-1414
1018.456	-1339
1018.526	-1326
1018.597	-2403
1018.667	-1502
1018.738	-1988
1018.808	-1135
1018.878	-1574
1018.949	-904
1019.019	-1647
1019.089	-1084
1019.160	-1978
1019.230	-1666
1019.300	-1841
1019.371	-1738
1019.441	-1059
1019.511	-1863
1019.581	-1391
1019.651	-1715
1019.721	-2097
1019.791	-1151
1019.861	-2220
1019.931	-2275
1020.001	-1848
1020.071	-1571
1020.141	-1765
1020.211	-1157
1020.281	-2402
1020.351	-1524
1020.421	-1880
1020.491	-1056
1020.560	-1522
1020.630	-1754
1020.700	-1328
1020.770	-1733
1020.839	-1531
1020.909	-942
1020.979	-1149
1021.048	-1470
1021.118	-1379
1021.187	-1542
1021.257	-2178
1021.326	-1390
1021.396	-1701
1021.465	-1028
1021.535	-1553
1021.604	-2377
1021.674	-2056
1021.743	-1127
1021.812	-1959
1021.882	-2195
1021.951	-1831
1022.020	-2402
1022.089	-2546
1022.159	-1522
1022.228	-1320
1022.297	-2275
1022.366	-2133
1022.435	-2090
1022.504	-2062
1022.573	-855
1022.642	-1711
1022.711	-2351
1022.781	-1734
1022.849	-1747
1022.918	-1957
1022.987	-1370
1023.056	-1143
1023.125	-1878
1023.194	-1804
1023.263	-2284
1023.331	-2124
1023.400	-1647
1023.469	-1754
1023.538	-1357
1023.606	-1979
1023.675	-1637
1023.744	-1696
1023.812	-1895
1023.881	-2331
1023.949	-1938
1024.018	-2363
1024.086	-1726
1024.155	-2461
1024.223	-1777
1024.292	-2267
1024.360	-2032
1024.429	-1896
1024.497	-2256
1024.565	-2274
1024.634	-2261
1024.702	-2310
1024.770	-2043
1024.838	-1556
1024.907	-857
1024.975	-2286
1025.043	-1887
1025.111	-1964
1025.179	-1749
1025.247	-1705
1025.315	-1864
1025.383	-1626
1025.451	-1994
1025.519	-2360
1025.587	-1529
1025.655	-1951
1025.723	-2252
1025.791	-2013
1025.859	-1815
1025.927	-723
1025.995	-2063
1026.062	-1852
1026.130	-1627
1026.198	-2590
1026.266	-2339
1026.333	-2501
1026.401	-1457
1026.469	-1605
1026.536	-1619
1026.604	-1873
1026.671	-641
1026.739	-2196
1026.806	-1848
1026.874	-2425
1026.941	-1943
1027.009	-1572
1027.076	-2063
1027.144	-1319
1027.211	-2026
1027.278	-1578
1027.345	-1584
1027.413	-1753
1027.480	-1648
1027.547	-2343
1027.614	-2506
1027.682	-2671
1027.749	-2253
1027.816	-2758
1027.883	-1979
1027.950	-2274
1028.017	-2280
1028.084	-2268
1028.151	-1922
1028.218	-2663
1028.285	-1443
1028.352	-1530
1028.419	-1877
1028.486	-1638
1028.553	-1950
1028.619	-2072
1028.686	-2492
1028.753	-1927
1028.820	-1303
1028.886	-2827
1028.953	-1682
1029.020	-1765
1029.086	-1651
1029.153	-1575
1029.220	-1582
1029.286	-1998
1029.353	-1568
1029.419	-2887
1029.486	-1872
1029.552	-2003
1029.619	-1078
1029.685	-2409
1029.751	-1497
1029.818	-1236
1029.884	-2296
1029.951	-2009
1030.017	-1810
1030.083	-1965
1030.149	-1848
1030.216	-1919
1030.282	-2025
1030.348	-2025
1030.414	-2383
1030.480	-2398
1030.546	-2102
1030.612	-1921
1030.678	-1941
1030.744	-2001
1030.810	-1047
1030.876	-1913
1030.942	-1874
1031.008	-2033
1031.074	-1385
1031.140	-2185
1031.206	-1352
1031.272	-1650
1031.337	-1637
1031.403	-1550
1031.469	-1422
1031.534	-2369
1031.600	-1257
1031.666	-2109
1031.731	-1478
1031.797	-2025
1031.863	-2534
1031.928	-2281
1031.994	-1951
1032.059	-2230
1032.125	-1889
1032.190	-1895
1032.256	-1848
1032.321	-2256
1032.386	-2241
1032.452	-1156
1032.517	-2108
1032.582	-3043
1032.647	-2127
1032.713	-2659
1032.778	-1618
1032.843	-1934
1032.908	-2430
1032.974	-1862
1033.039	-1775
1033.104	-2403
1033.169	-2617
1033.234	-2782
1033.299	-1487
1033.364	-2169
1033.429	-1880
1033.494	-1992
1033.559	-1456
1033.624	-1428
1033.688	-2066
1033.753	-2013
1033.818	-1972
1033.883	-2292
1033.948	-2008
1034.013	-2432
1034.077	-2123
1034.142	-2071
1034.207	-1635
1034.271	-1693
1034.336	-2375
1034.400	-2342
1034.465	-1889
1034.530	-2637
1034.594	-1865
1034.658	-2573
1034.723	-1792
1034.787	-1526
1034.852	-1820
1034.916	-1841
1034.981	-2207
1035.045	-2102
1035.109	-1176
1035.173	-1923
1035.238	-1662
1035.302	-2674
1035.366	-2225
1035.430	-2170
1035.495	-1847
1035.559	-2765
1035.623	-2197
1035.687	-2242
1035.751	-1302
1035.815	-2177
1035.879	-2160
1035.943	-1798
1036.007	-1891
1036.071	-2236
1036.135	-2039
1036.198	-2523
1036.262	-1909
1036.326	-2117
1036.390	-1167
1036.454	-2546
1036.517	-1989
1036.581	-2644
1036.645	-2710
1036.709	-2140
1036.772	-1394
1036.836	-1978
1036.900	-2243
1036.963	-1378
1037.026	-2303
1037.090	-1469
1037.154	-1941
1037.217	-2224
1037.280	-2238
1037.344	-2284
1037.407	-2114
1037.471	-1816
1037.534	-1779
1037.597	-1940
1037.661	-2089
1037.724	-1622
1037.787	-1618
1037.850	-2933
1037.913	-1474
1037.977	-2065
1038.040	-1474
1038.103	-2397
1038.166	-1618
1038.229	-2118
1038.292	-2105
1038.355	-1968
1038.418	-2301
1038.481	-1994
1038.544	-2379
1038.607	-2135
1038.670	-2339
1038.732	-2185
1038.795	-1510
1038.858	-2766
1038.921	-1577
1038.984	-2028
1039.046	-1733
1039.109	-2933
1039.172	-2284
1039.234	-2334
1039.297	-2624
1039.360	-2479
1039.422	-1719
1039.485	-1753
1039.547	-2069
1039.610	-1480
1039.672	-1960
1039.734	-2094
1039.797	-2015
1039.859	-1743
1039.922	-1583
1039.984	-2764
1040.046	-2313
1040.109	-2336
1040.171	-2147
1040.233	-2415
1040.295	-2040
1040.358	-1944
1040.420	-2619
1040.482	-2014
1040.544	-2462
1040.606	-1799
1040.668	-1999
1040.730	-2411
1040.792	-2145
1040.854	-2779
1040.916	-1722
1040.978	-2271
1041.040	-2101
1041.102	-2143
1041.164	-2205
1041.225	-1703
1041.287	-1383
1041.349	-2095
1041.411	-1924
1041.472	-1891
1041.534	-2039
1041.596	-1894
1041.657	-2150
1041.719	-2243
1041.781	-2020
1041.842	-2150
1041.904	-1860
1041.965	-2242
1042.027	-1391
1042.088	-1929
1042.150	-1484
1042.211	-1918
1042.272	-2213
1042.334	-2438
1042.395	-1228
1042.456	-2009
1042.518	-2022
1042.579	-1670
1042.640	-1530
1042.701	-2266
1042.763	-1953
1042.824	-2976
1042.885	-1992
1042.946	-1634
1043.007	-2069
1043.068	-2482
1043.129	-1924
1043.190	-1744
1043.251	-1301
1043.312	-1740
1043.373	-2005
1043.434	-2065
1043.495	-1352
1043.556	-1813
1043.616	-1514
1043.677	-3012
1043.738	-2108
1043.799	-3044
1043.859	-2266
1043.920	-2722
1043.981	-2161
1044.041	-2172
1044.102	-2723
1044.162	-2218
1044.223	-2016
1044.284	-2611
1044.344	-1025
1044.405	-2736
1044.465	-1240
1044.525	-1691
1044.586	-1847
1044.646	-2014
1044.707	-1045
1044.767	-1836
1044.827	-1866
1044.887	-1864
1044.948	-1697
1045.008	-1914
1045.068	-1751
1045.128	-2560
1045.188	-1522
1045.249	-1990
1045.309	-1665
1045.369	-946
1045.429	-1841
1045.489	-2397
1045.549	-1572
1045.609	-1828
1045.669	-1815
1045.729	-1418
1045.789	-1199
1045.848	-2414
1045.908	-2125
1045.968	-2000
1046.028	-1722
1046.088	-1377
1046.147	-1018
1046.207	-2239
1046.267	-1649
1046.326	-1602
1046.386	-815
1046.446	-1513
1046.505	-1244
1046.565	-1157
1046.624	-1239
1046.684	-508
1046.743	-951
1046.803	-574
1046.862	-724
1046.922	0
