'Start Wavelength	183.907
'End Wavelength	1046.922
'Gate Delay	5.000
'Gate Width (ms)	1.050
'Laser Output Level	0.000
'X Position	0.000
'Y Position	0.000
'Z Position	0.000
'Grid Point Number	1.000
'Shot Number	100.000
183.907	267.000
183.977	540.000
184.047	845
184.116	363
184.186	512
184.256	110
184.325	467
184.395	316
184.465	-131
184.534	243
184.604	-395
184.674	97
184.743	242
184.813	-146
184.883	553
184.952	-65
185.022	408
185.092	167
185.161	82
185.231	68
185.301	851
185.370	785
185.440	48
185.509	-383
185.579	-307
185.649	-57
185.718	-210
185.788	-178
185.857	-684
185.927	163
185.996	643
186.066	-83
186.136	-315
186.205	-151
186.275	183
186.344	-300
186.414	-178
186.483	-444
186.553	376
186.622	1203
186.692	-157
186.761	9
186.831	46
186.900	554
186.970	14
187.039	169
187.109	818
187.178	-160
187.248	-89
187.317	-244
187.387	-71
187.456	164
187.526	207
187.595	-480
187.664	70
187.734	-317
187.803	184
187.873	28
187.942	251
188.012	-122
188.081	-288
188.150	632
188.220	711
188.289	266
188.358	-17
188.428	94
188.497	449
188.567	-338
188.636	266
188.705	29
188.775	120
188.844	739
188.913	-3
188.983	-640
189.052	245
189.121	214
189.191	184
189.260	-13
189.329	72
189.399	-217
189.468	-202
189.537	179
189.606	-382
189.676	158
189.745	511
189.814	-235
189.883	-45
189.953	164
190.022	115
190.091	956
190.161	272
190.230	-197
190.299	292
190.368	-250
190.437	218
190.507	-109
190.576	-156
190.645	-142
190.714	-166
190.783	-363
190.853	-304
190.922	498
190.991	389
191.060	-238
191.129	407
191.198	-465
191.268	844
191.337	70
191.406	293
191.475	-132
191.544	-54
191.613	126
191.682	-124
191.752	-165
191.821	918
191.890	-3
191.959	173
192.028	-160
192.097	-170
192.166	-177
192.235	5
192.304	474
192.373	-64
192.442	271
192.511	108
192.580	283
192.650	-221
192.719	-101
192.788	242
192.857	174
192.926	-288
192.995	333
193.064	444
193.133	614
193.202	2
193.271	138
193.340	442
193.409	776
193.478	616
193.547	851
193.615	485
193.684	445
193.753	885
193.822	141
193.891	149
193.960	-267
194.029	102
194.098	-100
194.167	242
194.236	54
194.305	269
194.374	176
194.443	609
194.512	-192
194.580	12
194.649	465
194.718	223
194.787	-195
194.856	-486
194.925	305
194.994	858
195.062	260
195.131	385
195.200	-350
195.269	28
195.338	-183
195.407	88
195.475	-435
195.544	-287
195.613	-838
195.682	-567
195.751	143
195.819	-203
195.888	-85
195.957	423
196.026	106
196.094	-60
196.163	215
196.232	83
196.301	570
196.369	25
196.438	-93
196.507	-51
196.576	-529
196.644	-644
196.713	179
196.782	228
196.850	3
196.919	-84
196.988	692
197.056	42
197.125	299
197.194	-788
197.262	-281
197.331	179
197.400	85
197.468	176
197.537	32
197.606	1
197.674	469
197.743	681
197.812	399
197.880	654
197.949	703
198.017	343
198.086	-153
198.155	-119
198.223	633
198.292	949
198.360	-278
198.429	1243
198.497	-427
198.566	133
198.635	642
198.703	238
198.772	578
198.840	1320
198.909	196
198.977	387
199.046	624
199.114	706
199.183	410
199.251	453
199.320	-85
199.388	-19
199.457	5
199.525	20
199.594	278
199.662	-178
199.731	403
199.799	318
199.867	402
199.936	-170
200.004	133
200.073	-279
200.141	90
200.210	-145
200.278	-318
200.346	156
200.415	-687
200.483	-101
200.552	551
200.620	-124
200.688	-22
200.757	-125
200.825	104
200.893	435
200.962	-615
201.030	-263
201.098	200
201.167	525
201.235	-650
201.303	-290
201.372	637
201.440	-405
201.508	-504
201.577	-199
201.645	-193
201.713	466
201.781	562
201.850	380
201.918	-313
201.986	301
202.055	-198
202.123	-29
202.191	-498
202.259	188
202.327	-633
202.396	-81
202.464	-135
202.532	741
202.600	1086
202.669	-170
202.737	-340
202.805	130
202.873	583
202.941	-321
203.009	-497
203.078	-634
203.146	-29
203.214	368
203.282	-36
203.350	93
203.418	30
203.487	279
203.555	-305
203.623	-282
203.691	-268
203.759	-56
203.827	-299
203.895	141
203.963	-802
204.031	2
204.099	-236
204.168	-23
204.236	-418
204.304	1046
204.372	-110
204.440	-137
204.508	-642
204.576	-349
204.644	-3
204.712	61
204.780	269
204.848	852
204.916	-287
204.984	-1
205.052	155
205.120	302
205.188	-474
205.256	85
205.324	-164
205.392	-35
205.460	31
205.528	43
205.596	32
205.664	-671
205.732	-213
205.799	2078
205.867	228
205.935	209
206.003	-197
206.071	377
206.139	-261
206.207	105
206.275	55
206.343	-241
206.411	79
206.478	330
206.546	10
206.614	-253
206.682	568
206.750	-182
206.818	529
206.885	55
206.953	-153
207.021	127
207.089	-1052
207.157	188
207.225	-187
207.292	-342
207.360	-12
207.428	-32
207.496	-1166
207.563	-455
207.631	-159
207.699	-260
207.767	73
207.834	368
207.902	-113
207.970	-521
208.038	588
208.105	168
208.173	187
208.241	958
208.309	291
208.376	517
208.444	896
208.512	-254
208.579	-156
208.647	461
208.715	33
208.782	-370
208.850	65
208.918	-171
208.985	93
209.053	93
209.120	-210
209.188	348
209.256	671
209.323	121
209.391	224
209.459	-146
209.526	-45
209.594	411
209.661	-563
209.729	764
209.796	-346
209.864	790
209.932	73
209.999	475
210.067	48
210.134	317
210.202	180
210.269	116
210.337	509
210.404	-34
210.472	-488
210.539	302
210.607	400
210.674	281
210.742	117
210.809	255
210.877	57
210.944	553
211.012	133
211.079	-25
211.146	-30
211.214	737
211.281	1092
211.349	473
211.416	374
211.484	409
211.551	405
211.618	370
211.686	-76
211.753	130
211.821	917
211.888	432
211.955	-303
212.023	483
212.090	-821
212.157	85
212.225	412
212.292	1867
212.359	2883
212.427	3756
212.494	1149
212.561	206
212.629	190
212.696	52
212.763	-434
212.831	579
212.898	-134
212.965	289
213.032	699
213.100	474
213.167	422
213.234	469
213.301	-114
213.369	386
213.436	754
213.503	-46
213.570	628
213.638	-40
213.705	-624
213.772	-348
213.839	75
213.906	752
213.973	625
214.041	-103
214.108	-73
214.175	351
214.242	321
214.309	329
214.376	1261
214.444	91
214.511	-555
214.578	50
214.645	498
214.712	444
214.779	-427
214.846	584
214.913	412
214.980	470
215.048	759
215.115	836
215.182	299
215.249	-110
215.316	-556
215.383	422
215.450	416
215.517	784
215.584	250
215.651	-80
215.718	517
215.785	756
215.852	391
215.919	630
215.986	-215
216.053	99
216.120	-116
216.187	231
216.254	430
216.321	-152
216.388	81
216.455	427
216.522	478
216.589	332
216.656	1604
216.722	1049
216.789	873
216.856	521
216.923	725
216.990	546
217.057	893
217.124	476
217.191	258
217.258	1842
217.324	1814
217.391	1801
217.458	534
217.525	746
217.592	295
217.659	824
217.725	522
217.792	1160
217.859	491
217.926	-141
217.993	5
218.059	301
218.126	794
218.193	267
218.260	32
218.327	-21
218.393	-363
218.460	-281
218.527	415
218.594	507
218.660	971
218.727	193
218.794	-177
218.860	641
218.927	-185
218.994	-18
219.061	-67
219.127	508
219.194	849
219.261	119
219.327	-56
219.394	247
219.461	-586
219.527	-112
219.594	226
219.661	-324
219.727	-742
219.794	377
219.860	-87
219.927	387
219.994	605
220.060	1042
220.127	757
220.193	620
220.260	973
220.326	1334
220.393	2001
220.460	2763
220.526	1341
220.593	-227
220.659	354
220.726	994
220.792	2331
220.859	1556
220.925	4086
220.992	4564
221.058	4168
221.125	3948
221.191	2273
221.258	829
221.324	124
221.391	-269
221.457	-543
221.524	-521
221.590	1085
221.657	3199
221.723	1442
221.789	1797
221.856	588
221.922	958
221.989	618
222.055	278
222.121	72
222.188	431
222.254	481
222.321	284
222.387	-625
222.453	335
222.520	105
222.586	-432
222.652	48
222.719	-93
222.785	-375
222.851	-428
222.918	-201
222.984	167
223.050	-71
223.116	-276
223.183	-636
223.249	-640
223.315	-602
223.382	-310
223.448	-304
223.514	-76
223.580	-579
223.647	153
223.713	-390
223.779	-278
223.845	-803
223.911	-108
223.978	-282
224.044	-543
224.110	-1214
224.176	98
224.242	8
224.309	-208
224.375	-247
224.441	120
224.507	-1074
224.573	-481
224.639	-488
224.705	-165
224.772	-591
224.838	-162
224.904	-633
224.970	-96
225.036	284
225.102	713
225.168	-673
225.234	-439
225.300	-311
225.366	-102
225.432	-615
225.499	314
225.565	-363
225.631	-658
225.697	-132
225.763	378
225.829	14
225.895	726
225.961	637
226.027	614
226.093	715
226.159	491
226.225	2305
226.291	5904
226.357	5867
226.423	2395
226.489	1241
226.554	1334
226.620	944
226.686	373
226.752	2157
226.818	4855
226.884	10199
226.950	5385
227.016	1246
227.082	1019
227.148	933
227.214	1117
227.279	611
227.345	556
227.411	548
227.477	1360
227.543	2144
227.609	1758
227.674	346
227.740	-273
227.806	571
227.872	-530
227.938	72
228.003	631
228.069	-140
228.135	-162
228.201	-294
228.267	-393
228.332	189
228.398	370
228.464	-320
228.530	284
228.595	107
228.661	-315
228.727	215
228.792	273
228.858	120
228.924	-143
228.990	-1
229.055	36
229.121	-237
229.187	-257
229.252	-256
229.318	-270
229.384	772
229.449	630
229.515	-911
229.581	-872
229.646	438
229.712	229
229.777	1248
229.843	982
229.909	946
229.974	1569
230.040	44
230.105	-165
230.171	414
230.236	246
230.302	1552
230.368	736
230.433	-163
230.499	280
230.564	487
230.630	200
230.695	-117
230.761	7
230.826	-246
230.892	558
230.957	-572
231.023	-238
231.088	-251
231.154	14
231.219	237
231.284	722
231.350	676
231.415	-173
231.481	-163
231.546	325
231.612	-210
231.677	-368
231.742	-198
231.808	-278
231.873	-872
231.939	-248
232.004	830
232.069	-301
232.135	-108
232.200	-390
232.265	-765
232.331	-469
232.396	-30
232.461	-376
232.527	-240
232.592	-382
232.657	-628
232.723	697
232.788	505
232.853	-110
232.918	-634
232.984	-251
233.049	-394
233.114	541
233.179	228
233.245	846
233.310	841
233.375	-660
233.440	395
233.506	-377
233.571	221
233.636	-518
233.701	243
233.766	1241
233.832	-341
233.897	151
233.962	116
234.027	358
234.092	-85
234.157	-55
234.222	-148
234.288	1524
234.353	3020
234.418	2460
234.483	693
234.548	609
234.613	436
234.678	508
234.743	1113
234.808	3418
234.873	1058
234.938	396
235.004	-50
235.069	-65
235.134	115
235.199	122
235.264	262
235.329	-106
235.394	308
235.459	225
235.524	-245
235.589	293
235.654	371
235.719	-149
235.784	-170
235.849	778
235.913	1304
235.978	1935
236.043	1031
236.108	1049
236.173	-55
236.238	208
236.303	619
236.368	743
236.433	2237
236.498	1309
236.563	1006
236.627	5994
236.692	11666
236.757	5411
236.822	2727
236.887	1987
236.952	742
237.017	767
237.081	1377
237.146	2272
237.211	6442
237.276	17265
237.341	14644
237.405	5125
237.470	1962
237.535	1129
237.600	859
237.664	979
237.729	349
237.794	2560
237.859	2082
237.923	1586
237.988	366
238.053	1529
238.118	1676
238.182	6203
238.247	1956
238.312	1323
238.376	264
238.441	-26
238.506	745
238.570	-144
238.635	-224
238.700	-8
238.764	123
238.829	1977
238.893	1376
238.958	845
239.023	799
239.087	-575
239.152	-265
239.216	341
239.281	-956
239.346	3
239.410	-67
239.475	1099
239.539	5333
239.604	1093
239.668	18
239.733	483
239.797	2144
239.862	4482
239.926	2883
239.991	150
240.055	307
240.120	213
240.184	34
240.249	-161
240.313	-179
240.378	190
240.442	3425
240.507	2459
240.571	489
240.635	2356
240.700	668
240.764	-20
240.829	-393
240.893	-189
240.957	709
241.022	3256
241.086	3284
241.151	-64
241.215	-314
241.279	650
241.344	1051
241.408	434
241.472	992
241.537	-26
241.601	735
241.665	48
241.730	-299
241.794	642
241.858	469
241.922	210
241.987	-66
242.051	-225
242.115	-122
242.179	-425
242.244	768
242.308	263
242.372	136
242.436	475
242.501	250
242.565	-225
242.629	-443
242.693	306
242.757	162
242.822	-152
242.886	-115
242.950	217
243.014	-634
243.078	262
243.142	-88
243.206	363
243.271	880
243.335	439
243.399	1005
243.463	11896
243.527	10657
243.591	2227
243.655	856
243.719	169
243.783	1054
243.847	1755
243.911	2292
243.975	3199
244.040	971
244.104	660
244.168	504
244.232	1639
244.296	1064
244.360	1307
244.424	615
244.488	-585
244.552	140
244.615	-323
244.679	-153
244.743	409
244.807	-53
244.871	-108
244.935	-377
244.999	-228
245.063	-217
245.127	600
245.191	934
245.255	1105
245.319	1456
245.383	119
245.446	183
245.510	498
245.574	-6
245.638	-116
245.702	1189
245.766	2161
245.829	625
245.893	669
245.957	-368
246.021	210
246.085	997
246.149	647
246.212	4993
246.276	3073
246.340	1109
246.404	485
246.467	1784
246.531	1519
246.595	1569
246.659	900
246.722	1277
246.786	655
246.850	2349
246.913	1806
246.977	-314
247.041	381
247.104	170
247.168	1831
247.232	5860
247.295	6074
247.359	1650
247.423	1775
247.486	2013
247.550	1043
247.614	704
247.677	666
247.741	255
247.804	912
247.868	1012
247.932	5236
247.995	4315
248.059	986
248.122	697
248.186	1416
248.249	5122
248.313	14625
248.376	10102
248.440	4632
248.503	1425
248.567	2367
248.630	3162
248.694	4390
248.757	9142
248.821	11477
248.884	5300
248.948	8125
249.011	11538
249.075	15927
249.138	7769
249.202	3732
249.265	2275
249.328	2107
249.392	1864
249.455	1238
249.519	556
249.582	2523
249.645	2889
249.709	1268
249.772	1627
249.835	1694
249.899	1155
249.962	2035
250.025	1335
250.089	7021
250.152	4468
250.215	2853
250.279	1139
250.342	983
250.405	288
250.468	1885
250.532	2487
250.595	4888
250.658	24863
250.721	15380
250.785	5989
250.848	3959
250.911	1608
250.974	1945
251.038	5626
251.101	4930
251.164	3081
251.227	3773
251.290	2470
251.354	9206
251.417	27560
251.480	11740
251.543	21660
251.606	43514
251.669	15759
251.732	8583
251.795	10736
251.859	15556
251.922	23307
251.985	7156
252.048	3943
252.111	3203
252.174	3160
252.237	10720
252.300	13183
252.363	25538
252.426	25058
252.489	8724
252.552	4629
252.615	2807
252.678	5919
252.741	11149
252.804	24128
252.867	28048
252.930	13835
252.993	8666
253.056	5034
253.119	2187
253.182	3055
253.245	4779
253.308	2903
253.371	2864
253.434	2374
253.497	3808
253.559	6345
253.622	2961
253.685	5811
253.748	3472
253.811	2399
253.874	3211
253.937	2724
254.000	2601
254.062	6798
254.125	5026
254.188	6538
254.251	3165
254.314	1901
254.376	5098
254.439	3925
254.502	3286
254.565	7068
254.628	6133
254.690	3045
254.753	1569
254.816	1132
254.878	1731
254.941	5942
255.004	2355
255.067	1390
255.129	1043
255.192	257
255.255	568
255.317	217
255.380	318
255.443	-694
255.505	276
255.568	-138
255.631	471
255.693	-16
255.756	-414
255.819	921
255.881	319
255.944	19
256.006	536
256.069	-552
256.132	251
256.194	1644
256.257	2212
256.319	2228
256.382	1585
256.444	644
256.507	1029
256.569	405
256.632	552
256.694	2147
256.757	13203
256.819	12935
256.882	3617
256.944	1887
257.007	705
257.069	919
257.132	990
257.194	225
257.257	243
257.319	280
257.381	515
257.444	8628
257.506	27872
257.569	14377
257.631	7906
257.693	4192
257.756	1547
257.818	1199
257.880	861
257.943	221
258.005	310
258.067	295
258.130	318
258.192	1492
258.254	1714
258.317	719
258.379	1018
258.441	4993
258.503	2219
258.566	6869
258.628	2660
258.690	507
258.753	1548
258.815	2610
258.877	686
258.939	547
259.001	22
259.064	913
259.126	1010
259.188	718
259.250	125
259.312	1973
259.375	4867
259.437	965
259.499	457
259.561	349
259.623	133
259.685	350
259.747	954
259.809	7782
259.872	8110
259.934	16822
259.996	6739
260.058	1647
260.120	929
260.182	89
260.244	-163
260.306	-200
260.368	254
260.430	210
260.492	3147
260.554	4061
260.616	2216
260.678	10466
260.740	4129
260.802	1325
260.864	1904
260.926	369
260.988	556
261.050	1818
261.112	6343
261.174	10462
261.236	2400
261.298	811
261.359	5033
261.421	2090
261.483	169
261.545	535
261.607	-338
261.669	-606
261.731	4127
261.793	4142
261.854	1405
261.916	992
261.978	1372
262.040	42
262.102	548
262.164	976
262.225	600
262.287	409
262.349	3323
262.411	1219
262.472	368
262.534	4003
262.596	2014
262.658	77
262.719	29
262.781	2673
262.843	2866
262.904	223
262.966	370
263.028	1686
263.090	19934
263.151	16199
263.213	5425
263.275	2158
263.336	728
263.398	72
263.459	174
263.521	709
263.583	2998
263.644	572
263.706	-331
263.767	-646
263.829	-729
263.891	-751
263.952	-1121
264.014	-708
264.075	2606
264.137	2876
264.198	135
264.260	-941
264.321	119
264.383	4967
264.444	3777
264.506	10
264.567	535
264.629	3819
264.690	2725
264.752	918
264.813	-636
264.875	36
264.936	-278
264.998	-511
265.059	-218
265.120	-111
265.182	3115
265.243	11415
265.305	3587
265.366	234
265.427	435
265.489	-292
265.550	-659
265.611	376
265.673	-3
265.734	423
265.795	-438
265.857	-578
265.918	-208
265.979	5275
266.040	18649
266.102	5124
266.163	2601
266.224	1066
266.286	-30
266.347	-676
266.408	-434
266.469	-522
266.530	160
266.592	-262
266.653	2522
266.714	1884
266.775	100
266.836	-1062
266.898	-95
266.959	792
267.020	-241
267.081	-161
267.142	-724
267.203	-1094
267.264	-251
267.326	200
267.387	-271
267.448	-505
267.509	472
267.570	88
267.631	-94
267.692	-298
267.753	-398
267.814	-391
267.875	3450
267.936	2451
267.997	936
268.058	711
268.119	-494
268.180	-425
268.241	-789
268.302	-245
268.363	-1197
268.424	-473
268.485	-570
268.546	-758
268.607	-752
268.668	-133
268.729	-437
268.790	-689
268.851	130
268.912	3278
268.972	1523
269.033	-79
269.094	-1356
269.155	-630
269.216	210
269.277	-494
269.338	-319
269.398	-298
269.459	-463
269.520	842
269.581	1874
269.642	1306
269.702	98
269.763	-389
269.824	-107
269.885	178
269.945	107
270.006	-388
270.067	-391
270.128	-892
270.188	-577
270.249	-840
270.310	-500
270.370	-472
270.431	-678
270.492	-1534
270.553	749
270.613	2727
270.674	2617
270.734	-215
270.795	-209
270.856	652
270.916	-312
270.977	-436
271.038	348
271.098	-126
271.159	1419
271.219	323
271.280	6
271.340	-326
271.401	807
271.462	1320
271.522	-23
271.583	-252
271.643	-360
271.704	-8
271.764	-208
271.825	4895
271.885	17667
271.946	8348
272.006	2599
272.066	10607
272.127	6684
272.187	1032
272.248	523
272.308	3496
272.369	7132
272.429	2347
272.489	2805
272.550	1636
272.610	2704
272.671	-170
272.731	2270
272.791	1821
272.852	395
272.912	562
272.972	-220
273.033	72
273.093	1418
273.153	798
273.214	377
273.274	1035
273.334	11530
273.394	7731
273.455	2276
273.515	7978
273.575	6938
273.635	2267
273.696	8986
273.756	7349
273.816	2285
273.876	1851
273.936	8439
273.997	4502
274.057	1282
274.117	104
274.177	6697
274.237	18267
274.297	7743
274.358	6890
274.418	9246
274.478	3031
274.538	1447
274.598	1546
274.658	8588
274.718	5369
274.778	679
274.838	861
274.898	7575
274.958	10518
275.018	11280
275.078	3294
275.138	1450
275.198	290
275.258	178
275.318	624
275.378	2691
275.438	2028
275.498	1707
275.558	9912
275.618	12321
275.678	4520
275.738	3897
275.798	1297
275.858	495
275.918	-553
275.978	985
276.038	-371
276.098	13
276.157	5436
276.217	6272
276.277	1752
276.337	1137
276.397	582
276.457	468
276.517	-165
276.576	296
276.636	-189
276.696	1965
276.756	5589
276.815	1385
276.875	540
276.935	945
276.995	-54
277.055	-947
277.114	-11
277.174	4095
277.234	4857
277.293	1110
277.353	-129
277.413	260
277.472	358
277.532	259
277.592	1332
277.651	12489
277.711	6073
277.771	6602
277.830	18767
277.890	6086
277.950	17988
278.009	19280
278.069	5240
278.128	14534
278.188	7496
278.248	7758
278.307	15230
278.367	3879
278.426	1911
278.486	855
278.545	353
278.605	91
278.664	245
278.724	715
278.783	9757
278.843	8062
278.902	1407
278.962	1193
279.021	1373
279.081	3100
279.140	1621
279.199	1907
279.259	2161
279.318	2261
279.378	3611
279.437	10428
279.496	39749
279.556	84178
279.615	28151
279.675	10101
279.734	7940
279.793	15565
279.853	12147
279.912	4360
279.971	2937
280.031	2346
280.090	9851
280.149	7551
280.208	18085
280.268	67736
280.327	24188
280.386	7981
280.445	8479
280.505	4026
280.564	2728
280.623	1348
280.682	6145
280.742	2975
280.801	1129
280.860	399
280.919	966
280.978	334
281.037	-127
281.097	144
281.156	-69
281.215	-146
281.274	2583
281.333	10481
281.392	1806
281.451	572
281.510	10
281.569	-123
281.628	-240
281.688	188
281.747	580
281.806	698
281.865	-250
281.924	-427
281.983	-402
282.042	-399
282.101	-160
282.160	200
282.219	-50
282.278	1031
282.337	3871
282.396	256
282.454	220
282.513	2503
282.572	6960
282.631	814
282.690	197
282.749	-413
282.808	-234
282.867	489
282.926	177
282.985	-158
283.043	-534
283.102	118
283.161	-113
283.220	6513
283.279	4531
283.338	685
283.396	274
283.455	960
283.514	534
283.573	1563
283.631	362
283.690	152
283.749	-52
283.808	3336
283.866	1225
283.925	350
283.984	619
284.043	1615
284.101	15
284.160	802
284.219	859
284.277	86
284.336	4552
284.395	12397
284.453	3620
284.512	2727
284.570	3106
284.629	2108
284.688	2382
284.746	2727
284.805	4560
284.863	6103
284.922	7779
284.981	8954
285.039	14528
285.098	31332
285.156	73742
285.215	90724
285.273	75230
285.332	42626
285.390	25514
285.449	16079
285.507	10087
285.566	7265
285.624	4543
285.683	3994
285.741	2309
285.799	2087
285.858	1720
285.916	1820
285.975	780
286.033	547
286.091	549
286.150	-15
286.208	175
286.267	1078
286.325	704
286.383	2151
286.442	755
286.500	600
286.558	79
286.616	-144
286.675	1009
286.733	159
286.791	-742
286.850	511
286.908	2519
286.966	1969
287.024	-103
287.083	206
287.141	-927
287.199	913
287.257	250
287.315	419
287.374	1736
287.432	3307
287.490	551
287.548	363
287.606	180
287.664	334
287.723	1494
287.781	-72
287.839	-173
287.897	183
287.955	938
288.013	412
288.071	9255
288.129	69234
288.187	73825
288.245	20209
288.303	8233
288.361	4599
288.419	2831
288.477	1588
288.535	751
288.593	568
288.651	-484
288.709	-491
288.767	-323
288.825	-977
288.883	-574
288.941	489
288.999	-422
289.057	-742
289.115	-816
289.173	-97
289.231	-531
289.289	-705
289.346	-589
289.404	398
289.462	1312
289.520	406
289.578	-744
289.636	-102
289.694	-705
289.751	-989
289.809	25
289.867	-103
289.925	397
289.983	-426
290.040	-908
290.098	-861
290.156	-158
290.214	-210
290.271	-1258
290.329	-650
290.387	-1302
290.444	-603
290.502	-962
290.560	-379
290.617	-309
290.675	-545
290.733	-898
290.790	-387
290.848	-1063
290.906	212
290.963	-684
291.021	-729
291.078	-1270
291.136	-44
291.194	7409
291.251	4871
291.309	372
291.366	-412
291.424	-909
291.481	-182
291.539	-1584
291.596	-606
291.654	-1487
291.711	-663
291.769	309
291.826	1107
291.884	-455
291.941	-279
291.999	-1266
292.056	-456
292.114	-685
292.171	-400
292.228	-488
292.286	244
292.343	2189
292.401	1586
292.458	-101
292.515	-373
292.573	447
292.630	403
292.687	-207
292.745	-312
292.802	1997
292.859	6751
292.917	7300
292.974	1271
293.031	-158
293.089	-804
293.146	-605
293.203	-1300
293.260	-788
293.318	1027
293.375	1025
293.432	-310
293.489	-275
293.546	-999
293.604	940
293.661	11146
293.718	11944
293.775	4260
293.832	2428
293.889	1706
293.947	1513
294.004	883
294.061	833
294.118	6998
294.175	11599
294.232	8670
294.289	1858
294.346	1174
294.403	281
294.460	1236
294.517	-109
294.574	-616
294.631	-822
294.688	440
294.745	8437
294.802	21116
294.859	12263
294.916	4937
294.973	1834
295.030	2912
295.087	435
295.144	258
295.201	-378
295.258	-391
295.315	1962
295.372	10877
295.429	7357
295.486	2603
295.542	1609
295.599	12515
295.656	9500
295.713	11292
295.770	7424
295.827	1859
295.883	669
295.940	1269
295.997	3468
296.054	1286
296.111	24
296.167	-112
296.224	-255
296.281	-507
296.338	-307
296.394	-380
296.451	1331
296.508	8492
296.564	6949
296.621	6987
296.678	20201
296.734	12231
296.791	3387
296.848	1714
296.904	5392
296.961	10381
297.018	13996
297.074	5613
297.131	1580
297.187	945
297.244	5494
297.301	23555
297.357	14874
297.414	4558
297.470	2206
297.527	875
297.583	220
297.640	437
297.696	-223
297.753	455
297.809	-110
297.866	-688
297.922	-150
297.979	244
298.035	-381
298.092	3307
298.148	8922
298.204	4278
298.261	1243
298.317	12367
298.374	15286
298.430	5067
298.486	2774
298.543	1231
298.599	2146
298.656	2804
298.712	7960
298.768	13105
298.824	5305
298.881	1215
298.937	481
298.993	1237
299.050	302
299.106	317
299.162	268
299.218	296
299.275	-116
299.331	641
299.387	7091
299.443	19389
299.500	11087
299.556	3571
299.612	2387
299.668	2214
299.724	4358
299.780	2677
299.837	1048
299.893	6052
299.949	16944
300.005	11061
300.061	19288
300.117	17369
300.173	5227
300.229	3580
300.285	6010
300.341	4088
300.397	984
300.453	952
300.510	-536
300.566	491
300.622	2032
300.678	12975
300.734	12929
300.790	14888
300.845	11083
300.901	11575
300.957	15258
301.013	5860
301.069	2463
301.125	1816
301.181	1098
301.237	757
301.293	-589
301.349	189
301.405	-49
301.461	784
301.516	124
301.572	2483
301.628	2429
301.684	2150
301.740	8751
301.796	6675
301.851	6769
301.907	9469
301.963	8145
302.019	29674
302.074	48423
302.130	31036
302.186	13307
302.242	6835
302.297	3245
302.353	6032
302.409	8635
302.464	4808
302.520	8768
302.576	19367
302.631	14741
302.687	6091
302.743	2720
302.798	1554
302.854	368
302.910	1164
302.965	2641
303.021	4268
303.076	3818
303.132	7244
303.187	5779
303.243	1433
303.299	1447
303.354	565
303.410	1004
303.465	-78
303.521	-220
303.576	843
303.632	1019
303.687	7825
303.743	14321
303.798	7176
303.853	2472
303.909	1363
303.964	1592
304.020	5141
304.075	3464
304.130	5946
304.186	8970
304.241	8832
304.297	5681
304.352	2265
304.358	2195
304.407	1625
304.449	2115
304.463	2285
304.518	1432
304.539	1174
304.573	747
304.629	972
304.630	1056
304.684	4843
304.720	11883
304.739	15533
304.794	11617
304.811	9910
304.850	5377
304.902	2687
304.905	2535
304.960	1675
304.992	1592
305.015	1563
305.071	2355
305.083	2027
305.126	764
305.173	125
305.181	29
305.236	535
305.264	863
305.292	1226
305.347	1996
305.354	1934
305.402	1465
305.445	1604
305.457	1658
305.512	2272
305.535	2113
305.567	1855
305.622	2534
305.626	2849
305.678	8699
305.716	16346
305.733	19540
305.788	14407
305.807	14307
305.843	13128
305.897	16023
305.898	16074
305.953	10839
305.988	8472
306.008	6794
306.063	3549
306.078	3066
306.118	2389
306.168	1177
306.173	1075
306.228	1032
306.259	411
306.283	-6
306.338	709
306.349	752
306.393	1131
306.440	1850
306.448	1911
306.503	1180
306.530	1997
306.558	3518
306.613	8368
306.620	9075
306.668	14008
306.711	16779
306.723	16962
306.778	11221
306.801	9262
306.833	6112
306.888	2948
306.892	2778
306.943	2393
306.982	1904
306.997	1776
307.052	1528
307.072	1621
307.107	1838
307.162	2354
307.163	2370
307.217	4654
307.253	6205
307.272	6776
307.327	6344
307.343	5870
307.381	4273
307.434	3849
307.436	3962
307.491	10408
307.524	14323
307.546	16511
307.600	14709
307.614	14026
307.655	8423
307.704	3756
307.710	3629
307.765	4327
307.795	5988
307.819	8492
307.874	12818
307.885	12833
307.929	8812
307.975	5721
307.984	5666
308.038	6841
308.065	9320
308.093	15268
308.148	40424
308.156	44873
308.202	82351
308.246	93425
308.257	86956
308.312	47568
308.336	33159
308.366	26410
308.421	16456
308.426	15607
308.475	9509
308.517	5995
308.530	5631
308.585	4036
308.607	3919
308.639	4294
308.694	4838
308.697	5030
308.748	10543
308.787	14411
308.803	15086
308.857	12727
308.877	12232
308.912	9803
308.967	7349
308.967	7313
309.021	9726
309.058	12838
309.076	16059
309.130	27225
309.148	33224
309.185	56761
309.238	101565
309.239	102471
309.293	129683
309.328	134156
309.348	112085
309.402	52578
309.418	37130
309.457	25733
309.508	14366
309.511	14155
309.566	12681
309.598	13394
309.620	16688
309.674	27242
309.688	29088
309.729	29089
309.778	26203
309.783	25384
309.837	16158
309.868	11865
309.892	12125
309.946	15635
309.959	16750
310.001	26571
310.049	34236
310.055	33025
310.109	20158
310.139	13720
310.163	10763
310.218	5331
310.229	4341
310.272	3556
310.319	2956
310.326	2944
310.381	2617
310.409	2595
310.435	2532
310.489	2417
310.499	2392
310.543	2356
310.589	2412
310.598	2482
310.652	2775
310.679	3029
310.706	2818
310.760	1991
310.769	1881
310.814	1448
310.859	1081
310.868	1151
310.923	1465
310.948	1645
310.977	1871
311.031	2398
311.038	2446
311.085	2574
311.128	2692
311.139	2636
311.193	2248
311.218	2131
311.247	2229
311.301	2271
311.308	2269
311.356	2063
311.398	1907
311.410	1990
311.464	2341
311.488	2489
311.518	2080
311.572	1378
311.578	1299
311.626	2182
311.668	2926
311.680	2990
311.734	3241
311.758	3335
311.788	3427
311.842	3601
311.847	3616
311.896	3505
311.937	3417
311.950	3830
312.004	5595
312.027	6350
312.058	5022
312.112	2645
312.117	2404
312.165	2407
312.207	2407
312.297	2855
312.386	2937
312.476	2386
312.566	5239
312.656	3673
312.745	2236
312.835	2525
312.925	2339
313.015	2489
313.104	2890
313.194	1914
313.284	2373
313.374	3032
313.463	3672
313.553	1848
313.643	2161
313.732	2384
313.822	1612
313.912	2439
314.001	2721
314.091	2333
314.180	3931
314.270	3480
314.360	4318
314.449	3856
314.539	2180
314.628	2575
314.718	2040
314.808	3507
314.897	2504
314.987	1746
315.076	2755
315.166	3528
315.255	3882
315.345	3257
315.434	3412
315.524	3126
315.613	2901
315.703	4065
315.792	6100
315.881	12887
315.971	8705
316.060	5300
316.150	8652
316.239	9596
316.328	5691
316.418	2426
316.507	2366
316.597	2668
316.686	3062
316.775	3518
316.865	10635
316.954	3995
317.043	1484
317.133	2165
317.222	1934
317.311	2343
317.400	1904
317.490	2967
317.579	3704
317.668	1836
317.757	3376
317.847	7909
317.936	23856
318.025	16999
318.114	7037
318.203	5142
318.293	5509
318.382	11765
318.471	11054
318.560	13728
318.649	23690
318.738	10033
318.828	2577
318.917	4262
319.006	3584
319.095	10423
319.184	27547
319.273	24424
319.362	11439
319.451	3056
319.540	2693
319.629	5045
319.718	11707
319.807	4802
319.896	8474
319.985	34104
320.074	24418
320.163	4451
320.252	5836
320.341	4839
320.430	5470
320.519	4302
320.608	4669
320.697	3044
320.786	3097
320.875	3413
320.964	4945
321.053	5903
321.142	9867
321.230	12949
321.319	8480
321.408	18632
321.497	12481
321.586	6929
321.675	9677
321.764	10600
321.852	6073
321.941	9280
322.030	9234
322.119	6488
322.207	18680
322.296	17372
322.385	8213
322.474	7579
322.562	20254
322.651	18829
322.740	7471
322.829	13653
322.917	13507
323.006	9747
323.095	7256
323.183	4211
323.272	6467
323.361	10750
323.449	37886
323.538	22088
323.626	21841
323.715	27208
323.804	5686
323.892	20340
323.981	21410
324.069	4560
324.158	10452
324.246	19301
324.335	4557
324.424	7366
324.512	3762
324.601	3809
324.689	6142
324.778	16450
324.866	10970
324.954	4141
325.043	2189
325.131	4975
325.220	10882
325.308	12513
325.397	8635
325.485	8046
325.574	2301
325.662	2125
325.750	2504
325.839	2328
325.927	1452
326.015	2063
326.104	3636
326.192	7308
326.280	2341
326.369	1441
326.457	2723
326.545	5545
326.634	4204
326.722	1139
326.810	2367
326.898	1102
326.987	2077
327.075	4078
327.163	6333
327.251	3363
327.340	4260
327.428	8995
327.516	3264
327.604	1905
327.692	2556
327.781	1888
327.869	3947
327.957	3586
328.045	2858
328.133	1563
328.221	2454
328.309	1890
328.397	2055
328.485	2529
328.574	2843
328.662	10351
328.750	10516
328.838	3053
328.926	2268
329.014	1470
329.102	2681
329.190	5653
329.278	6904
329.366	1649
329.454	1277
329.542	1830
329.630	1175
329.718	1639
329.806	2302
329.893	2341
329.981	2300
330.069	2789
330.157	10592
330.245	48151
330.333	42194
330.421	6784
330.509	3141
330.597	12447
330.684	13869
330.772	4445
330.860	4707
330.948	6819
331.036	4248
331.123	1174
331.211	1522
331.299	1653
331.387	3552
331.475	10733
331.562	3592
331.650	1231
331.738	1664
331.825	3307
331.913	1441
332.001	1348
332.089	1441
332.176	4548
332.264	9513
332.352	14387
332.439	3504
332.527	1902
332.614	1619
332.702	3505
332.790	1594
332.877	3627
332.965	14223
333.052	5442
333.140	2945
333.228	10146
333.315	4442
333.403	1756
333.490	5663
333.578	9010
333.665	10549
333.753	7714
333.840	2264
333.928	2341
334.015	5768
334.103	10684
334.190	37269
334.278	20187
334.365	3516
334.452	3494
334.540	2146
334.627	2130
334.715	4528
334.802	4951
334.889	32416
334.977	67947
335.064	12278
335.151	3090
335.239	2914
335.326	3092
335.413	12235
335.501	35903
335.588	6645
335.675	2406
335.762	2732
335.850	5335
335.937	3646
336.024	7675
336.111	42522
336.199	39264
336.286	6452
336.373	2064
336.460	1497
336.547	1593
336.635	2498
336.722	2808
336.809	2196
336.896	2668
336.983	7719
337.070	24993
337.157	44233
337.245	30621
337.332	34669
337.419	3648
337.506	1731
337.593	1992
337.680	4789
337.767	27305
337.854	12480
337.941	7644
338.028	10205
338.115	5921
338.202	2649
338.289	5199
338.376	27527
338.463	17886
338.550	9682
338.637	24158
338.724	4975
338.811	10999
338.898	3125
338.984	1158
339.071	1887
339.158	1665
339.245	6006
339.332	6148
339.419	4614
339.506	7854
339.593	867
339.679	975
339.766	854
339.853	1302
339.940	4858
340.027	2838
340.113	1527
340.200	2525
340.287	1686
340.374	2170
340.460	5375
340.547	2240
340.634	1545
340.720	10236
340.807	14119
340.894	1282
340.980	2050
341.067	755
341.154	1314
341.240	1700
341.327	6915
341.414	3249
341.500	2781
341.587	1732
341.674	1698
341.760	3622
341.847	5941
341.933	1873
342.020	587
342.106	466
342.193	942
342.279	3532
342.366	2016
342.452	5269
342.539	2751
342.625	4062
342.712	15397
342.798	9638
342.885	3530
342.971	1081
343.058	724
343.144	885
343.230	1276
343.317	742
343.403	1415
343.490	150
343.576	1217
343.662	370
343.749	1805
343.835	2260
343.921	2693
344.008	16818
344.094	79937
344.180	31422
344.267	4206
344.353	12896
344.439	29299
344.525	8865
344.612	3964
344.698	1950
344.784	2156
344.870	635
344.957	1302
345.043	2498
345.129	1817
345.215	4289
345.301	2952
345.387	2095
345.474	665
345.560	34
345.646	951
345.732	1682
345.818	1841
345.904	1476
345.990	1501
346.076	1168
346.162	3958
346.249	2360
346.335	539
346.421	762
346.507	3684
346.593	28404
346.679	15327
346.765	1494
346.851	1382
346.937	1453
347.023	804
347.108	848
347.194	1372
347.280	1111
347.366	1348
347.452	3913
347.538	29318
347.624	30976
347.710	25523
347.796	5414
347.882	1295
347.967	906
348.053	1830
348.139	1246
348.225	903
348.311	77
348.397	380
348.482	1202
348.568	1317
348.654	503
348.740	944
348.825	1765
348.911	1936
348.997	8583
349.083	36939
349.168	10472
349.254	1724
349.340	1946
349.425	303
349.511	1301
349.597	1848
349.682	2735
349.768	14799
349.854	16030
349.939	2364
350.025	146
350.110	607
350.196	174
350.282	338
350.367	422
350.453	1148
350.538	3418
350.624	1106
350.709	2209
350.795	155
350.880	1256
350.966	1090
351.051	1781
351.137	2037
351.222	590
351.308	2457
351.393	15582
351.479	7924
351.564	1815
351.649	1052
351.735	225
351.820	427
351.906	828
351.991	611
352.076	5429
352.162	19484
352.247	5186
352.332	714
352.418	2973
352.503	4788
352.588	14980
352.673	26753
352.759	5157
352.844	1745
352.929	705
353.014	2303
353.100	1505
353.185	2128
353.270	4422
353.355	6478
353.441	1429
353.526	1620
353.611	2432
353.696	6218
353.781	2959
353.866	1186
353.952	133
354.037	2554
354.122	9222
354.207	9923
354.292	4932
354.377	1328
354.462	493
354.547	936
354.632	1288
354.717	2219
354.802	4179
354.887	2632
354.972	351
355.057	615
355.142	-702
355.227	577
355.312	2280
355.397	5322
355.482	13961
355.567	13475
355.652	4314
355.737	6792
355.822	14138
355.907	28469
355.991	3023
356.076	1088
356.161	717
356.246	960
356.331	1067
356.416	2134
356.501	22361
356.585	58386
356.670	9700
356.755	2744
356.840	2071
356.924	12020
357.009	78457
357.094	64354
357.179	7032
357.263	4444
357.348	2727
357.433	4301
357.517	2185
357.602	2997
357.687	2152
357.771	2731
357.856	10416
357.941	11680
358.025	8629
358.110	68729
358.195	71816
358.279	7749
358.364	3162
358.448	8159
358.533	34221
358.617	37917
358.702	29056
358.787	17648
358.871	4468
358.956	5761
359.040	1927
359.125	691
359.209	936
359.294	3091
359.378	10776
359.462	5136
359.547	2582
359.631	1960
359.716	510
359.800	648
359.885	2155
359.969	1775
360.053	-189
360.138	1374
360.222	1108
360.306	3207
360.391	3739
360.475	3735
360.559	16296
360.644	13153
360.728	14094
360.812	9557
360.896	56624
360.981	35259
361.065	14580
361.149	3598
361.233	1648
361.318	2004
361.402	2212
361.486	2452
361.570	1247
361.654	1510
361.739	3484
361.823	19623
361.907	70424
361.991	20765
362.075	2896
362.159	9102
362.243	9054
362.327	5275
362.411	9132
362.495	5854
362.580	2646
362.664	2051
362.748	626
362.832	1073
362.916	2298
363.000	8104
363.084	32514
363.168	79726
363.252	30817
363.336	4670
363.420	4466
363.503	15820
363.587	43567
363.671	9150
363.755	2545
363.839	4433
363.923	2424
364.007	2406
364.091	7622
364.175	5085
364.258	32511
364.342	40468
364.426	29066
364.510	26441
364.594	8739
364.677	6163
364.761	32914
364.845	57448
364.929	10132
365.013	9058
365.096	4550
365.180	8682
365.264	5859
365.347	36421
365.431	33860
365.515	5424
365.598	1984
365.682	930
365.766	1631
365.849	5381
365.933	2104
366.017	2427
366.100	1890
366.184	352
366.267	904
366.351	852
366.435	-34
366.518	97
366.602	-810
366.685	105
366.769	662
366.852	2056
366.936	5443
367.019	4222
367.103	1202
367.186	4139
367.270	1209
367.353	1
367.436	210
367.520	862
367.603	720
367.687	1531
367.770	5215
367.853	3758
367.937	5658
368.020	27816
368.104	9162
368.187	2314
368.270	6005
368.353	6481
368.437	4267
368.520	16041
368.603	16270
368.687	9988
368.770	34553
368.853	14258
368.936	3803
369.020	6754
369.103	2688
369.186	1337
369.269	180
369.352	1683
369.436	5580
369.519	3681
369.602	1126
369.685	982
369.768	1230
369.851	1097
369.934	-25
370.018	400
370.101	3654
370.184	4821
370.267	1842
370.350	3152
370.433	6362
370.516	15301
370.599	39913
370.682	14154
370.765	11178
370.848	17973
370.931	35375
371.014	27286
371.097	3519
371.180	1399
371.263	570
371.346	795
371.429	736
371.511	206
371.594	1338
371.677	4669
371.760	4940
371.843	4466
371.926	13822
372.009	70692
372.091	40801
372.174	10310
372.257	31814
372.340	27053
372.423	6924
372.505	11404
372.588	6124
372.671	5516
372.754	29328
372.836	33024
372.919	7209
373.002	25686
373.085	13293
373.167	4178
373.250	9568
373.332	30644
373.415	36884
373.498	92669
373.580	63667
373.663	26554
373.746	75514
373.828	26062
373.911	4928
373.993	4048
374.076	14519
374.159	32344
374.241	9265
374.324	22632
374.406	32012
374.489	14706
374.571	72075
374.654	60374
374.736	12598
374.819	36644
374.901	61594
374.983	93003
375.066	27913
375.148	3001
375.231	9207
375.313	39881
375.395	23268
375.478	4544
375.560	1666
375.643	1803
375.725	5617
375.807	43762
375.890	70712
375.972	27186
376.054	9118
376.136	14427
376.219	11161
376.301	6285
376.383	48716
376.465	40204
376.548	8535
376.630	10479
376.712	34959
376.794	40049
376.877	3398
376.959	327
377.041	363
377.123	1586
377.205	6512
377.287	1527
377.369	-568
377.452	203
377.534	134
377.616	-184
377.698	792
377.780	-279
377.862	459
377.944	141
378.026	504
378.108	377
378.190	-294
378.272	299
378.354	-21
378.436	-757
378.518	270
378.600	6418
378.682	8196
378.764	13864
378.846	24817
378.928	4918
379.010	4632
379.091	3930
379.173	343
379.255	253
379.337	216
379.419	3848
379.501	25618
379.583	23833
379.664	2632
379.746	3211
379.828	12516
379.910	27420
379.991	33068
380.073	9337
380.155	1405
380.237	681
380.318	-316
380.400	253
380.482	1328
380.564	5254
380.645	4958
380.727	6170
380.809	3173
380.890	1433
380.972	1594
381.053	1421
381.135	1289
381.217	3223
381.298	17130
381.380	18287
381.461	5027
381.543	22659
381.624	71684
381.706	22432
381.787	3778
381.869	4429
381.951	7816
382.032	55535
382.113	76422
382.195	15490
382.276	5300
382.358	8048
382.439	31820
382.521	43636
382.602	71792
382.684	49699
382.765	39491
382.846	68556
382.928	84741
383.009	85151
383.090	28324
383.172	69540
383.253	226297
383.334	121541
383.416	59852
383.497	58343
383.578	15958
383.659	19191
383.741	54523
383.822	242659
383.903	259848
383.984	58728
384.066	68830
384.147	73194
384.228	19535
384.309	6726
384.390	6837
384.471	3727
384.553	3250
384.634	3650
384.715	5659
384.796	3898
384.877	2519
384.958	9655
385.039	29649
385.120	13977
385.201	3917
385.282	3498
385.363	3706
385.444	3821
385.525	3703
385.606	19661
385.687	41074
385.768	10819
385.849	4838
385.930	15292
386.011	61604
386.092	33844
386.173	4238
386.254	1502
386.335	1197
386.416	1923
386.496	5525
386.577	21808
386.658	12638
386.739	4246
386.820	3024
386.901	2346
386.981	1921
387.062	865
387.143	2234
387.224	11674
387.304	26344
387.385	8349
387.466	3148
387.547	3930
387.627	3476
387.708	3542
387.789	20326
387.869	55912
387.950	27733
388.031	2354
388.111	672
388.192	2547
388.273	7072
388.353	6515
388.434	1980
388.514	3419
388.595	20399
388.676	54842
388.756	31670
388.837	15921
388.917	18557
388.998	3341
389.078	810
389.159	309
389.239	55
389.320	1930
389.400	1712
389.480	3072
389.561	18229
389.641	20592
389.722	2530
389.802	4536
389.883	5277
389.963	19502
390.043	28017
390.124	7619
390.204	3008
390.284	15961
390.365	22355
390.445	9580
390.525	30368
390.605	49088
390.686	20470
390.766	5227
390.846	1592
390.927	620
391.007	647
391.087	494
391.167	836
391.247	1287
391.328	1768
391.408	4432
391.488	4533
391.568	461
391.648	400
391.728	2604
391.808	2392
391.888	3514
391.969	5579
392.049	21488
392.129	13371
392.209	5012
392.289	20216
392.369	23173
392.449	9163
392.529	9137
392.609	4185
392.689	4538
392.769	14681
392.849	31312
392.929	12099
393.009	26190
393.089	40613
393.169	18634
393.248	34761
393.328	164575
393.408	380683
393.488	161485
393.568	30320
393.648	12202
393.728	7228
393.807	4516
393.887	4506
393.967	3293
394.047	3599
394.127	4600
394.206	6356
394.286	15517
394.366	83595
394.446	212011
394.525	82409
394.605	12703
394.685	5154
394.764	8529
394.844	22010
394.924	26887
395.003	8530
395.083	3836
395.163	3034
395.242	1996
395.322	1998
395.402	1341
395.481	1676
395.561	3748
395.640	22169
395.720	29241
395.799	24104
395.879	37772
395.958	14406
396.038	21188
396.117	113990
396.197	277375
396.276	118655
396.356	27122
396.435	14322
396.515	10678
396.594	8806
396.673	13897
396.753	32954
396.832	175528
396.912	282676
396.991	93358
397.070	18019
397.150	7279
397.229	5249
397.308	3626
397.388	9611
397.467	7291
397.546	2057
397.625	747
397.705	1754
397.784	1960
397.863	867
397.942	69
398.022	266
398.101	1912
398.180	19436
398.259	24603
398.338	4343
398.417	927
398.497	1093
398.576	360
398.655	-2
398.734	-636
398.813	-716
398.892	901
398.971	20794
399.050	27909
399.129	2937
399.208	-140
399.287	-772
399.366	-942
399.445	-638
399.524	-359
399.603	-673
399.682	231
399.761	3153
399.840	18343
399.919	38844
399.998	8207
400.077	-578
400.156	-1175
400.235	355
400.313	-689
400.392	-940
400.471	3231
400.550	16667
400.629	9429
400.708	237
400.786	-477
400.865	1747
400.944	6214
401.023	3906
401.102	-1351
401.180	-833
401.259	-1303
401.338	-1444
401.416	7
401.495	-269
401.574	-74
401.652	-824
401.731	-980
401.810	332
401.888	-171
401.967	-1329
402.046	-511
402.124	-562
402.203	954
402.281	-395
402.360	-435
402.438	3169
402.517	6432
402.596	119
402.674	-543
402.753	-1270
402.831	-1336
402.910	-1384
402.988	539
403.066	17464
403.145	28356
403.223	5075
403.302	13992
403.380	21272
403.459	15187
403.537	10805
403.615	1411
403.694	-1174
403.772	-675
403.850	-1974
403.929	-1443
404.007	-1489
404.085	431
404.164	1424
404.242	699
404.320	-1497
404.398	-122
404.477	2567
404.555	27113
404.633	73148
404.711	21001
404.789	631
404.868	-314
404.946	-731
405.024	-1044
405.102	-1897
405.180	-1552
405.258	-2012
405.336	-859
405.415	-1576
405.493	-210
405.571	1388
405.649	-529
405.727	-2321
405.805	-703
405.883	-680
405.961	-358
406.039	3
406.117	-318
406.195	-767
406.273	2234
406.351	29121
406.429	51046
406.507	8683
406.585	410
406.663	-1363
406.740	143
406.818	332
406.896	-623
406.974	-517
407.052	-728
407.130	8013
407.208	43072
407.285	21196
407.363	183
407.441	-998
407.519	-1221
407.596	-610
407.674	-341
407.752	4257
407.830	10920
407.907	5968
407.985	265
408.063	-968
408.141	-1521
408.218	-768
408.296	-205
408.373	-300
408.451	-912
408.529	-1083
408.606	-1280
408.684	-2067
408.762	-1994
408.839	-2345
408.917	-2249
408.994	-2287
409.072	-1594
409.149	-2209
409.227	-1795
409.304	270
409.382	-297
409.459	-1089
409.537	236
409.614	528
409.692	-674
409.769	-993
409.846	513
409.924	1578
410.001	1313
410.079	-224
410.156	132
410.233	-1003
410.311	-1360
410.388	-1478
410.465	-1755
410.543	-678
410.620	-1214
410.697	-2080
410.775	-517
410.852	-1651
410.929	-956
411.006	57
411.083	-632
411.161	-1015
411.238	2178
411.315	38
411.392	-913
411.469	-1654
411.547	-625
411.624	-1023
411.701	-1420
411.778	-1040
411.855	254
411.932	481
412.009	-1172
412.086	-1821
412.163	-2004
412.240	-1295
412.317	-940
412.394	-160
412.471	-653
412.548	-1850
412.625	-1846
412.702	-1777
412.779	-485
412.856	372
412.933	-1427
413.010	-2569
413.087	-1838
413.164	1137
413.241	13995
413.318	6785
413.395	-164
413.471	284
413.548	205
413.625	-2026
413.702	-972
413.779	-888
413.855	-1977
413.932	-2358
414.009	-2053
414.086	-1323
414.162	-2224
414.239	-1605
414.316	824
414.393	15493
414.469	17319
414.546	335
414.623	-2234
414.699	-1681
414.776	-1896
414.853	-1679
414.929	-2030
415.006	-2450
415.082	-2213
415.159	-1934
415.236	-1988
415.312	-1615
415.389	-1280
415.465	-604
415.542	231
415.618	-1973
415.695	-585
415.771	-819
415.848	-998
415.924	-1439
416.000	-1503
416.077	-2012
416.153	-2586
416.230	-2850
416.306	-2405
416.383	-2441
416.459	-2189
416.535	-2130
416.612	-2375
416.688	-2375
416.764	-2022
416.841	-2619
416.917	-2480
416.993	-1451
417.069	-1262
417.146	-1925
417.222	-604
417.298	-962
417.374	-1765
417.451	-1735
417.527	-2111
417.603	-1323
417.679	-828
417.755	-1973
417.831	-2545
417.908	-2002
417.984	-2873
418.060	-2384
418.136	-1813
418.212	1194
418.288	-6
418.364	-2047
418.440	-1568
418.516	-1565
418.592	-1081
418.668	690
418.744	3281
418.820	3624
418.896	815
418.972	-1993
419.048	-2120
419.124	-716
419.200	571
419.276	-1547
419.352	-2119
419.428	-2513
419.504	-2226
419.579	-1299
419.655	-1666
419.731	-1910
419.807	-423
419.883	3672
419.959	5586
420.034	141
420.110	-1212
420.186	3900
420.262	15556
420.337	2995
420.413	-818
420.489	-694
420.565	-1397
420.640	-2423
420.716	-1682
420.792	-2250
420.867	-1648
420.943	-2894
421.019	-1027
421.094	33
421.170	-905
421.245	-2133
421.321	-1217
421.397	-1831
421.472	-602
421.548	775
421.623	3794
421.699	741
421.774	-508
421.850	-843
421.925	355
422.001	852
422.076	164
422.152	543
422.227	1584
422.302	4042
422.378	3968
422.453	9324
422.529	20189
422.604	60703
422.679	168243
422.755	186820
422.830	88611
422.905	27735
422.981	10958
423.056	5857
423.131	3901
423.207	1303
423.282	1599
423.357	2336
423.432	3449
423.508	1066
423.583	2388
423.658	6261
423.733	1119
423.808	-571
423.883	386
423.959	137
424.034	-877
424.109	-605
424.184	-1199
424.259	-1460
424.334	-1931
424.409	-2696
424.484	-2266
424.559	-1701
424.634	-2010
424.709	-1885
424.784	-200
424.859	-958
424.934	-1644
425.009	1720
425.084	11760
425.159	12260
425.234	956
425.309	-2367
425.384	-1559
425.459	2916
425.534	2607
425.609	-2017
425.683	-1820
425.758	-2048
425.833	-1848
425.908	-1756
425.983	-1228
426.058	8982
426.132	14928
426.207	825
426.282	-1686
426.357	-186
426.431	-1219
426.506	-1505
426.581	-1547
426.655	-2269
426.730	-1982
426.805	-2253
426.879	-1636
426.954	-1496
427.029	-1273
427.103	3195
427.178	26370
427.253	40913
427.327	6416
427.402	-1016
427.476	1915
427.551	5081
427.625	-122
427.700	-845
427.774	-2148
427.849	-1554
427.923	-2118
427.998	-2383
428.072	-1588
428.147	-234
428.221	2391
428.296	20889
428.370	39147
428.444	8349
428.519	131
428.593	1613
428.667	5534
428.742	2708
428.816	5280
428.890	6711
428.965	35539
429.039	30717
429.113	7406
429.188	4826
429.262	-544
429.336	-1675
429.410	2349
429.485	7241
429.559	1983
429.633	3420
429.707	432
429.781	-833
429.855	6990
429.930	38814
430.004	34703
430.078	21045
430.152	32042
430.226	28937
430.300	68069
430.374	34114
430.448	2223
430.522	1180
430.596	14791
430.670	30272
430.744	17159
430.818	67312
430.892	50999
430.966	4344
431.040	-175
431.114	-2088
431.188	-1904
431.262	-1920
431.336	-1585
431.410	-1869
431.484	1528
431.557	7991
431.631	1120
431.705	-1388
431.779	-1718
431.853	12391
431.927	39712
432.000	13445
432.074	-578
432.148	-1374
432.222	-811
432.295	-1720
432.369	-1971
432.443	-1818
432.516	1671
432.590	26740
432.664	42441
432.737	5890
432.811	-1206
432.885	-2056
432.958	-1923
433.032	-2464
433.106	-1956
433.179	-2661
433.253	-2171
433.326	-2537
433.400	-2213
433.473	-2710
433.547	-2430
433.620	-2586
433.694	-2031
433.767	-547
433.841	-1870
433.914	-2265
433.988	-2549
434.061	-3044
434.134	-1815
434.208	-2704
434.281	-2683
434.355	-2762
434.428	-2556
434.501	-2780
434.575	-3103
434.648	-2951
434.721	-1552
434.795	-3211
434.868	-2623
434.941	-3400
435.014	-3352
435.088	-2794
435.161	-1947
435.234	-1466
435.307	797
435.381	-36
435.454	-1682
435.527	-1311
435.600	22
435.673	-1125
435.746	-1814
435.819	-2258
435.892	-1961
435.966	-2380
436.039	-1966
436.112	-788
436.185	-2987
436.258	-2304
436.331	-3016
436.404	-2617
436.477	-2570
436.550	-2483
436.623	-2837
436.696	-2812
436.769	-2713
436.842	-2005
436.915	-2255
436.987	-1640
437.060	-1250
437.133	-2863
437.206	-2238
437.279	-1962
437.352	-2405
437.425	-2497
437.498	-2776
437.570	-1589
437.643	464
437.716	-710
437.789	-2205
437.861	-2405
437.934	2150
438.007	5741
438.080	64
438.152	-2402
438.225	-1246
438.298	2263
438.370	38938
438.443	68837
438.516	17479
438.588	3998
438.661	-1949
438.734	-1773
438.806	-2098
438.879	-631
438.951	-1144
439.024	162
439.096	1228
439.169	-739
439.241	-2305
439.314	-2853
439.386	-2170
439.459	-1208
439.531	570
439.604	1385
439.676	-1301
439.749	-2773
439.821	-2693
439.893	-2800
439.966	-2028
440.038	-2154
440.110	-1424
440.183	-1585
440.255	-1198
440.327	-1837
440.400	-642
440.472	14417
440.544	49145
440.617	18115
440.689	947
440.761	486
440.833	2669
440.905	5454
440.978	1889
441.050	-2164
441.122	-2175
441.194	-2484
441.266	-2581
441.338	-1904
441.411	-1368
441.483	400
441.555	17727
441.627	16804
441.699	1268
441.771	-306
441.843	-372
441.915	-1826
441.987	-2579
442.059	-1792
442.131	-1188
442.203	-1180
442.275	358
442.347	852
442.419	-16
442.491	2310
442.563	27567
442.635	50896
442.706	18273
442.778	11380
442.850	5533
442.922	-978
442.994	-1218
443.066	-696
443.137	213
443.209	199
443.281	-182
443.353	958
443.425	7276
443.496	38049
443.568	109555
443.640	86457
443.711	27822
443.783	2966
443.855	364
443.926	-301
443.998	-1456
444.070	-783
444.141	-445
444.213	-13
444.285	1095
444.356	986
444.428	1451
444.499	-176
444.571	-1068
444.642	-1984
444.714	-1851
444.785	-322
444.857	1682
444.928	1298
445.000	6141
445.071	2414
445.143	4613
445.214	4522
445.285	3281
445.357	8408
445.428	24615
445.500	90116
445.571	150700
445.642	93394
445.714	45480
445.785	19142
445.856	12832
445.928	3576
445.999	2350
446.070	2226
446.141	1680
446.213	1568
446.284	1237
446.355	605
446.426	-212
446.497	-764
446.569	-983
446.640	553
446.711	2727
446.782	324
446.853	-1329
446.924	-656
446.995	-339
447.066	-922
447.138	-318
447.209	504
447.280	-1004
447.351	-1633
447.422	-1950
447.493	-1621
447.564	-602
447.635	137
447.706	504
447.777	-1085
447.847	-2113
447.918	-2372
447.989	-1158
448.060	-466
448.131	546
448.202	3084
448.273	3509
448.344	2390
448.414	-646
448.485	-1756
448.556	-2013
448.627	-2050
448.698	-1438
448.768	-2488
448.839	-1822
448.910	-1644
448.981	1278
449.051	426
449.122	-1193
449.193	-1980
449.263	-2127
449.334	-1790
449.405	-1150
449.475	565
449.546	2873
449.616	1248
449.687	2344
449.758	729
449.828	-1281
449.899	-1703
449.969	-856
450.040	-2068
450.110	-1557
450.181	-705
450.251	-376
450.322	-1900
450.392	-1500
450.463	-1475
450.533	-1618
450.604	-1581
450.674	-1117
450.744	-1923
450.815	-1903
450.885	-1410
450.955	-1364
451.026	-1621
451.096	-1261
451.166	-1917
451.237	-361
451.307	3807
451.377	7671
451.447	1518
451.518	-1603
451.588	-1570
451.658	-1000
451.728	-908
451.799	1224
451.869	11556
451.939	9663
452.009	690
452.079	-1706
452.149	-866
452.219	-1208
452.289	2914
452.360	12846
452.430	7190
452.500	347
452.570	-815
452.640	119
452.710	3208
452.780	11086
452.850	14637
452.920	11520
452.990	8098
453.060	1738
453.129	-420
453.199	1204
453.269	2306
453.339	31559
453.409	60861
453.479	45177
453.549	51805
453.619	73894
453.688	70674
453.758	26924
453.828	1361
453.898	-158
453.968	-1307
454.037	-373
454.087	-746
454.107	-911
454.168	-622
454.177	-598
454.247	-665
454.249	-677
454.316	-1419
454.330	-1362
454.386	-1266
454.411	-1049
454.456	-873
454.492	3149
454.525	6703
454.574	8504
454.595	9359
454.655	2709
454.665	1620
454.734	-63
454.736	-38
454.804	-120
454.817	512
454.873	2560
454.898	5640
454.943	11181
454.979	11257
455.013	11522
455.060	5348
455.082	2609
455.141	804
455.152	410
455.221	1701
455.222	1835
455.291	8356
455.303	8963
455.360	12348
455.384	9947
455.430	5605
455.465	4026
455.499	2377
455.546	3752
455.569	4052
455.627	7631
455.638	8434
455.707	5050
455.708	5025
455.777	-375
455.789	-312
455.846	-249
455.869	-165
455.916	63
455.950	-263
455.985	-626
456.031	-961
456.054	-1172
456.112	-355
456.124	-196
456.193	-377
456.193	-389
456.262	-636
456.274	-538
456.332	-162
456.355	127
456.401	497
456.436	352
456.470	233
456.516	383
456.540	416
456.597	-508
456.609	-664
456.678	-880
456.678	-894
456.747	-888
456.759	-856
456.817	-770
456.840	-821
456.886	-918
456.920	-474
456.955	-96
457.001	-380
457.024	-417
457.082	-272
457.093	-286
457.162	423
457.163	442
457.232	734
457.243	796
457.301	782
457.324	355
457.370	-23
457.405	-268
457.439	-613
457.485	-141
457.508	63
457.566	308
457.577	425
457.646	780
457.647	799
457.715	1771
457.727	2168
457.784	4579
457.808	5663
457.853	6445
457.889	8817
457.922	9670
457.969	9430
457.991	10993
458.050	11150
458.060	11252
458.129	13700
458.130	13917
458.198	13651
458.211	13465
458.267	14688
458.292	11989
458.336	9076
458.372	6563
458.405	5393
458.453	6183
458.474	7645
458.533	13924
458.543	14152
458.611	19089
458.614	19581
458.680	21229
458.694	19059
458.749	17200
458.775	12978
458.818	6715
458.855	4221
458.887	2311
458.936	1120
458.955	719
459.016	1208
459.024	1212
459.093	811
459.097	808
459.162	1064
459.177	1205
459.230	1682
459.257	1909
459.299	1938
459.338	2172
459.368	2519
459.418	2665
459.437	2477
459.499	2060
459.505	2059
459.574	1975
459.579	1937
459.643	1539
459.659	1442
459.711	1155
459.740	1194
459.780	1242
459.820	1722
459.849	1924
459.900	1492
459.917	1513
459.981	2261
459.986	2281
460.054	2227
460.061	2235
460.123	2442
460.141	2475
460.191	2805
460.222	3174
460.260	3480
460.302	4148
460.328	4094
460.382	3880
460.397	3934
460.462	3325
460.465	3356
460.534	3863
460.543	3966
460.602	7925
460.623	9525
460.671	15372
460.703	19863
460.739	15998
460.783	15174
460.808	15674
460.864	10184
460.876	10102
460.944	3583
460.945	3502
461.013	1436
461.024	1447
461.081	1715
461.104	1830
461.150	1947
461.184	2060
461.218	2088
461.264	1785
461.286	1689
461.345	1428
461.355	1387
461.423	1567
461.425	1568
461.491	1892
461.505	1940
461.559	3518
461.585	4336
461.628	7054
461.665	9476
461.696	9894
461.745	12271
461.764	10963
461.825	7306
461.832	7660
461.901	5467
461.905	5255
461.969	2065
461.985	2139
462.037	2365
462.065	2236
462.105	2568
462.145	2801
462.173	3449
462.225	5021
462.241	5523
462.305	7944
462.310	7720
462.378	5514
462.385	5128
462.446	5489
462.465	4837
462.514	3155
462.545	2664
462.582	2260
462.625	2520
462.650	2630
462.705	2508
462.718	2497
462.785	2296
462.786	2310
462.854	3400
462.865	3551
462.922	4106
462.945	4516
462.990	3676
463.025	3052
463.058	3458
463.104	2998
463.126	2712
463.184	2184
463.194	2087
463.262	1987
463.264	1992
463.330	2820
463.344	2932
463.398	3224
463.424	3204
463.466	2882
463.504	2757
463.533	2685
463.583	2652
463.601	2816
463.663	3374
463.669	3453
463.737	4239
463.743	4309
463.805	6339
463.823	6986
463.873	10775
463.903	13026
463.940	12774
463.982	13088
464.008	10940
464.062	7028
464.076	7281
464.142	4937
464.144	4874
464.211	2640
464.221	2527
464.279	2831
464.301	3083
464.347	3320
464.381	3306
464.414	3835
464.461	4806
464.482	4895
464.540	5026
464.550	4967
464.617	4674
464.620	4651
464.685	5227
464.699	5284
464.753	5363
464.779	5534
464.820	6412
464.859	7242
464.888	6805
464.938	5848
464.956	6094
465.018	7107
465.023	7089
465.091	6605
465.098	6561
465.158	5879
465.177	5571
465.226	5177
465.257	5044
465.293	5210
465.336	5348
465.361	5862
465.416	6996
465.428	7234
465.495	8416
465.496	8467
465.563	14534
465.575	15523
465.631	18090
465.654	19456
465.698	12642
465.734	6903
465.765	7133
465.813	6489
465.833	6160
465.893	5168
465.900	5063
465.968	4940
465.972	4910
466.035	5689
466.052	5907
466.102	5754
466.131	5701
466.170	5389
466.210	4966
466.237	5094
466.290	5346
466.304	5663
466.369	7084
466.372	7084
466.439	6712
466.449	6661
466.506	7539
466.528	7834
466.573	10059
466.607	11695
466.641	15851
466.687	21634
466.708	23390
466.766	28181
466.775	26293
466.842	12242
466.845	11564
466.909	9647
466.925	9078
466.977	8513
467.004	8393
467.044	8289
467.083	8232
467.111	8964
467.163	10324
467.178	10672
467.242	12063
467.245	11965
467.312	9597
467.321	9272
467.379	8961
467.400	8828
467.446	9581
467.480	10107
467.559	8687
467.638	7470
467.717	8509
467.796	8291
467.875	8927
467.955	8894
468.034	12485
468.113	23991
468.192	33069
468.271	9395
468.350	7788
468.429	9630
468.508	10098
468.588	7445
468.667	7391
468.746	7963
468.825	7925
468.904	6708
468.983	7223
469.062	9957
469.141	11907
469.220	6942
469.299	6412
469.378	6972
469.456	9007
469.535	8539
469.614	6832
469.693	8038
469.772	9219
469.851	13069
469.930	8366
470.009	7349
470.088	7740
470.166	9428
470.245	13122
470.324	15138
470.403	10092
470.482	7328
470.560	7285
470.639	8024
470.718	8255
470.797	6897
470.875	7438
470.954	9864
471.033	10442
471.111	5918
471.190	6546
471.269	5326
471.347	5689
471.426	6078
471.505	6995
471.583	8046
471.662	7349
471.740	6039
471.819	6302
471.898	6035
471.976	6084
472.055	6415
472.133	6787
472.212	8977
472.290	9418
472.369	6973
472.447	5328
472.526	5161
472.604	5513
472.683	6212
472.761	6362
472.839	6449
472.918	6415
472.996	6105
473.075	6870
473.153	6173
473.231	5900
473.310	7512
473.388	6364
473.466	6979
473.545	6699
473.623	9169
473.701	8240
473.780	6708
473.858	5731
473.936	6682
474.014	5568
474.093	6693
474.171	8434
474.249	11382
474.327	7267
474.405	5963
474.484	5490
474.562	5471
474.640	5926
474.718	6016
474.796	6260
474.874	6011
474.952	5116
475.030	4401
475.108	6116
475.187	6822
475.265	7000
475.343	9486
475.421	10306
475.499	5034
475.577	5231
475.655	7931
475.733	12367
475.811	20785
475.889	19087
475.966	11317
476.044	5869
476.122	7248
476.200	8235
476.278	7665
476.356	5330
476.434	5591
476.512	6450
476.590	9130
476.667	7061
476.745	5416
476.823	5288
476.901	5635
476.979	6106
477.056	5645
477.134	5423
477.212	6339
477.290	5432
477.367	5176
477.445	3816
477.523	4781
477.601	4823
477.678	5045
477.756	5871
477.834	6266
477.911	4307
477.989	5243
478.066	4659
478.144	6009
478.222	5882
478.299	10487
478.377	8343
478.454	4831
478.532	4595
478.609	5055
478.687	5519
478.764	4542
478.842	4597
478.919	5492
478.997	4530
479.074	3930
479.152	5392
479.229	7132
479.307	4182
479.384	3600
479.461	4103
479.539	4678
479.616	4245
479.694	4079
479.771	5164
479.848	4637
479.926	6610
480.003	7095
480.080	4619
480.157	3854
480.235	3819
480.312	4597
480.389	4863
480.467	7752
480.544	8843
480.621	5822
480.698	5055
480.775	6160
480.853	5237
480.930	4311
481.007	4229
481.084	5889
481.161	5774
481.238	5487
481.315	3882
481.392	4447
481.470	4831
481.547	4581
481.624	3902
481.701	4442
481.778	5255
481.855	4989
481.932	7005
482.009	11729
482.086	7180
482.163	5126
482.240	7031
482.317	12254
482.393	8346
482.470	4862
482.547	3864
482.624	4275
482.701	4720
482.778	4337
482.855	3438
482.932	4031
483.009	3456
483.085	5018
483.162	5893
483.239	5292
483.316	4686
483.393	4494
483.469	4201
483.546	5010
483.623	4930
483.699	3893
483.776	4414
483.853	5270
483.930	6911
484.006	17401
484.083	30345
484.160	17774
484.236	28159
484.313	21496
484.389	15301
484.466	13380
484.543	13090
484.619	14102
484.696	14624
484.772	13841
484.849	14809
484.925	12533
485.002	11815
485.078	13730
485.155	13204
485.231	11829
485.308	11497
485.384	12289
485.461	14105
485.537	20145
485.614	22757
485.690	12580
485.766	11176
485.843	12424
485.919	15723
485.995	15540
486.072	10278
486.148	10808
486.224	10421
486.301	10578
486.377	12189
486.453	13214
486.530	12206
486.606	15900
486.682	17243
486.758	19308
486.835	21256
486.911	17257
486.987	26690
487.063	27082
487.139	32645
487.215	23679
487.292	13053
487.368	11832
487.444	12966
487.520	17102
487.596	15882
487.672	24383
487.748	60225
487.824	90056
487.900	26154
487.976	13913
488.052	13056
488.128	15768
488.204	13415
488.280	10484
488.356	12366
488.432	21787
488.508	32687
488.584	12713
488.660	9733
488.736	9847
488.812	10545
488.888	13092
488.964	15812
489.039	31216
489.115	45508
489.191	26124
489.267	10111
489.343	10176
489.418	7498
489.494	8817
489.570	8474
489.646	9257
489.722	8651
489.797	9625
489.873	12149
489.949	24051
490.024	19697
490.100	8093
490.176	8988
490.251	10100
490.327	12717
490.403	8207
490.478	8579
490.554	6984
490.629	7126
490.705	6352
490.781	8445
490.856	7591
490.932	8570
491.007	9035
491.083	8155
491.158	7793
491.234	10501
491.309	17910
491.385	18885
491.460	7938
491.536	7897
491.611	6911
491.686	7577
491.762	10577
491.837	18698
491.913	32054
491.988	41215
492.063	53952
492.139	14494
492.214	10296
492.289	6462
492.365	6708
492.440	8262
492.515	7802
492.590	7747
492.666	6195
492.741	7931
492.816	11450
492.891	6101
492.967	7006
493.042	5033
493.117	5204
493.192	5188
493.267	6409
493.342	8172
493.418	7813
493.493	5738
493.568	4996
493.643	5039
493.718	7671
493.793	10345
493.868	11758
493.943	6573
494.018	5901
494.093	5695
494.168	6143
494.243	5852
494.318	4910
494.393	4616
494.468	5386
494.543	5117
494.618	6298
494.693	5492
494.768	5562
494.842	5331
494.917	5495
494.992	5543
495.067	4822
495.142	4112
495.217	5303
495.292	4995
495.366	5654
495.441	6758
495.516	9192
495.591	13131
495.665	37881
495.740	93464
495.815	34083
495.890	8102
495.964	6688
496.039	7524
496.114	6055
496.188	7778
496.263	6757
496.338	6881
496.412	7504
496.487	8940
496.561	8524
496.636	9210
496.710	7360
496.785	7344
496.860	9215
496.934	6960
497.009	7485
497.083	7806
497.158	8842
497.232	9706
497.307	10852
497.381	9707
497.455	10773
497.530	13352
497.604	10465
497.679	10106
497.753	17536
497.827	21551
497.902	21188
497.976	23929
498.050	49039
498.125	165584
498.199	164720
498.273	35585
498.348	27623
498.422	21167
498.496	18288
498.570	15553
498.645	12212
498.719	10722
498.793	11539
498.867	18026
498.941	25169
499.016	62556
499.090	179748
499.164	53725
499.238	8983
499.312	8814
499.386	10211
499.460	8513
499.534	7751
499.609	9820
499.683	13857
499.757	13175
499.831	29182
499.905	114221
499.979	102500
500.053	15680
500.127	14872
500.201	11837
500.275	7382
500.349	7665
500.422	8463
500.496	12885
500.570	27162
500.644	59594
500.718	120357
500.792	22377
500.866	7502
500.940	8959
501.013	7557
501.087	7231
501.161	12928
501.235	17580
501.309	35463
501.382	99371
501.456	85099
501.530	17783
501.603	32390
501.677	11737
501.751	6066
501.825	6734
501.898	13759
501.972	39360
502.046	23477
502.119	7490
502.193	16930
502.266	43806
502.340	19837
502.413	18056
502.487	36113
502.561	19711
502.634	6593
502.708	5838
502.781	5420
502.855	4498
502.928	3803
503.002	3700
503.075	3004
503.149	3861
503.222	4872
503.295	3995
503.369	5788
503.442	8821
503.516	26781
503.589	70765
503.662	44076
503.736	12850
503.809	32543
503.882	26654
503.956	40548
504.029	39433
504.102	34116
504.175	46313
504.249	14562
504.322	7928
504.395	6434
504.468	4890
504.542	5080
504.615	3787
504.688	3435
504.761	3749
504.834	4741
504.907	5752
504.980	10448
505.053	5208
505.127	6397
505.200	6746
505.273	6994
505.346	4570
505.419	3559
505.492	2681
505.565	3435
505.638	2279
505.711	3229
505.784	3602
505.857	2756
505.930	3073
506.003	2544
506.076	3905
506.149	4801
506.221	5404
506.294	6012
506.367	14838
506.440	53533
506.513	26974
506.586	6260
506.659	3024
506.731	3474
506.804	4473
506.877	6815
506.950	3888
507.022	3436
507.095	5054
507.168	5932
507.241	3759
507.313	2429
507.386	4110
507.459	5090
507.531	3321
507.604	2941
507.677	3160
507.749	3269
507.822	3781
507.894	9178
507.967	11990
508.040	7310
508.112	6113
508.185	6637
508.257	5250
508.330	6929
508.402	4904
508.475	4794
508.547	5121
508.620	5722
508.692	8526
508.765	5621
508.837	4324
508.909	3808
508.982	4719
509.054	5756
509.127	4031
509.199	4726
509.271	3753
509.344	3691
509.416	4151
509.488	3531
509.560	3906
509.633	4406
509.705	5192
509.777	4438
509.849	6545
509.922	4581
509.994	4290
510.066	3853
510.138	5005
510.210	9431
510.283	9133
510.355	7413
510.427	5927
510.499	5813
510.571	5711
510.643	6723
510.715	8458
510.787	8224
510.859	5572
510.931	6855
511.003	8546
511.076	7597
511.148	5340
511.219	5190
511.291	7124
511.363	8619
511.435	4498
511.507	5000
511.579	4237
511.651	4475
511.723	4435
511.795	4690
511.867	5245
511.939	5321
512.010	9843
512.082	8079
512.154	5013
512.226	5531
512.298	7350
512.369	11756
512.441	9244
512.513	8192
512.585	6417
512.656	6568
512.728	7278
512.800	6077
512.871	5176
512.943	6188
513.015	5205
513.086	5537
513.158	6143
513.230	6424
513.301	8162
513.373	9006
513.444	5551
513.516	5267
513.588	4732
513.659	5885
513.731	7065
513.802	7319
513.874	10734
513.945	19122
514.016	7382
514.088	5617
514.159	6704
514.231	8021
514.302	11077
514.374	7811
514.445	7243
514.516	12445
514.588	9289
514.659	7270
514.730	12336
514.802	9102
514.873	8538
514.944	8944
515.016	7760
515.087	7858
515.158	8913
515.229	13159
515.301	9531
515.372	11416
515.443	8476
515.514	6500
515.585	5070
515.656	6270
515.728	5625
515.799	5288
515.870	5487
515.941	5642
516.012	5473
516.083	7881
516.154	8755
516.225	9804
516.296	8360
516.367	7508
516.438	9379
516.509	12857
516.580	21839
516.651	62571
516.722	210816
516.793	90248
516.864	15256
516.935	14030
517.006	16286
517.077	28322
517.148	70247
517.219	232019
517.289	380092
517.360	87203
517.431	27276
517.502	10282
517.573	9358
517.643	9827
517.714	9734
517.785	9100
517.856	9666
517.926	9988
517.997	11126
518.068	15552
518.138	25302
518.209	49697
518.280	160870
518.350	550716
518.421	214162
518.492	22231
518.562	12939
518.633	13227
518.703	13912
518.774	22500
518.845	52369
518.915	50705
518.986	16562
519.056	12419
519.127	19168
519.197	28608
519.268	58275
519.338	39801
519.408	10196
519.479	11647
519.549	9811
519.620	6729
519.690	5911
519.760	5720
519.831	6117
519.901	5613
519.971	5034
520.042	5474
520.112	6666
520.182	7126
520.253	7930
520.323	6098
520.393	9027
520.463	16312
520.534	10457
520.604	21283
520.674	8380
520.744	9559
520.814	23227
520.885	21418
520.955	19745
521.025	65195
521.095	27833
521.165	5482
521.235	4953
521.305	4754
521.375	5423
521.445	5717
521.515	7455
521.585	7994
521.655	7326
521.725	5529
521.795	6351
521.865	4491
521.935	6798
522.005	6815
522.075	4304
522.145	4489
522.215	5015
522.285	7355
522.355	8957
522.424	16513
522.494	15305
522.564	8829
522.634	15336
522.704	42374
522.774	18293
522.843	5568
522.913	4750
522.983	6121
523.053	5054
523.122	5746
523.192	7308
523.262	20959
523.331	22174
523.401	5790
523.471	4110
523.540	5013
523.610	3236
523.680	4406
523.749	3835
523.819	5428
523.888	5635
523.958	4421
524.027	4011
524.097	4579
524.166	3630
524.236	4386
524.305	4193
524.375	3289
524.444	3387
524.514	3877
524.583	4261
524.653	5033
524.722	5768
524.791	4332
524.861	4339
524.930	3353
524.999	3886
525.069	5586
525.138	4445
525.207	5699
525.277	4201
525.346	3807
525.415	3810
525.484	3941
525.554	3836
525.623	5449
525.692	4176
525.761	4734
525.830	4713
525.900	5994
525.969	9068
526.038	18385
526.107	34953
526.176	97311
526.245	82968
526.314	26056
526.383	50969
526.452	77228
526.522	110113
526.591	118228
526.660	27127
526.729	14980
526.797	19312
526.867	43117
526.935	148162
527.004	264245
527.073	152548
527.142	12726
527.211	6194
527.280	6423
527.349	5487
527.418	4133
527.487	3737
527.555	3227
527.624	2726
527.693	3982
527.762	2990
527.831	2920
527.899	2413
527.968	3501
528.037	3014
528.106	4538
528.174	7680
528.243	6918
528.312	7359
528.380	10841
528.449	4249
528.518	3248
528.586	3336
528.655	2573
528.723	2866
528.792	2130
528.861	3568
528.929	2056
528.998	2583
529.066	2945
529.135	3040
529.203	2496
529.272	2490
529.340	3137
529.409	2530
529.477	2660
529.545	3835
529.614	4308
529.682	4676
529.751	5397
529.819	5678
529.887	4594
529.956	3202
530.024	3618
530.092	3084
530.161	3607
530.229	5511
530.297	4273
530.365	3294
530.434	2835
530.502	2474
530.570	3164
530.638	1649
530.707	2846
530.775	3878
530.843	2426
530.911	2641
530.979	3619
531.047	2251
531.115	3603
531.183	2113
531.252	3051
531.320	2927
531.388	2699
531.456	3020
531.524	2983
531.592	3125
531.660	3442
531.728	3414
531.796	2948
531.864	3016
531.932	2423
532.000	2818
532.067	3675
532.135	3347
532.203	3775
532.271	4653
532.339	7088
532.407	16142
532.475	10962
532.542	5642
532.610	6539
532.678	10271
532.746	31929
532.814	85115
532.881	23603
532.949	4316
533.017	4369
533.084	3559
533.152	3125
533.220	3672
533.287	3860
533.355	3429
533.423	3444
533.490	2949
533.558	2426
533.625	3423
533.693	5040
533.761	3137
533.828	3288
533.896	3520
533.963	7438
534.031	8811
534.098	11160
534.166	6774
534.233	4132
534.300	3103
534.368	4401
534.435	3298
534.503	3855
534.570	4505
534.637	4286
534.705	5234
534.772	7530
534.840	13483
534.907	41131
534.974	60510
535.041	8166
535.109	5114
535.176	3262
535.243	3712
535.310	3762
535.378	4383
535.445	3456
535.512	3758
535.579	3911
535.646	2901
535.714	3710
535.781	4770
535.848	4866
535.915	4595
535.982	3983
536.049	3633
536.116	5011
536.183	3842
536.250	3842
536.317	3526
536.384	4732
536.451	6105
536.518	6950
536.585	4880
536.652	6051
536.719	7595
536.786	7489
536.853	5618
536.920	7297
536.987	13049
537.053	14209
537.120	38356
537.187	40093
537.254	5470
537.321	4196
537.388	4518
537.454	4358
537.521	3132
537.588	3425
537.654	4926
537.721	5436
537.788	4676
537.855	4185
537.921	4080
537.988	4791
538.055	4189
538.121	4101
538.188	4884
538.254	6188
538.321	11134
538.388	8367
538.454	4411
538.521	4552
538.587	4006
538.654	4067
538.720	4090
538.787	4107
538.853	4496
538.920	5091
538.986	4789
539.053	5034
539.119	4389
539.185	4607
539.252	5068
539.318	7790
539.385	6915
539.451	6138
539.517	5843
539.583	7230
539.650	11932
539.716	32394
539.782	11566
539.849	4900
539.915	4742
539.981	5033
540.047	5516
540.114	5101
540.180	4545
540.246	5772
540.312	6522
540.378	11052
540.444	14569
540.510	13675
540.576	34531
540.643	14743
540.709	3801
540.775	5080
540.841	4667
540.907	6453
540.973	9680
541.039	8318
541.105	8053
541.171	5484
541.237	4411
541.303	5601
541.369	5733
541.435	7436
541.500	9693
541.566	8712
541.632	4577
541.698	4087
541.764	4662
541.830	4698
541.896	4578
541.961	4534
542.027	4752
542.093	4685
542.159	5023
542.224	5626
542.290	7069
542.356	9723
542.421	12979
542.487	5688
542.553	5383
542.618	5173
542.684	4984
542.750	5059
542.815	7082
542.881	10384
542.947	27541
543.012	26384
543.078	5386
543.143	4907
543.209	4855
543.274	5840
543.340	6652
543.405	11977
543.471	20733
543.536	6726
543.602	3886
543.667	4527
543.732	4977
543.798	4833
543.863	4798
543.928	4540
543.994	4735
544.059	4105
544.124	4601
544.190	4135
544.255	4414
544.320	5101
544.386	5039
544.451	6689
544.516	7459
544.581	8947
544.646	17870
544.712	31881
544.777	9370
544.842	5557
544.907	6626
544.972	5451
545.037	4724
545.102	7151
545.168	6208
545.233	6314
545.298	7474
545.363	7714
545.428	8705
545.493	11936
545.558	25644
545.623	13607
545.688	6556
545.753	6075
545.818	6437
545.883	6366
545.947	6401
546.012	6803
546.077	7108
546.142	7579
546.207	6762
546.272	8180
546.337	9720
546.401	8260
546.466	7914
546.531	6902
546.596	8326
546.661	7551
546.725	8334
546.790	7589
546.855	8366
546.919	9005
546.984	9673
547.049	10319
547.113	11583
547.178	12252
547.243	13909
547.307	16081
547.372	17063
547.436	17553
547.501	16263
547.565	17755
547.630	17658
547.695	17343
547.759	17652
547.823	16917
547.888	16827
547.952	17227
548.017	17423
548.081	18808
548.146	21109
548.210	20830
548.274	19214
548.339	18882
548.403	18519
548.468	15854
548.532	16089
548.596	16790
548.660	16805
548.725	18663
548.789	20108
548.853	21007
548.917	18753
548.982	19433
549.046	18898
549.110	15491
549.174	14676
549.238	18056
549.303	17511
549.367	19506
549.431	17445
549.495	16992
549.559	17287
549.623	20158
549.687	23517
549.751	25000
549.815	25652
549.879	27079
549.943	24234
550.007	25860
550.071	26324
550.135	24995
550.199	22307
550.263	22615
550.327	20627
550.391	23986
550.455	22738
550.519	25349
550.582	26184
550.646	29929
550.710	32157
550.774	28779
550.838	28086
550.901	29786
550.965	32392
551.029	32276
551.093	36176
551.156	40250
551.220	47309
551.284	58853
551.347	42619
551.411	41847
551.475	46252
551.538	32510
551.602	29762
551.666	28420
551.729	26477
551.793	25456
551.856	24622
551.920	25125
551.983	25763
552.047	24514
552.110	24955
552.174	25198
552.237	25546
552.301	23666
552.364	21890
552.428	22959
552.491	22715
552.554	24889
552.618	24738
552.681	26210
552.745	27596
552.808	30835
552.871	38114
552.934	30194
552.998	24590
553.061	24039
553.124	23088
553.187	22785
553.251	22859
553.314	23389
553.377	23900
553.440	25591
553.503	26135
553.567	27882
553.630	25519
553.693	24014
553.756	24715
553.819	24540
553.882	23530
553.945	24020
554.008	23550
554.071	23988
554.134	23590
554.197	23286
554.260	23209
554.323	23407
554.386	23932
554.449	24020
554.512	24585
554.575	24300
554.638	22925
554.701	23260
554.764	23606
554.827	22453
554.889	22153
554.952	21039
555.015	20221
555.078	19914
555.141	19942
555.203	19614
555.266	19179
555.329	20606
555.391	19831
555.454	18815
555.517	18911
555.580	18207
555.642	17144
555.705	16686
555.768	16925
555.830	16926
555.893	15239
555.955	16107
556.018	15374
556.080	15640
556.143	15945
556.206	15613
556.268	15156
556.330	16528
556.393	15619
556.455	14888
556.518	16266
556.580	16660
556.643	14036
556.705	13093
556.767	13032
556.830	13973
556.892	13692
556.955	15943
557.017	14568
557.079	12542
557.142	12175
557.204	13209
557.266	16702
557.328	17563
557.391	12041
557.453	10426
557.515	11097
557.577	11736
557.639	11925
557.701	10862
557.764	10621
557.826	10821
557.888	10903
557.950	11436
558.012	13581
558.074	19326
558.136	28691
558.198	68416
558.260	35264
558.322	11944
558.384	10728
558.446	13123
558.508	14183
558.570	18968
558.632	26479
558.694	47753
558.756	66237
558.818	120963
558.880	318861
558.942	141082
559.003	68784
559.065	46022
559.127	15438
559.189	16523
559.251	24340
559.312	39630
559.374	66947
559.436	185256
559.498	133886
559.559	19376
559.621	18467
559.683	26178
559.744	41005
559.806	82444
559.868	159254
559.929	41247
559.991	20855
560.052	29499
560.114	64618
560.176	60701
560.237	36527
560.299	68608
560.360	22962
560.422	8948
560.483	8655
560.545	7626
560.606	7795
560.667	7295
560.729	7737
560.790	7505
560.852	7539
560.913	7266
560.974	6948
561.036	7055
561.097	6908
561.158	6582
561.220	7137
561.281	7071
561.342	7562
561.403	9544
561.465	10196
561.526	16209
561.587	24729
561.648	10405
561.709	7150
561.771	6894
561.832	6728
561.893	7067
561.954	7216
562.015	5879
562.076	6378
562.137	6747
562.198	6877
562.259	6378
562.320	6776
562.381	7885
562.442	8081
562.503	9235
562.564	6697
562.625	6530
562.686	6205
562.747	6016
562.808	6742
562.869	6924
562.930	7988
562.991	7580
563.051	7416
563.112	7314
563.173	6468
563.234	6248
563.294	6653
563.355	6826
563.416	6492
563.477	6058
563.537	6615
563.598	7349
563.659	5890
563.720	7379
563.780	6330
563.841	6930
563.901	6153
563.962	6322
564.023	6483
564.083	6614
564.144	7015
564.204	7002
564.265	7063
564.325	8069
564.386	11179
564.446	12151
564.507	6777
564.567	5817
564.628	5990
564.688	6429
564.749	7055
564.809	8020
564.869	8952
564.930	6940
564.990	6367
565.050	6117
565.111	6628
565.171	6903
565.231	6317
565.292	6729
565.352	6318
565.412	6558
565.472	6552
565.532	6922
565.593	7218
565.653	6707
565.713	7298
565.773	8503
565.833	7033
565.893	9591
565.953	7946
566.013	7475
566.074	8365
566.134	9131
566.194	11200
566.254	13426
566.314	10478
566.374	9006
566.434	7705
566.494	8753
566.554	8941
566.614	9118
566.673	8708
566.733	10248
566.793	9676
566.853	10531
566.913	10061
566.973	10822
567.033	10701
567.092	10954
567.152	10461
567.212	11904
567.272	11492
567.331	11843
567.391	11539
567.451	13258
567.511	14158
567.570	15438
567.630	11654
567.690	10859
567.749	10058
567.809	12152
567.868	13264
567.928	14826
567.988	17302
568.047	21338
568.107	27933
568.166	38070
568.226	55206
568.285	79047
568.345	69747
568.404	52048
568.464	44742
568.523	42106
568.582	44343
568.642	50899
568.701	65458
568.761	87313
568.820	131866
568.879	137938
568.939	98531
568.998	71930
569.057	53889
569.116	42503
569.176	35414
569.235	28433
569.294	25489
569.353	22251
569.413	19044
569.472	18033
569.531	16311
569.590	14735
569.649	13878
569.708	13031
569.767	12938
569.827	13140
569.886	12228
569.945	10542
570.004	10839
570.063	9759
570.122	9974
570.181	11341
570.240	9487
570.299	9973
570.358	11184
570.417	9555
570.475	8423
570.534	9041
570.593	7959
570.652	8744
570.711	8842
570.770	7755
570.829	8937
570.887	9678
570.946	9050
571.005	8365
571.064	8446
571.122	9383
571.181	9006
571.240	7951
571.299	8688
571.357	8230
571.416	8307
571.475	8067
571.533	9519
571.592	7434
571.650	7948
571.709	6835
571.768	7245
571.826	8100
571.885	6481
571.943	7408
572.002	6540
572.060	6793
572.119	5414
572.177	6675
572.236	5744
572.294	5985
572.352	6433
572.411	7106
572.469	6668
572.528	6656
572.586	7070
572.644	7359
572.703	9347
572.761	8370
572.819	5842
572.877	6056
572.936	6220
572.994	6443
573.052	5466
573.110	6603
573.169	7161
573.227	5662
573.285	6385
573.343	5963
573.401	5799
573.459	6086
573.517	4946
573.576	6322
573.634	6187
573.692	6349
573.750	6062
573.808	7090
573.866	6853
573.924	7426
573.982	8060
574.040	6181
574.098	5454
574.155	6172
574.213	5233
574.271	5404
574.329	6865
574.387	6182
574.445	5057
574.503	5391
574.560	5379
574.618	5591
574.676	5416
574.734	5862
574.792	6350
574.849	5572
574.907	5226
574.965	4672
575.022	4619
575.080	5832
575.138	5209
575.195	5323
575.253	5003
575.311	6031
575.368	5879
575.426	5851
575.483	5459
575.541	5979
575.598	5490
575.656	5648
575.713	5930
575.771	5207
575.828	6276
575.886	6199
575.943	5944
576.001	5628
576.058	5852
576.115	6547
576.173	6489
576.230	7475
576.287	7854
576.345	7483
576.402	6694
576.459	5937
576.517	6116
576.574	6253
576.631	7249
576.688	6195
576.746	6337
576.803	5533
576.860	5678
576.917	5916
576.974	5610
577.031	6540
577.089	6141
577.146	5856
577.203	6368
577.260	6249
577.317	6220
577.374	7578
577.431	7620
577.488	6272
577.545	6016
577.602	6257
577.659	5870
577.716	5212
577.773	5682
577.830	5924
577.886	5485
577.943	5100
578.000	5629
578.057	5373
578.114	6034
578.171	5720
578.227	6524
578.284	5513
578.341	6466
578.398	6419
578.454	6441
578.511	6529
578.568	7425
578.625	7401
578.681	6456
578.738	5215
578.794	5721
578.851	6368
578.908	6349
578.964	7931
579.021	7018
579.077	6461
579.134	5880
579.190	6243
579.247	6462
579.303	7041
579.360	5671
579.416	6024
579.473	4604
579.529	5844
579.586	6695
579.642	6238
579.698	6253
579.755	6714
579.811	6509
579.867	6655
579.924	5192
579.980	5541
580.036	6291
580.093	7237
580.149	6481
580.205	6915
580.261	6537
580.317	6989
580.374	7130
580.430	7618
580.486	7794
580.542	6588
580.598	8121
580.619	7966
580.654	7706
580.692	6257
580.710	5547
580.765	7407
580.767	7472
580.823	7369
580.838	7289
580.879	7102
580.911	7031
580.935	6991
580.984	7068
580.991	7083
581.047	6537
581.057	6654
581.103	7212
581.130	7310
581.159	7418
581.203	7169
581.215	7116
581.270	7070
581.276	7131
581.326	7725
581.349	7648
581.382	7557
581.422	7109
581.438	6923
581.494	7255
581.494	7261
581.550	8257
581.567	7997
581.606	7468
581.640	7362
581.661	7281
581.713	8059
581.717	8130
581.773	7268
581.786	7524
581.829	8338
581.859	7849
581.885	7444
581.932	8437
581.940	8621
581.996	8573
582.004	8518
582.052	8247
582.077	7959
582.107	7645
582.150	8551
582.163	8826
582.219	8455
582.223	8437
582.274	8264
582.296	8147
582.330	7947
582.368	8682
582.386	9009
582.441	8338
582.441	8339
582.497	7982
582.514	7961
582.552	7986
582.587	8240
582.608	8386
582.659	8941
582.663	8986
582.719	8279
582.732	8334
582.774	8589
582.805	8696
582.830	8765
582.877	9071
582.885	9112
582.941	8469
582.950	8476
582.996	8597
583.023	8754
583.052	8927
583.095	8882
583.107	8862
583.162	9434
583.168	9407
583.218	9187
583.240	9235
583.273	9294
583.313	9393
583.328	9401
583.384	9712
583.385	9681
583.439	8945
583.458	8925
583.494	8715
583.531	8570
583.549	8573
583.603	9207
583.605	9227
583.660	9583
583.676	9474
583.715	9143
583.748	9596
583.770	9891
583.820	9794
583.825	9811
583.881	10192
583.893	10124
583.936	9495
583.965	9510
583.991	9681
584.038	9985
584.046	10016
584.101	9945
584.110	10055
584.156	10592
584.183	10482
584.211	10373
584.255	9900
584.266	9825
584.321	10489
584.328	10539
584.376	10593
584.400	10713
584.431	10895
584.472	10930
584.486	10965
584.541	10587
584.545	10589
584.596	10654
584.617	10880
584.651	11316
584.689	11425
584.706	11405
584.761	11715
584.762	11719
584.816	12206
584.834	12458
584.871	12903
584.906	12648
584.926	12434
584.978	12903
584.980	12915
585.035	12912
585.051	13017
585.090	13541
585.123	13649
585.145	13674
585.195	14223
585.200	14301
585.254	15066
585.267	15433
585.309	16249
585.340	16946
585.364	17699
585.412	19725
585.419	20029
585.473	23876
585.484	25358
585.528	31295
585.556	35267
585.583	39973
585.628	47498
585.637	50679
585.692	81815
585.700	91010
585.747	160010
585.772	166092
585.801	143444
585.845	87792
585.856	71167
585.910	29442
585.917	25396
585.965	21980
585.989	20142
586.019	19157
586.061	19399
586.074	19380
586.128	18245
586.133	18215
586.183	18761
586.205	19326
586.237	20055
586.277	20389
586.292	20426
586.346	20255
586.349	20297
586.401	20950
586.421	21136
586.455	21480
586.493	22400
586.509	23007
586.564	24273
586.565	24377
586.618	30456
586.637	32267
586.672	35427
586.709	33943
586.727	30692
586.781	26151
586.781	26141
586.835	25201
586.853	25078
586.889	24633
586.925	24588
586.944	24655
586.996	25127
586.998	25148
587.052	26379
587.068	26668
587.106	26758
587.140	27486
587.161	28240
587.212	29480
587.215	29497
587.269	30456
587.284	30749
587.323	31701
587.356	32634
587.377	33021
587.427	34341
587.431	34436
587.485	35979
587.499	36441
587.539	37670
587.571	38872
587.593	39794
587.643	41362
587.648	41469
587.702	44497
587.715	45072
587.755	46922
587.786	48632
587.810	50198
587.858	54112
587.864	54423
587.917	57731
587.930	58749
587.971	63020
588.001	66664
588.025	69717
588.073	75395
588.079	76015
588.133	83467
588.145	85431
588.187	93331
588.217	99545
588.241	104898
588.288	117083
588.295	118837
588.348	136056
588.360	140403
588.402	158084
588.431	172401
588.456	185256
588.503	213128
588.510	217259
588.564	258973
588.575	269048
588.617	312454
588.646	345718
588.671	380837
588.718	453811
588.725	468364
588.778	593153
588.789	620865
588.832	781884
588.861	891155
588.886	1005364
588.932	1181666
588.939	1180582
588.993	1101406
589.004	1103373
589.047	1122085
589.075	1136654
589.100	1144917
589.147	1095650
589.154	1062616
589.207	786745
589.218	732995
589.261	624721
589.290	560485
589.314	544793
589.361	528918
589.368	535054
589.421	604731
589.433	622990
589.475	771105
589.504	873372
589.528	976886
589.576	1126842
589.582	1119704
589.635	1065651
589.647	1055718
589.689	1007323
589.718	941565
589.742	802701
589.790	523500
589.795	505757
589.849	350699
589.861	317439
589.902	263423
589.932	226723
589.955	208448
590.004	171474
590.009	168393
590.062	140091
590.075	133567
590.115	119817
590.146	110158
590.168	104727
590.218	93795
590.222	92917
590.275	83320
590.289	81029
590.328	76215
590.360	72879
590.381	70969
590.431	66357
590.435	65950
590.488	60819
590.503	59477
590.541	56304
590.574	53884
590.594	52826
590.645	50453
590.647	50263
590.700	46619
590.716	45627
590.753	44479
590.787	43578
590.806	42552
590.859	40046
590.859	39968
590.912	38204
590.930	37706
590.965	36837
591.001	36269
591.018	36002
591.071	35226
591.072	35253
591.124	33916
591.143	33564
591.177	32677
591.214	31787
591.230	31804
591.283	32039
591.285	32078
591.336	31287
591.356	30935
591.389	30905
591.427	31009
591.442	30570
591.495	28953
591.498	28858
591.547	27791
591.569	27350
591.600	27210
591.640	27174
591.653	27028
591.706	26373
591.711	26336
591.759	26199
591.782	26127
591.811	26560
591.853	27377
591.864	27349
591.917	27078
591.924	27056
591.969	26034
591.995	25447
592.022	25019
592.066	24430
592.075	24457
592.127	24721
592.137	24790
592.180	26221
592.208	27154
592.233	26991
592.279	26653
592.285	26366
592.338	23971
592.350	23453
592.390	22943
592.421	22563
592.443	22349
592.491	21945
592.495	21974
592.548	22587
592.562	22771
592.600	22197
592.633	21719
592.653	21582
592.704	21156
592.705	21279
592.775	21449
592.846	21726
592.916	21866
592.987	23034
593.058	23373
593.128	22176
593.199	20075
593.270	20268
593.341	19527
593.411	20399
593.482	20227
593.553	20575
593.623	20213
593.694	19880
593.764	20637
593.835	20872
593.906	20219
593.976	19786
594.047	19979
594.117	21204
594.188	23442
594.258	22331
594.329	21057
594.399	20604
594.470	19829
594.540	19745
594.611	20330
594.681	19628
594.751	20882
594.822	21319
594.892	22212
594.963	22526
595.033	21864
595.103	22902
595.174	23141
595.244	25375
595.314	31213
595.384	30679
595.455	23108
595.525	23129
595.595	23674
595.665	24225
595.736	24525
595.806	23592
595.876	24082
595.946	23404
596.016	23705
596.087	24820
596.157	24527
596.227	23835
596.297	25134
596.367	25041
596.437	27321
596.507	30366
596.577	33176
596.647	34808
596.717	27942
596.787	29311
596.857	29558
596.927	29308
596.997	28304
597.067	29940
597.137	28966
597.207	29887
597.277	28981
597.347	30596
597.417	28492
597.487	28517
597.557	28082
597.626	29860
597.696	29726
597.766	31298
597.836	33979
597.906	35898
597.975	27391
598.045	26180
598.115	26778
598.185	29031
598.254	30437
598.324	32401
598.394	34451
598.464	34244
598.533	33284
598.603	32628
598.672	30017
598.742	30059
598.812	30900
598.881	30978
598.951	31362
599.020	30496
599.090	30755
599.159	31654
599.229	32474
599.299	30586
599.368	30770
599.437	31278
599.507	30574
599.576	28439
599.646	28721
599.715	27992
599.785	28300
599.854	28089
599.924	27195
599.993	28261
600.062	27642
600.132	27799
600.201	28448
600.270	30161
600.340	33927
600.409	33003
600.478	32574
600.547	32598
600.617	34216
600.686	30914
600.755	26329
600.824	24957
600.894	24201
600.963	23422
601.032	22671
601.101	22813
601.170	22712
601.239	21838
601.308	21552
601.378	22698
601.447	21904
601.516	21807
601.585	21846
601.654	22292
601.723	23168
601.792	22483
601.861	22515
601.930	23059
601.999	24142
602.068	25483
602.137	24398
602.206	26176
602.275	24194
602.343	24443
602.412	27448
602.481	25327
602.550	24247
602.619	25046
602.688	25031
602.756	24529
602.825	25416
602.894	25022
602.963	26311
603.032	26103
603.100	26269
603.169	25828
603.238	26272
603.307	26257
603.375	26154
603.444	26255
603.513	27094
603.581	27094
603.650	28002
603.719	27416
603.787	26900
603.856	27401
603.924	28637
603.993	30211
604.061	29765
604.130	30586
604.198	30985
604.267	32368
604.335	32353
604.404	33121
604.472	33065
604.541	33459
604.609	33400
604.678	34093
604.746	33912
604.815	34628
604.883	35695
604.951	35683
605.020	34958
605.088	35444
605.156	36606
605.225	36872
605.293	38379
605.361	37451
605.429	37542
605.498	38007
605.566	38563
605.634	40779
605.702	41761
605.771	42507
605.839	42656
605.907	43446
605.975	42066
606.043	41400
606.111	40314
606.180	39928
606.248	40798
606.316	40028
606.384	40283
606.452	40585
606.520	42349
606.588	44931
606.656	42624
606.724	41038
606.792	40374
606.860	37627
606.928	34343
606.996	31790
607.064	31145
607.132	29535
607.200	31607
607.267	32886
607.335	35038
607.403	34627
607.471	34186
607.539	33560
607.607	33269
607.674	32574
607.742	29833
607.810	30318
607.878	31142
607.946	29805
608.013	31004
608.081	31814
608.149	32736
608.216	33299
608.284	33546
608.352	34897
608.419	34806
608.487	34830
608.555	37573
608.622	33644
608.690	33760
608.757	36191
608.825	39596
608.893	39422
608.960	38593
609.028	38950
609.095	39369
609.163	41156
609.230	35598
609.298	31597
609.365	30931
609.432	31688
609.500	33575
609.567	36492
609.635	42126
609.702	46277
609.769	49405
609.837	45203
609.904	37100
609.971	33256
610.039	37019
610.106	41786
610.173	65159
610.241	139836
610.308	307417
610.375	197564
610.442	92725
610.509	43084
610.577	35660
610.644	34335
610.711	34495
610.778	34808
610.845	35156
610.912	37486
610.980	38129
611.047	40527
611.114	40243
611.181	39040
611.248	38350
611.315	37757
611.382	39762
611.449	40471
611.516	42869
611.583	42290
611.650	41306
611.717	42493
611.784	42326
611.851	44111
611.918	48268
611.984	53855
612.051	67541
612.118	110114
612.185	245964
612.252	592272
612.319	225072
612.386	66787
612.452	55122
612.519	51475
612.586	49816
612.653	52009
612.719	48988
612.786	49598
612.853	47247
612.919	44211
612.986	43107
613.053	43540
613.120	40130
613.186	37494
613.253	38197
613.319	37305
613.386	37878
613.453	37753
613.519	39369
613.586	39958
613.652	43668
613.719	46289
613.785	44023
613.852	41375
613.918	39607
613.985	38301
614.051	38474
614.118	41899
614.184	41000
614.250	39178
614.317	39041
614.383	38463
614.449	39154
614.516	38685
614.582	38706
614.648	39017
614.715	38932
614.781	37931
614.847	37431
614.914	38658
614.980	38269
615.046	37274
615.112	37264
615.179	37792
615.245	39764
615.311	40697
615.377	46643
615.443	63306
615.509	57260
615.575	44192
615.642	43246
615.708	41814
615.774	43697
615.840	46513
615.906	51889
615.972	63788
616.038	95040
616.104	178335
616.170	323940
616.236	762937
616.302	422003
616.368	96264
616.434	74057
616.500	53211
616.565	51915
616.631	58453
616.697	71073
616.763	56501
616.829	61860
616.895	100598
616.961	174268
617.026	135369
617.092	54561
617.158	43394
617.224	41472
617.289	40023
617.355	36356
617.421	35873
617.487	35954
617.552	34232
617.618	33795
617.684	33309
617.749	33071
617.815	32050
617.880	31013
617.946	31034
618.012	30738
618.077	32340
618.143	31743
618.208	30782
618.274	31630
618.339	33293
618.405	32610
618.470	28849
618.536	27638
618.601	29872
618.667	30014
618.732	27084
618.798	25865
618.863	25071
618.928	25484
618.994	25960
619.059	25897
619.124	28001
619.190	32556
619.255	25685
619.320	25083
619.386	26015
619.451	25161
619.516	24955
619.581	24080
619.647	24118
619.712	25511
619.777	25284
619.842	24957
619.907	24353
619.972	25170
620.038	25178
620.103	24836
620.168	24056
620.233	25080
620.298	25161
620.363	25645
620.428	23847
620.493	24931
620.558	25625
620.623	25297
620.688	26462
620.753	26143
620.818	25399
620.883	26651
620.948	26164
621.013	26532
621.078	26511
621.143	25281
621.207	28216
621.272	27366
621.337	27458
621.402	27635
621.467	28711
621.532	30052
621.596	30352
621.661	28443
621.726	25835
621.791	25928
621.855	26151
621.920	26455
621.985	26382
622.049	27965
622.114	28765
622.179	27809
622.243	27162
622.308	28070
622.373	28063
622.437	28916
622.502	28886
622.566	26550
622.631	26390
622.695	27260
622.760	27589
622.824	27646
622.889	26521
622.953	28107
623.018	28381
623.082	36883
623.147	33519
623.211	28909
623.276	28236
623.340	27977
623.404	26088
623.469	25131
623.533	24962
623.597	25418
623.662	25119
623.726	25620
623.790	23736
623.854	22903
623.919	23048
623.983	23568
624.047	23688
624.111	23531
624.176	22905
624.240	23909
624.304	26067
624.368	25983
624.432	24071
624.496	23809
624.560	24168
624.625	27219
624.689	27643
624.753	25525
624.817	26447
624.881	24606
624.945	24533
625.009	22833
625.073	21720
625.137	22621
625.201	25176
625.265	27853
625.329	25744
625.393	23667
625.456	24169
625.520	23384
625.584	24495
625.648	26976
625.712	29558
625.776	38121
625.839	64566
625.903	63447
625.967	28731
626.031	22979
626.095	32088
626.158	42474
626.222	23346
626.286	17816
626.349	17166
626.413	17887
626.477	16634
626.540	16781
626.604	15801
626.668	16704
626.731	15065
626.795	15752
626.858	15928
626.922	16077
626.986	15618
627.049	15914
627.113	15198
627.176	15287
627.240	14088
627.303	15370
627.366	15544
627.430	15242
627.493	14803
627.557	15184
627.620	15093
627.684	15049
627.747	15798
627.810	15338
627.874	14052
627.937	13174
628.000	13402
628.064	14077
628.127	14276
628.190	13106
628.253	11864
628.317	11993
628.380	11060
628.443	11945
628.506	11937
628.569	11216
628.632	11386
628.696	10671
628.759	10099
628.822	9883
628.885	9793
628.948	9945
629.011	9593
629.074	9427
629.137	10242
629.200	9622
629.263	9565
629.326	10947
629.389	9724
629.452	9630
629.515	10042
629.578	9059
629.641	9313
629.704	9268
629.767	9634
629.830	9536
629.892	8686
629.955	8929
630.018	9349
630.081	9091
630.144	10893
630.207	10918
630.269	9274
630.332	9793
630.395	10408
630.458	9039
630.520	7903
630.583	8760
630.646	7832
630.708	7620
630.771	8730
630.834	8800
630.896	7697
630.959	7904
631.021	8675
631.084	8623
631.146	8465
631.209	9552
631.272	9492
631.334	8668
631.397	8103
631.459	8688
631.522	9044
631.584	9228
631.646	8479
631.709	9047
631.771	10632
631.834	12864
631.896	10474
631.958	8351
632.021	7919
632.083	8194
632.145	7554
632.208	7869
632.270	8579
632.332	7445
632.395	7679
632.457	8221
632.519	7581
632.581	8230
632.643	6797
632.706	7296
632.768	7483
632.830	7249
632.892	7344
632.954	7776
633.016	7555
633.078	8474
633.141	6658
633.203	7258
633.265	7139
633.327	7264
633.389	7751
633.451	7193
633.513	8663
633.575	9899
633.637	9233
633.698	9696
633.760	8394
633.822	8117
633.884	7666
633.946	8252
634.008	7868
634.070	8048
634.132	7523
634.193	8893
634.255	9694
634.317	9826
634.379	10588
634.441	9913
634.502	9008
634.564	8414
634.626	7939
634.687	7433
634.749	6649
634.811	7619
634.873	6727
634.934	6995
634.996	6830
635.057	6612
635.119	7247
635.181	7267
635.242	7516
635.304	6869
635.365	7427
635.427	7029
635.488	7481
635.550	7490
635.611	5992
635.673	6664
635.734	7401
635.796	6882
635.857	8204
635.918	8851
635.980	7902
636.041	9340
636.102	9071
636.164	10915
636.225	10436
636.286	10213
636.348	9439
636.409	7316
636.470	7526
636.531	6322
636.593	7478
636.654	8209
636.715	6488
636.776	5884
636.838	5828
636.899	6590
636.960	5685
637.021	5584
637.082	6033
637.143	5333
637.204	5210
637.265	5405
637.326	5122
637.387	4957
637.448	5074
637.509	6478
637.570	5244
637.631	4927
637.692	5504
637.753	5313
637.814	4719
637.875	4940
637.936	4806
637.997	5016
638.058	5282
638.119	6215
638.179	5577
638.240	5025
638.301	4553
638.362	4979
638.423	4811
638.483	5323
638.544	5724
638.605	3929
638.666	4487
638.726	5184
638.787	4661
638.848	5071
638.908	4011
638.969	5278
639.030	4594
639.090	4374
639.151	4818
639.211	5379
639.272	5363
639.332	6348
639.393	9290
639.453	5562
639.514	5723
639.574	5460
639.635	4408
639.695	4081
639.756	4172
639.816	5117
639.877	4725
639.937	6777
639.997	8636
640.058	10065
640.118	4862
640.178	4737
640.239	4005
640.299	3998
640.359	4011
640.420	4264
640.480	4454
640.540	4556
640.600	6097
640.661	5347
640.721	4225
640.781	5800
640.841	6269
640.901	5741
640.961	4466
641.021	4413
641.082	4528
641.142	6782
641.202	7168
641.262	4244
641.322	4807
641.382	4649
641.442	4063
641.502	3608
641.562	3866
641.622	4191
641.682	4284
641.742	4490
641.802	5346
641.861	4816
641.921	3907
641.981	4380
642.041	4555
642.101	4350
642.161	5712
642.221	4427
642.280	3732
642.340	2793
642.400	3411
642.460	3761
642.519	4213
642.579	3533
642.639	3991
642.698	3180
642.758	3981
642.818	4076
642.877	3807
642.937	3643
642.997	3948
643.056	4663
643.116	6173
643.175	5031
643.235	4009
643.294	4413
643.354	4313
643.414	4690
643.473	4912
643.532	6453
643.592	7930
643.651	12012
643.711	20026
643.770	39306
643.830	78046
643.889	189971
643.948	398370
644.008	78122
644.067	13620
644.126	9166
644.186	6517
644.245	5841
644.304	4328
644.363	4641
644.423	3496
644.482	3880
644.541	3314
644.600	3779
644.659	4656
644.719	5396
644.778	7363
644.837	10871
644.896	19556
644.955	37837
645.014	89837
645.073	25669
645.132	6136
645.191	4356
645.250	4026
645.309	4791
645.368	4051
645.427	4295
645.486	5377
645.545	9758
645.604	16020
645.663	5735
645.722	3639
645.781	4241
645.840	4759
645.898	5106
645.957	7464
646.016	10547
646.075	18480
646.134	35246
646.192	69384
646.251	187669
646.310	266934
646.369	33878
646.427	9451
646.486	7290
646.545	5075
646.603	4688
646.662	4143
646.721	3532
646.779	3292
646.838	3714
646.896	3845
646.955	4691
647.014	6237
647.072	10136
647.131	19658
647.189	55742
647.248	26005
647.306	4615
647.365	3592
647.423	2599
647.481	3041
647.540	2366
647.598	3178
647.657	2415
647.715	1888
647.773	2557
647.832	2487
647.890	2400
647.948	2351
648.007	2634
648.065	2128
648.123	2322
648.181	2779
648.240	2320
648.298	2073
648.356	2462
648.414	2633
648.472	3060
648.531	2591
648.589	2956
648.647	2302
648.705	2287
648.763	1886
648.821	2543
648.879	1859
648.937	2663
648.995	3184
649.053	3988
649.111	5240
649.169	8107
649.227	14554
649.285	25746
649.343	54238
649.401	161632
649.459	73515
649.516	15585
649.574	8767
649.632	4226
649.690	4365
649.748	5582
649.806	5545
649.863	8554
649.921	13666
649.979	37079
650.037	24838
650.094	3868
650.152	2474
650.210	2396
650.268	2357
650.325	1996
650.383	1595
650.440	1444
650.498	2072
650.556	1633
650.613	1607
650.671	2171
650.728	2011
650.786	2096
650.843	1067
650.901	1968
650.958	1740
651.016	2192
651.073	1587
651.131	1734
651.188	1000
651.246	1625
651.303	694
651.360	1733
651.418	881
651.475	1499
651.532	1133
651.590	1473
651.647	1425
651.704	1814
651.762	1942
651.819	1389
651.876	1221
651.933	1002
651.990	1236
652.048	656
652.105	1120
652.162	1314
652.219	1746
652.276	818
652.333	733
652.390	1137
652.448	290
652.505	729
652.562	1492
652.619	646
652.676	400
652.733	1154
652.790	894
652.847	1073
652.904	1372
652.961	936
653.017	867
653.074	1729
653.131	487
653.188	969
653.245	431
653.302	1028
653.359	1168
653.415	1031
653.472	1096
653.529	1141
653.586	449
653.642	1098
653.699	1266
653.756	887
653.813	399
653.869	841
653.926	767
653.983	759
654.039	266
654.096	780
654.152	846
654.209	1121
654.266	1088
654.322	634
654.379	661
654.435	1309
654.492	1174
654.548	1590
654.605	2419
654.661	4533
654.717	1754
654.774	1702
654.830	1805
654.887	1935
654.943	717
655.000	1165
655.056	1791
655.112	1582
655.168	1244
655.225	731
655.281	407
655.337	1752
655.394	1393
655.450	3948
655.506	2794
655.562	1891
655.618	3746
655.675	2490
655.731	816
655.787	866
655.843	562
655.899	54
655.955	1288
656.011	454
656.067	341
656.123	692
656.179	1001
656.235	1170
656.291	1568
656.347	1166
656.403	1215
656.459	921
656.515	1289
656.571	1173
656.627	1220
656.683	428
656.739	1156
656.795	917
656.850	1230
656.906	739
656.962	1107
657.018	603
657.074	1150
657.129	1549
657.185	1766
657.241	1657
657.297	4139
657.352	2833
657.408	545
657.464	1176
657.519	638
657.575	1086
657.630	839
657.686	294
657.742	227
657.797	351
657.853	401
657.908	764
657.964	667
658.019	432
658.075	812
658.130	590
658.186	264
658.241	1204
658.297	93
658.352	267
658.407	1695
658.463	124
658.518	1072
658.573	230
658.629	280
658.684	604
658.739	907
658.795	-168
658.850	303
658.905	35
658.960	667
659.016	-157
659.071	91
659.126	-102
659.181	-22
659.236	756
659.291	1524
659.346	2850
659.401	1190
659.457	1639
659.512	1353
659.567	508
659.622	247
659.677	952
659.732	111
659.787	-30
659.842	516
659.897	1071
659.952	1299
660.007	955
660.061	-167
660.116	705
660.171	415
660.226	595
660.281	948
660.336	-8
660.391	339
660.445	-300
660.500	196
660.555	633
660.610	80
660.664	746
660.719	403
660.774	709
660.828	110
660.883	1140
660.938	219
660.992	246
661.047	336
661.101	91
661.156	375
661.211	348
661.265	980
661.320	761
661.374	550
661.429	931
661.483	-241
661.538	-20
661.592	-316
661.647	519
661.701	342
661.755	1209
661.810	448
661.864	535
661.919	88
661.973	144
662.027	574
662.081	-368
662.136	-146
662.190	7
662.244	656
662.299	595
662.353	119
662.407	167
662.461	-181
662.515	483
662.569	808
662.624	840
662.678	188
662.732	927
662.786	111
662.840	247
662.894	880
662.948	1282
663.002	25
663.056	426
663.110	111
663.164	41
663.218	-167
663.272	641
663.326	920
663.380	-248
663.434	1510
663.488	396
663.542	214
663.595	320
663.649	-344
663.703	889
663.757	35
663.811	-588
663.864	69
663.918	2
663.972	-223
664.026	946
664.079	463
664.133	474
664.187	156
664.240	-57
664.294	385
664.348	559
664.401	369
664.455	1265
664.508	9
664.562	582
664.615	573
664.669	623
664.722	150
664.776	111
664.829	-128
664.883	446
664.936	-299
664.990	231
665.043	914
665.097	310
665.150	309
665.203	558
665.257	421
665.310	250
665.363	384
665.417	315
665.470	43
665.523	294
665.576	314
665.630	811
665.683	-78
665.736	578
665.789	1172
665.842	173
665.895	-588
665.949	1047
666.002	623
666.055	51
666.108	722
666.161	352
666.214	310
666.267	570
666.320	770
666.373	1631
666.426	991
666.479	754
666.532	344
666.585	677
666.638	685
666.691	937
666.744	1231
666.796	1427
666.849	396
666.902	849
666.955	43
667.008	88
667.060	-322
667.113	316
667.166	426
667.219	-68
667.271	-207
667.324	690
667.377	481
667.430	1051
667.482	22
667.535	486
667.587	-55
667.640	1195
667.693	271
667.745	1013
667.798	2619
667.850	2326
667.903	356
667.955	359
668.008	65
668.060	89
668.113	1336
668.165	1749
668.218	889
668.270	1670
668.322	140
668.375	61
668.427	759
668.479	633
668.532	285
668.584	433
668.636	666
668.689	636
668.741	460
668.793	666
668.845	-21
668.898	905
668.950	968
669.002	780
669.054	653
669.106	-251
669.158	-161
669.211	310
669.263	527
669.315	615
669.367	970
669.419	131
669.471	685
669.523	1219
669.575	1709
669.627	1680
669.679	1500
669.731	1521
669.783	1509
669.835	808
669.886	1423
669.938	1745
669.990	755
670.042	1068
670.094	1022
670.146	704
670.197	1352
670.249	2164
670.301	2303
670.353	2334
670.404	4882
670.456	7403
670.508	12284
670.560	20517
670.611	35394
670.663	60564
670.715	105010
670.766	218130
670.818	403417
670.869	188095
670.921	33727
670.972	14127
671.024	8424
671.075	6145
671.127	5041
671.178	3018
671.230	2207
671.281	2826
671.333	2222
671.384	1415
671.436	1791
671.487	2489
671.538	2392
671.590	2365
671.641	4326
671.692	6608
671.744	10761
671.795	24113
671.846	17537
671.897	4593
671.949	1977
672.000	1692
672.051	1055
672.102	2293
672.153	387
672.204	303
672.256	680
672.307	1533
672.358	568
672.409	592
672.460	408
672.511	303
672.562	397
672.613	892
672.664	209
672.715	461
672.766	591
672.817	447
672.868	-322
672.919	86
672.970	-153
673.021	197
673.071	240
673.122	564
673.173	756
673.224	415
673.275	155
673.326	813
673.376	123
673.427	-117
673.478	141
673.528	833
673.579	-71
673.630	312
673.680	211
673.731	727
673.782	-716
673.832	7
673.883	169
673.934	543
673.984	241
674.035	-782
674.085	-454
674.136	12
674.186	340
674.237	340
674.287	161
674.338	1136
674.388	961
674.438	-670
674.489	704
674.539	305
674.589	-252
674.640	-71
674.690	-254
674.740	-304
674.791	-178
674.841	477
674.891	-632
674.942	-79
674.992	-402
675.042	266
675.092	236
675.142	-278
675.193	-163
675.243	-256
675.293	632
675.343	293
675.393	115
675.443	295
675.493	153
675.543	26
675.593	-458
675.643	-287
675.693	352
675.743	-208
675.793	277
675.843	-1255
675.893	123
675.943	414
675.993	-1064
676.043	-50
676.093	-57
676.142	-207
676.192	-639
676.242	325
676.292	291
676.341	-39
676.391	190
676.441	97
676.491	-341
676.540	-454
676.590	-572
676.640	-340
676.689	-47
676.739	-839
676.789	-340
676.838	-417
676.888	88
676.937	-502
676.987	-191
677.037	-194
677.086	-635
677.136	-672
677.185	-397
677.235	-232
677.284	-555
677.333	-281
677.383	-588
677.432	-499
677.482	19
677.531	-357
677.580	-354
677.630	61
677.679	-517
677.728	-618
677.778	-315
677.827	-250
677.876	-62
677.925	-261
677.975	-911
678.024	-701
678.073	-1200
678.122	-247
678.171	-933
678.220	-230
678.269	-679
678.319	-328
678.368	493
678.417	-255
678.466	-218
678.515	-437
678.564	-52
678.613	-132
678.662	-397
678.711	-635
678.760	-860
678.809	-221
678.857	-470
678.906	-360
678.955	-192
679.004	-445
679.053	-487
679.102	110
679.151	-731
679.199	-803
679.248	-290
679.297	-1129
679.346	-896
679.394	-496
679.443	-551
679.492	-805
679.540	-648
679.589	-43
679.638	-855
679.686	-569
679.735	-700
679.784	-352
679.832	-846
679.881	17
679.929	-911
679.978	-1287
680.026	-943
680.075	-332
680.123	-859
680.172	-395
680.220	-910
680.268	-1755
680.317	-364
680.365	-475
680.414	-369
680.462	-715
680.510	-1164
680.559	-46
680.607	-348
680.655	-857
680.703	-1486
680.752	-662
680.800	-923
680.848	-386
680.896	-1263
680.945	-456
680.993	-937
681.041	-1016
681.089	-1240
681.137	-282
681.185	-796
681.233	-137
681.258	-267
681.281	-428
681.329	-342
681.377	-461
681.380	-451
681.425	-1015
681.473	-957
681.502	-560
681.521	-350
681.569	355
681.617	-617
681.624	-474
681.665	153
681.713	272
681.745	69
681.761	-86
681.809	-140
681.857	383
681.867	523
681.904	817
681.952	-181
681.989	-122
682.000	-141
682.048	400
682.096	272
682.111	392
682.143	535
682.191	615
682.233	814
682.239	797
682.286	682
682.334	-32
682.354	337
682.382	752
682.430	1251
682.476	1235
682.477	1203
682.525	1428
682.572	751
682.598	1103
682.620	1341
682.667	1850
682.715	1177
682.720	1284
682.763	1889
682.810	1611
682.841	1713
682.857	1771
682.905	1892
682.952	2047
682.963	2137
683.000	2184
683.047	1474
683.085	2169
683.095	2336
683.142	2586
683.190	2190
683.206	2327
683.237	2469
683.284	2622
683.328	2347
683.332	2296
683.379	2491
683.426	3100
683.449	2894
683.473	2615
683.521	3239
683.568	2980
683.571	3006
683.615	3021
683.662	3200
683.693	2897
683.709	2700
683.757	3267
683.804	3472
683.814	3404
683.851	3024
683.898	3416
683.936	3682
683.945	3720
683.992	3773
684.039	3606
684.057	3522
684.086	3374
684.133	4209
684.179	4345
684.180	4325
684.227	4287
684.274	4673
684.300	4777
684.321	4744
684.368	4419
684.415	4337
684.422	4376
684.462	4545
684.509	4209
684.543	4758
684.556	4901
684.603	4419
684.649	4635
684.665	4511
684.696	4254
684.743	4472
684.786	5158
684.790	5204
684.837	4957
684.883	5295
684.908	5264
684.930	5211
684.977	5487
685.023	5635
685.029	5604
685.070	5318
685.117	5974
685.150	6139
685.164	6084
685.210	6193
685.257	5884
685.272	5973
685.303	6265
685.350	6677
685.393	6666
685.396	6650
685.443	6876
685.490	7492
685.514	7028
685.536	6641
685.583	7216
685.629	8135
685.636	8064
685.675	7285
685.722	7602
685.757	7342
685.768	7251
685.815	7097
685.861	7820
685.878	7557
685.908	7275
685.954	7719
686.000	7993
686.000	7982
686.047	7760
686.093	8405
686.121	8002
686.139	7982
686.185	8635
686.232	9161
686.242	9225
686.278	8945
686.324	9288
686.363	9034
686.370	8916
686.416	8849
686.463	7899
686.484	7644
686.509	7530
686.555	7527
686.601	7370
686.606	7384
686.647	7685
686.693	8372
686.727	7457
686.739	7076
686.785	8303
686.831	8263
686.848	8104
686.877	7906
686.923	8191
686.969	8576
686.969	8575
687.015	8306
687.061	7995
687.090	8200
687.107	8451
687.153	8912
687.199	8276
687.211	8479
687.245	8831
687.291	8791
687.332	8840
687.336	8853
687.382	8865
687.428	9133
687.453	9107
687.474	9166
687.520	9871
687.565	9204
687.574	9368
687.611	9599
687.657	8642
687.695	8636
687.702	8692
687.748	9118
687.794	8816
687.816	8904
687.839	9162
687.885	9683
687.931	9783
687.937	9849
687.976	9796
688.022	9431
688.058	9512
688.067	9561
688.113	9468
688.158	9447
688.179	9460
688.204	9646
688.249	9987
688.295	9848
688.300	9858
688.340	9791
688.386	10434
688.421	10174
688.431	10187
688.477	10384
688.522	11074
688.542	11196
688.567	11050
688.613	11059
688.658	10618
688.663	10597
688.703	10793
688.749	10785
688.784	11038
688.794	11072
688.839	10674
688.884	10935
688.905	10738
688.930	10563
688.975	10515
689.020	9789
689.026	9852
689.065	10434
689.110	10712
689.146	10805
689.155	10892
689.201	10893
689.246	10951
689.267	11119
689.291	11121
689.336	10910
689.381	10623
689.388	10572
689.426	10572
689.471	10846
689.509	10949
689.516	10966
689.561	11266
689.606	11027
689.630	10833
689.651	10593
689.696	10767
689.741	10557
689.750	10484
689.785	10645
689.830	10832
689.871	11066
689.875	11090
689.920	10829
689.965	10906
689.992	11169
690.010	11290
690.054	10798
690.099	10993
690.112	10838
690.144	10845
690.189	11165
690.233	11478
690.233	11496
690.278	11475
690.323	11193
690.354	11432
690.367	11601
690.412	11279
690.457	11638
690.474	11613
690.501	11616
690.546	11869
690.590	12074
690.595	12018
690.635	11684
690.680	11719
690.716	11668
690.724	11657
690.769	11567
690.813	11873
690.836	11720
690.857	11779
690.902	11902
690.946	12104
690.957	12181
690.991	12219
691.035	12112
691.077	11784
691.080	11831
691.124	12630
691.168	13288
691.198	13735
691.213	13998
691.257	14507
691.301	15343
691.318	15514
691.346	15083
691.390	14373
691.434	13894
691.439	13779
691.478	13442
691.522	13564
691.559	13289
691.567	13323
691.611	13674
691.655	13307
691.680	13383
691.699	13481
691.743	13615
691.787	13729
691.800	13773
691.831	13908
691.875	13759
691.919	13879
691.921	13849
691.964	13764
692.008	13909
692.041	13571
692.052	13604
692.096	14289
692.139	14575
692.162	14708
692.183	14603
692.227	14409
692.271	14091
692.282	13989
692.315	14097
692.359	14384
692.402	14520
692.403	14551
692.447	14436
692.490	14138
692.523	14353
692.534	14448
692.578	14541
692.622	14499
692.643	14389
692.666	14497
692.709	14763
692.753	14965
692.763	14969
692.797	14691
692.840	14303
692.884	14144
692.884	14176
692.928	14156
692.971	13900
693.004	13919
693.015	14053
693.059	14317
693.102	14481
693.124	14584
693.146	14658
693.189	14691
693.233	14810
693.245	14768
693.276	14652
693.320	14738
693.363	14319
693.365	14297
693.407	14991
693.450	15182
693.485	15174
693.493	15157
693.537	15189
693.580	14849
693.605	14918
693.624	15191
693.667	15543
693.710	15805
693.725	15890
693.753	15961
693.797	15817
693.840	15869
693.845	15839
693.883	16901
693.926	18041
693.966	19047
693.970	19149
694.013	19871
694.056	20292
694.086	20532
694.099	20068
694.142	18444
694.185	17285
694.206	16419
694.229	16352
694.272	16376
694.315	16366
694.326	16337
694.358	16547
694.401	16630
694.444	16955
694.446	16914
694.487	16736
694.530	16873
694.566	16617
694.573	16708
694.616	17153
694.659	17773
694.686	18037
694.702	17747
694.745	16911
694.787	15953
694.806	15463
694.830	15216
694.873	14818
694.916	14475
694.926	14315
694.959	14660
695.002	15149
695.044	15602
695.046	15582
695.087	15381
695.130	15225
695.166	14824
695.172	14879
695.215	15307
695.258	15469
695.286	15547
695.301	15617
695.343	15662
695.386	15870
695.406	15918
695.428	16085
695.471	16222
695.514	16478
695.526	16472
695.556	16194
695.599	15822
695.641	15288
695.646	15224
695.684	15891
695.726	16163
695.766	16559
695.769	16597
695.811	16621
695.854	16557
695.886	16415
695.896	16411
695.938	16217
695.981	16024
696.005	15902
696.023	16027
696.065	16092
696.108	16250
696.125	16284
696.150	16256
696.192	16047
696.235	15948
696.245	15841
696.277	16171
696.319	16617
696.361	17053
696.365	17043
696.404	16921
696.446	16690
696.485	16604
696.488	16672
696.530	16686
696.572	16814
696.604	16995
696.614	17094
696.656	17062
696.698	17125
696.724	17142
696.740	17143
696.783	16969
696.825	16704
696.844	16618
696.867	16689
696.909	16636
696.951	16593
696.964	16559
696.992	16686
697.034	16585
697.076	16695
697.083	16648
697.118	16601
697.160	16513
697.202	16412
697.203	16364
697.244	16572
697.286	16542
697.323	16578
697.327	16635
697.369	16681
697.411	16726
697.442	16712
697.453	16780
697.494	16899
697.536	17001
697.562	16967
697.578	17112
697.620	17448
697.661	17758
697.682	17850
697.703	17786
697.744	17550
697.786	17342
697.801	17237
697.828	17633
697.869	18033
697.911	18552
697.921	18614
697.952	19171
697.994	19842
698.035	20524
698.040	20547
698.077	19799
698.118	18829
698.160	17882
698.160	17823
698.201	17944
698.243	17979
698.279	17924
698.284	17971
698.325	17941
698.367	17923
698.399	17843
698.408	17932
698.449	18108
698.491	18286
698.518	18334
698.532	18316
698.573	18097
698.614	17891
698.638	17718
698.656	17766
698.697	17761
698.738	17752
698.757	17694
698.779	17881
698.820	18127
698.862	18390
698.877	18433
698.903	18817
698.944	19342
698.985	19867
698.996	19956
699.026	19942
699.067	19840
699.116	19662
699.235	18823
699.354	18347
699.474	17590
699.593	18254
699.713	20130
699.832	20114
699.951	18629
700.070	19069
700.190	18901
700.309	18590
700.428	18127
700.547	18786
700.667	18814
700.786	17308
700.905	19136
701.024	18227
701.143	17505
701.262	19381
701.381	16286
701.500	16946
701.619	18218
701.738	18881
701.857	17336
701.976	16566
702.095	15647
702.214	15686
702.333	17282
702.452	17733
702.571	17474
702.690	17196
702.809	16856
702.928	15618
703.047	15869
703.165	15766
703.284	15789
703.403	14690
703.522	14727
703.640	17002
703.759	18320
703.878	17834
703.997	23626
704.115	17884
704.234	14916
704.353	15886
704.471	14777
704.590	14531
704.708	14077
704.827	14115
704.946	14321
705.064	14009
705.183	15965
705.301	14395
705.420	15510
705.538	20925
705.656	20866
705.775	18385
705.893	17080
706.012	17008
706.130	19504
706.249	20012
706.367	17695
706.485	17540
706.604	18571
706.722	19283
706.840	18105
706.958	21257
707.077	21612
707.195	19030
707.313	17748
707.431	16121
707.549	16357
707.668	17179
707.786	16761
707.904	16403
708.022	16088
708.140	15669
708.258	15512
708.376	15630
708.494	16108
708.612	16137
708.730	16814
708.848	21811
708.966	23278
709.084	21457
709.202	20120
709.320	19215
709.438	18640
709.556	19487
709.674	19736
709.791	18794
709.909	18658
710.027	18190
710.145	18760
710.263	19236
710.380	17835
710.498	18261
710.616	18358
710.733	18339
710.851	17128
710.969	17961
711.086	19370
711.204	17562
711.322	18009
711.439	17746
711.557	18692
711.674	18402
711.792	16600
711.909	16868
712.027	16450
712.144	16656
712.262	16448
712.379	16171
712.497	18152
712.614	22263
712.732	25391
712.849	22123
712.966	20040
713.084	19696
713.201	24257
713.318	21795
713.436	21112
713.553	19668
713.670	20174
713.787	20137
713.905	21885
714.022	23949
714.139	20921
714.256	20034
714.373	21853
714.490	25433
714.608	34723
714.725	60877
714.842	236169
714.959	535016
715.076	64813
715.193	24888
715.310	20555
715.427	20764
715.544	18184
715.661	17892
715.778	17693
715.895	18320
716.011	18773
716.128	19020
716.245	17746
716.362	17222
716.479	18888
716.596	21802
716.713	17729
716.829	18054
716.946	16889
717.063	17413
717.180	15186
717.296	16265
717.413	14895
717.530	16422
717.646	15899
717.763	15952
717.880	15832
717.996	15094
718.113	15007
718.229	16182
718.346	14190
718.462	15125
718.579	14398
718.695	16556
718.812	25025
718.928	25696
719.045	18945
719.161	18047
719.277	14150
719.394	14573
719.510	13796
719.626	13989
719.743	14453
719.859	17523
719.975	19867
720.092	26565
720.208	67297
720.324	244264
720.440	76543
720.557	18518
720.673	16674
720.789	20319
720.905	28337
721.021	47045
721.137	34031
721.253	14263
721.369	13883
721.486	14365
721.602	15184
721.718	19143
721.834	14613
721.950	12485
722.066	12686
722.181	12398
722.297	13175
722.413	13336
722.529	11977
722.645	11233
722.761	12737
722.877	10886
722.993	12577
723.108	11588
723.224	12647
723.340	12329
723.456	12200
723.571	12316
723.687	11567
723.803	10767
723.918	11095
724.034	10711
724.150	11744
724.265	11601
724.381	11947
724.497	17276
724.612	32212
724.728	12792
724.843	12159
724.959	10657
725.074	11230
725.190	16321
725.305	27996
725.421	12090
725.536	11317
725.651	9736
725.767	9752
725.882	8915
725.997	9555
726.113	10034
726.228	9629
726.343	9508
726.459	9778
726.574	8993
726.689	9248
726.804	9695
726.920	8829
727.035	9933
727.150	9542
727.265	9314
727.380	9614
727.495	10140
727.610	9707
727.725	9221
727.841	9104
727.956	9565
728.071	9139
728.186	10273
728.301	9787
728.416	7843
728.531	8224
728.645	8847
728.760	9003
728.875	9106
728.990	10333
729.105	9633
729.220	9711
729.335	9902
729.449	9227
729.564	7620
729.679	8094
729.794	7720
729.908	7800
730.023	9209
730.138	9428
730.253	8544
730.367	7667
730.482	7931
730.596	7531
730.711	8182
730.826	8713
730.940	9319
731.055	9258
731.169	8939
731.284	9313
731.398	7777
731.513	8445
731.627	9081
731.742	9440
731.856	8562
731.970	11571
732.085	9364
732.199	10581
732.313	11864
732.428	16881
732.542	31128
732.656	91993
732.771	110857
732.885	22979
732.999	11722
733.113	10806
733.227	10584
733.342	9665
733.456	8593
733.570	8035
733.684	8079
733.798	7181
733.912	8648
734.026	8295
734.140	7855
734.254	7596
734.368	8974
734.482	10653
734.596	17287
734.710	8764
734.824	7302
734.938	8068
735.052	7302
735.166	6912
735.280	8091
735.393	7938
735.507	7582
735.621	6954
735.735	8812
735.849	13434
735.962	11902
736.076	7252
736.190	7555
736.303	8173
736.417	8822
736.531	13053
736.644	7507
736.758	7451
736.872	6662
736.985	6553
737.099	7080
737.212	7051
737.326	6328
737.439	6110
737.553	6481
737.666	7075
737.780	5818
737.893	6805
738.007	5981
738.120	5890
738.233	6595
738.347	6827
738.460	6235
738.573	6439
738.687	7014
738.800	6754
738.913	6903
739.026	7805
739.140	7515
739.253	5898
739.366	5828
739.479	6389
739.592	6716
739.705	5952
739.818	6068
739.932	5813
740.045	6037
740.158	6218
740.271	6501
740.384	6053
740.497	6877
740.610	5869
740.723	5635
740.836	6481
740.949	6484
741.062	6535
741.174	7552
741.287	9458
741.400	5757
741.513	5872
741.626	5842
741.739	7374
741.851	6434
741.964	6235
742.077	5003
742.189	6107
742.302	5770
742.415	6324
742.527	6538
742.640	6177
742.753	5789
742.865	5319
742.978	5884
743.090	5877
743.203	5065
743.316	5753
743.428	5278
743.541	5515
743.653	4938
743.766	5415
743.878	4769
743.990	5075
744.103	6703
744.215	7088
744.327	5979
744.440	6308
744.552	5794
744.664	9208
744.777	8208
744.889	5486
745.001	5540
745.113	5026
745.226	5294
745.338	4826
745.450	4860
745.562	4543
745.674	4437
745.786	4610
745.898	5172
746.010	4837
746.122	4684
746.234	5446
746.347	6191
746.459	5322
746.570	4541
746.682	5228
746.794	5083
746.906	5432
747.018	5337
747.130	4966
747.242	5173
747.354	4763
747.466	4885
747.577	4149
747.689	5329
747.801	4989
747.913	5499
748.024	4386
748.136	4086
748.248	4403
748.359	3882
748.471	3981
748.583	4697
748.694	4623
748.806	4439
748.918	4151
749.029	5788
749.141	6050
749.252	5120
749.364	4306
749.475	4904
749.587	9694
749.698	9652
749.809	5667
749.921	4376
750.032	4277
750.144	4491
750.255	4195
750.366	4177
750.478	2882
750.589	4048
750.700	3561
750.811	4467
750.923	5148
751.034	4899
751.145	8274
751.256	14589
751.367	5793
751.479	4448
751.590	4050
751.701	3554
751.812	4037
751.923	3999
752.034	3689
752.145	3529
752.256	4186
752.367	4129
752.478	3460
752.589	4267
752.700	3340
752.811	3355
752.922	3744
753.032	3908
753.143	4151
753.254	5152
753.365	3723
753.476	4197
753.586	4378
753.697	3378
753.808	4045
753.919	3029
754.029	3524
754.140	3080
754.251	2938
754.361	3898
754.472	4192
754.582	3537
754.693	3778
754.804	3253
754.914	3264
755.025	3334
755.135	3836
755.246	3684
755.356	3520
755.466	3297
755.577	3671
755.687	4069
755.798	3992
755.908	4113
756.018	3753
756.129	3430
756.239	3109
756.349	3022
756.460	3733
756.570	2650
756.680	3836
756.790	3033
756.900	4439
757.011	3854
757.121	4377
757.231	3174
757.341	3196
757.451	3093
757.561	3412
757.671	3035
757.781	2955
757.891	2686
758.001	3336
758.111	4036
758.221	4066
758.331	4051
758.441	4003
758.551	3963
758.661	4369
758.771	6806
758.880	4348
758.990	4464
759.100	4561
759.210	3593
759.320	3544
759.429	4063
759.539	3923
759.649	4226
759.758	3283
759.868	4167
759.978	4717
760.087	3630
760.197	4233
760.307	5423
760.416	4058
760.526	4370
760.635	3947
760.745	4110
760.854	4162
760.964	4830
761.073	4239
761.182	4644
761.292	4218
761.401	4618
761.511	4234
761.620	4526
761.729	3307
761.839	3489
761.948	4463
762.057	3717
762.166	4533
762.276	4359
762.385	3698
762.494	3290
762.603	3935
762.712	4269
762.822	3481
762.931	4258
763.040	3829
763.149	4105
763.258	3925
763.367	4142
763.476	3426
763.585	3101
763.694	3779
763.803	3404
763.912	4337
764.021	4033
764.130	4506
764.238	4446
764.347	3562
764.456	3965
764.565	4611
764.674	3899
764.783	4780
764.891	4200
765.000	4901
765.109	4798
765.217	4446
765.326	4786
765.435	4827
765.543	5911
765.652	6214
765.761	6912
765.869	7090
765.978	8967
766.086	12114
766.195	20487
766.303	37957
766.412	84637
766.520	256655
766.629	424796
766.737	154880
766.846	40240
766.954	21454
767.062	14454
767.171	10928
767.279	9016
767.387	7201
767.496	7025
767.604	6469
767.712	5542
767.820	5320
767.928	4224
768.037	4567
768.145	5508
768.253	4860
768.361	4886
768.469	4633
768.577	4020
768.685	4431
768.793	4918
768.901	4133
769.009	4642
769.117	5254
769.225	4964
769.333	5669
769.441	7689
769.549	9061
769.657	15727
769.765	30378
769.873	88540
769.981	281592
770.088	217472
770.196	38430
770.304	15984
770.412	10684
770.519	7437
770.627	7347
770.735	5944
770.842	5694
770.950	5229
771.058	5256
771.165	4906
771.273	4464
771.380	3930
771.488	4719
771.595	4380
771.703	4168
771.810	4352
771.918	4294
772.025	4087
772.133	4602
772.240	4290
772.348	4140
772.455	4263
772.562	4769
772.670	4219
772.777	5293
772.884	3800
772.991	5004
773.099	4211
773.206	3766
773.313	4407
773.420	3887
773.528	3647
773.635	3578
773.742	4167
773.849	3616
773.956	3843
774.063	3977
774.170	2928
774.277	4087
774.384	4082
774.491	3687
774.598	3171
774.705	3978
774.812	4116
774.919	5170
775.026	4874
775.133	4411
775.239	3944
775.346	4118
775.453	3947
775.560	4479
775.667	3606
775.773	3441
775.880	4224
775.987	3182
776.093	3087
776.200	2770
776.307	3512
776.413	4279
776.520	3691
776.627	3639
776.733	3846
776.840	3072
776.946	4679
777.053	3119
777.159	4322
777.266	4044
777.372	3965
777.478	4416
777.585	4329
777.691	4207
777.798	3623
777.904	4048
778.010	3843
778.117	5007
778.223	6168
778.329	2961
778.435	2929
778.542	3289
778.648	3143
778.754	2547
778.860	3340
778.966	3256
779.072	3148
779.178	3796
779.284	4079
779.391	3128
779.497	2439
779.603	3426
779.708	2679
779.815	2665
779.920	2710
780.026	5001
780.132	12670
780.238	6616
780.344	3427
780.450	3101
780.556	3181
780.661	3269
780.767	3529
780.873	3788
780.979	2991
781.085	2997
781.190	2806
781.296	3036
781.402	2708
781.507	2981
781.613	2912
781.719	2869
781.824	2456
781.930	3276
782.035	2720
782.141	2097
782.246	3179
782.352	2037
782.457	2172
782.563	2823
782.668	2277
782.773	2808
782.879	2586
782.984	2817
783.090	3319
783.195	3490
783.300	4115
783.405	4797
783.511	3091
783.616	2930
783.721	3038
783.826	2954
783.932	3347
784.037	3062
784.142	2750
784.247	2865
784.352	2688
784.457	3052
784.562	2824
784.667	2304
784.772	3016
784.877	3143
784.982	2663
785.087	3465
785.192	2444
785.297	2161
785.402	2262
785.507	2637
785.611	2767
785.716	2115
785.821	3458
785.926	2988
786.031	1768
786.135	2284
786.240	2724
786.345	2367
786.450	2199
786.554	2365
786.659	2235
786.763	2859
786.868	2338
786.973	2053
787.077	2105
787.182	2066
787.286	1970
787.391	2026
787.495	2674
787.600	2467
787.704	1762
787.809	1856
787.913	2275
788.017	2050
788.122	2934
788.226	2716
788.330	2022
788.435	1991
788.539	2089
788.643	2238
788.747	2334
788.852	1738
788.956	2551
789.060	1933
789.164	2334
789.268	1323
789.372	2153
789.476	2849
789.580	1786
789.684	1702
789.788	2233
789.892	1628
789.996	2671
790.100	2565
790.204	2113
790.308	1699
790.412	1947
790.516	1792
790.620	1965
790.724	2408
790.828	2382
790.931	2189
791.035	2012
791.139	1844
791.242	2248
791.346	2386
791.450	2425
791.554	1705
791.657	1645
791.761	2534
791.864	1894
791.968	2198
792.072	2155
792.175	2511
792.279	1232
792.382	1951
792.486	2462
792.589	2059
792.693	2571
792.796	2522
792.899	1915
793.003	1580
793.106	2717
793.209	2071
793.313	1981
793.416	2515
793.519	1868
793.623	1755
793.726	2974
793.829	5160
793.932	2862
794.035	2098
794.138	2316
794.242	2192
794.345	2282
794.448	2810
794.551	2423
794.654	4403
794.757	5068
794.860	6658
794.963	4447
795.066	2709
795.169	2633
795.272	2248
795.375	1850
795.477	2167
795.580	1868
795.683	1697
795.786	1398
795.889	1627
795.991	2242
796.094	1323
796.197	1996
796.300	2471
796.402	1845
796.505	1697
796.608	1799
796.710	1813
796.813	1102
796.915	1746
797.018	2589
797.120	1826
797.223	1985
797.326	1352
797.428	1314
797.530	1578
797.633	1952
797.735	1397
797.838	1125
797.940	2788
798.042	3746
798.145	2332
798.247	1340
798.349	1288
798.452	750
798.554	1664
798.656	1823
798.758	1894
798.860	1865
798.962	2007
799.065	1052
799.167	1656
799.269	1667
799.371	1501
799.473	1714
799.575	1526
799.677	2547
799.779	3190
799.881	1819
799.983	3462
800.085	3250
800.187	1895
800.289	1322
800.390	1758
800.492	1853
800.594	2307
800.696	1167
800.798	1317
800.899	2406
801.001	1563
801.103	1322
801.205	1759
801.306	1695
801.408	1516
801.509	1727
801.611	1160
801.713	1469
801.814	1208
801.916	1537
802.017	1743
802.119	1556
802.220	1502
802.322	867
802.423	1573
802.525	1619
802.626	2005
802.727	1301
802.829	1544
802.930	1930
803.031	2255
803.133	1280
803.234	877
803.335	780
803.436	1140
803.538	1605
803.639	965
803.740	1193
803.841	1266
803.942	1048
804.043	1968
804.144	1094
804.245	1681
804.346	701
804.447	1424
804.548	1237
804.649	2234
804.750	2220
804.851	2401
804.952	1103
805.053	1030
805.154	1642
805.255	2019
805.355	1287
805.456	1094
805.557	602
805.658	1203
805.758	1569
805.859	994
805.960	766
806.061	1074
806.161	1474
806.262	704
806.362	1591
806.463	1286
806.564	902
806.664	1179
806.765	1417
806.865	1006
806.966	2427
807.066	1519
807.166	1736
807.267	1865
807.367	1118
807.468	905
807.568	1988
807.668	1681
807.769	1398
807.869	795
807.969	1312
808.069	1395
808.170	678
808.270	1056
808.370	743
808.470	1659
808.570	2136
808.670	2361
808.770	1481
808.870	1613
808.970	1178
809.070	653
809.170	1283
809.271	1493
809.370	1277
809.470	1603
809.570	1088
809.670	590
809.770	1426
809.870	1412
809.970	1312
810.070	1158
810.169	1304
810.269	1036
810.369	1076
810.469	573
810.568	1713
810.668	1742
810.768	1067
810.867	945
810.967	1123
811.066	968
811.166	1136
811.265	911
811.365	1127
811.464	1408
811.564	1019
811.663	1115
811.763	878
811.862	1984
811.962	1264
812.061	1277
812.160	497
812.260	2079
812.359	1511
812.458	1409
812.557	3661
812.657	7896
812.756	19130
812.855	12431
812.954	3193
813.053	2173
813.153	826
813.252	2122
813.351	818
813.450	1171
813.549	944
813.648	1849
813.747	2527
813.846	1391
813.945	1961
814.044	1912
814.143	1186
814.242	1608
814.341	1428
814.439	1794
814.538	1987
814.637	1979
814.736	2093
814.835	1720
814.933	2078
815.032	2457
815.131	1970
815.229	1920
815.328	2620
815.427	3174
815.525	3202
815.624	2780
815.722	2765
815.821	2564
815.919	3213
816.018	3316
816.116	3269
816.215	3530
816.313	3770
816.412	3918
816.510	4361
816.609	4893
816.707	4024
816.805	4784
816.904	5132
817.002	5094
817.100	6024
817.198	6893
817.296	7295
817.395	7533
817.493	9246
817.591	11439
817.689	13579
817.787	16977
817.885	21624
817.983	32127
818.081	52054
818.179	95218
818.277	190504
818.375	396222
818.473	544155
818.571	314482
818.669	131386
818.767	73310
818.865	53625
818.963	51066
819.061	54152
819.158	67579
819.256	101577
819.354	171860
819.452	316824
819.549	555982
819.647	603140
819.745	374687
819.842	179223
819.940	98790
820.038	63530
820.135	45947
820.233	33486
820.330	26259
820.428	21414
820.525	17417
820.623	15152
820.720	12661
820.818	11943
820.915	9938
821.012	8996
821.110	8431
821.207	7197
821.304	6693
821.402	6398
821.499	6483
821.596	6194
821.693	5230
821.791	5175
821.888	4534
821.985	4560
822.082	6683
822.179	8220
822.276	5139
822.373	4031
822.470	4500
822.567	2858
822.664	3312
822.761	3622
822.858	3200
822.955	2851
823.052	2379
823.149	2572
823.246	2743
823.343	2358
823.440	2510
823.536	2166
823.633	1623
823.730	1918
823.827	2199
823.923	1523
824.020	3025
824.117	1755
824.213	2195
824.310	2631
824.407	2332
824.503	1999
824.600	2185
824.696	1806
824.793	1752
824.889	1387
824.986	2061
825.082	1542
825.179	1932
825.275	1325
825.371	1859
825.468	1844
825.564	1419
825.660	1468
825.757	1240
825.853	1819
825.949	1312
826.045	2019
826.142	832
826.238	1721
826.334	1625
826.430	713
826.526	1530
826.622	517
826.718	1093
826.814	1551
826.910	1586
827.006	1577
827.102	1378
827.198	1573
827.294	954
827.390	1427
827.486	1512
827.582	233
827.678	877
827.774	1706
827.869	943
827.965	1363
828.061	1155
828.157	846
828.252	1464
828.348	1502
828.444	1531
828.539	940
828.635	1752
828.731	1623
828.826	771
828.922	1606
829.017	820
829.113	1301
829.208	960
829.304	1136
829.399	1102
829.495	2166
829.590	1632
829.685	1486
829.781	339
829.876	889
829.971	1571
830.066	313
830.162	220
830.257	1076
830.352	516
830.447	1860
830.543	754
830.638	1065
830.733	1879
830.828	975
830.923	1282
831.018	753
831.113	604
831.208	611
831.303	1157
831.398	895
831.493	1126
831.588	1013
831.683	1311
831.778	655
831.873	918
831.967	478
832.062	-370
832.157	1197
832.252	1304
832.346	1218
832.441	1242
832.536	1453
832.631	1695
832.725	3076
832.820	5478
832.914	2066
833.009	1268
833.104	1253
833.198	2000
833.293	1368
833.387	1349
833.482	346
833.576	900
833.670	1313
833.765	753
833.859	288
833.954	1262
834.048	1946
834.142	1160
834.237	1042
834.331	843
834.425	1325
834.519	566
834.613	1606
834.708	814
834.802	853
834.896	720
834.990	694
835.084	407
835.178	582
835.272	1289
835.366	819
835.460	1003
835.554	675
835.648	635
835.742	161
835.836	850
835.930	255
836.024	768
836.117	898
836.211	583
836.305	783
836.399	1570
836.493	1830
836.586	1979
836.680	572
836.774	1418
836.867	140
836.961	205
837.055	137
837.148	203
837.242	701
837.335	414
837.429	629
837.522	572
837.616	1117
837.709	1989
837.803	1243
837.896	2660
837.989	1201
838.083	1266
838.176	1245
838.269	2295
838.363	3780
838.456	1381
838.549	930
838.642	723
838.735	2091
838.829	4599
838.922	4032
839.015	1260
839.108	1188
839.201	574
839.294	-49
839.387	906
839.480	431
839.573	730
839.666	1290
839.759	1701
839.852	1264
839.945	692
840.038	577
840.131	222
840.223	560
840.316	1065
840.409	289
840.502	269
840.594	168
840.687	524
840.780	781
840.873	-342
840.965	204
841.058	550
841.150	844
841.243	1993
841.336	2756
841.428	571
841.521	334
841.613	668
841.706	1139
841.798	329
841.890	343
841.983	375
842.075	1089
842.167	-103
842.260	-103
842.352	711
842.444	534
842.537	1424
842.629	2462
842.721	4504
842.813	2787
842.905	207
842.997	619
843.090	292
843.182	853
843.274	980
843.366	2103
843.458	5266
843.550	12178
843.642	13663
843.734	3701
843.826	302
843.918	538
844.009	1801
844.101	851
844.193	517
844.285	739
844.377	837
844.469	1320
844.560	700
844.652	512
844.744	805
844.835	1132
844.927	588
845.019	500
845.110	894
845.202	773
845.293	12
845.385	796
845.476	-2
845.568	625
845.659	721
845.751	1450
845.842	327
845.934	2
846.025	135
846.116	98
846.208	366
846.299	31
846.390	211
846.482	-340
846.573	-358
846.664	792
846.755	1488
846.846	1729
846.937	3087
847.029	334
847.120	893
847.211	-82
847.302	843
847.393	-107
847.484	288
847.575	-78
847.666	-314
847.757	395
847.847	289
847.938	846
848.029	-492
848.120	784
848.211	-183
848.302	383
848.392	812
848.483	725
848.574	214
848.664	-54
848.755	133
848.846	-40
848.936	722
849.027	511
849.118	719
849.208	178
849.299	358
849.389	1205
849.480	995
849.570	2224
849.661	5282
849.751	8994
849.841	19380
849.932	16095
850.022	2948
850.112	870
850.203	1254
850.293	-414
850.383	547
850.474	79
850.564	606
850.654	301
850.744	657
850.834	-351
850.924	577
851.014	-205
851.104	-102
851.194	1183
851.284	818
851.374	623
851.464	1838
851.554	1077
851.644	734
851.734	10
851.824	489
851.914	1338
852.004	1005
852.094	129
852.183	786
852.273	669
852.363	-24
852.452	304
852.542	449
852.632	307
852.721	-11
852.811	-78
852.901	223
852.990	119
853.080	596
853.169	-269
853.259	808
853.348	-312
853.438	372
853.527	686
853.617	1112
853.706	1965
853.795	4185
853.885	7151
853.974	14520
854.063	32549
854.152	53873
854.242	111009
854.331	91256
854.420	17903
854.509	4329
854.598	2538
854.687	2130
854.777	2096
854.866	961
854.955	1651
855.044	635
855.133	849
855.222	320
855.311	963
855.400	812
855.488	693
855.577	-85
855.666	1150
855.755	250
855.844	730
855.933	348
856.021	273
856.110	161
856.199	708
856.288	394
856.376	251
856.465	169
856.554	-669
856.642	1006
856.731	864
856.819	-438
856.908	-272
856.996	286
857.085	555
857.173	58
857.262	-137
857.350	628
857.438	-52
857.527	45
857.615	-211
857.703	-598
857.792	214
857.880	265
857.968	348
858.056	382
858.145	-213
858.233	140
858.321	-487
858.409	-122
858.497	108
858.585	384
858.673	308
858.761	-170
858.849	285
858.937	-13
859.025	460
859.113	267
859.201	488
859.289	640
859.377	1285
859.465	279
859.552	-110
859.640	-139
859.728	666
859.816	637
859.903	893
859.991	87
860.079	545
860.166	65
860.254	536
860.342	128
860.429	-255
860.517	-66
860.604	191
860.692	-159
860.779	-770
860.867	36
860.954	-335
861.042	181
861.129	-194
861.216	1421
861.304	-285
861.391	-78
861.478	-35
861.565	739
861.653	384
861.740	-144
861.827	703
861.914	-454
862.001	-307
862.089	581
862.176	-52
862.263	-110
862.350	475
862.437	-661
862.524	-584
862.611	203
862.698	427
862.785	-296
862.871	55
862.958	194
863.045	-255
863.132	-151
863.219	351
863.306	-143
863.392	841
863.479	-17
863.566	307
863.652	342
863.739	-49
863.826	599
863.912	42
863.999	-27
864.086	125
864.172	260
864.259	83
864.345	-166
864.432	263
864.518	-643
864.604	585
864.691	103
864.777	845
864.863	916
864.950	552
865.036	489
865.122	486
865.209	781
865.295	1039
865.381	935
865.467	1047
865.553	1002
865.639	1559
865.726	1351
865.812	4141
865.898	7321
865.984	16851
866.070	26713
866.156	39495
866.242	75058
866.328	38776
866.414	6899
866.499	2498
866.585	1285
866.671	1419
866.757	870
866.843	656
866.928	1449
867.014	881
867.100	736
867.186	1231
867.271	920
867.357	1043
867.442	828
867.528	2215
867.614	1761
867.699	668
867.785	707
867.870	1185
867.956	561
868.041	1175
868.127	880
868.212	1014
868.297	1139
868.383	1167
868.468	1108
868.553	1419
868.639	2317
868.724	3148
868.809	3737
868.894	7548
868.979	3525
869.065	835
869.150	516
869.235	520
869.320	474
869.405	-474
869.490	293
869.575	121
869.660	367
869.745	463
869.830	224
869.915	85
870.000	858
870.085	290
870.169	279
870.254	708
870.339	353
870.424	-293
870.509	337
870.593	-393
870.678	79
870.763	156
870.847	604
870.932	-781
871.016	367
871.101	1040
871.186	152
871.270	469
871.355	-8
871.439	370
871.523	168
871.608	-551
871.692	-458
871.777	153
871.861	54
871.945	-231
872.030	171
872.114	-247
872.198	-28
872.282	-23
872.367	-352
872.451	-651
872.535	-227
872.619	-64
872.703	82
872.787	-565
872.871	-362
872.955	271
873.039	378
873.123	-97
873.207	191
873.291	35
873.375	100
873.459	-414
873.543	-5
873.627	260
873.711	304
873.794	-524
873.878	-539
873.962	-600
874.045	-546
874.129	-135
874.137	-61
874.213	678
874.245	351
874.296	-175
874.352	-37
874.380	28
874.460	-629
874.464	-656
874.547	385
874.568	263
874.631	-83
874.676	-324
874.714	-544
874.784	-111
874.798	-21
874.881	33
874.892	8
874.965	-195
874.999	-40
875.048	200
875.107	-142
875.131	-275
875.215	-218
875.215	-218
875.298	109
875.323	285
875.381	761
875.430	632
875.465	481
875.538	532
875.548	559
875.631	166
875.646	177
875.714	143
875.753	-109
875.798	-360
875.861	-177
875.881	-150
875.964	426
875.968	418
876.047	415
876.076	423
876.130	413
876.183	423
876.213	413
876.291	312
876.296	309
876.379	483
876.398	576
876.462	796
876.506	368
876.545	5
876.613	419
876.628	515
876.711	41
876.721	14
876.794	-148
876.828	67
876.877	323
876.935	-25
876.960	-165
877.043	323
877.043	323
877.125	265
877.150	351
877.208	492
877.258	174
877.291	-15
877.365	278
877.374	292
877.456	116
877.472	207
877.539	710
877.579	391
877.622	37
877.687	722
877.704	940
877.787	84
877.794	152
877.869	676
877.901	393
877.952	51
878.008	187
878.034	192
878.115	-181
878.117	-186
878.199	157
878.222	101
878.282	-32
878.329	88
878.364	217
878.437	402
878.447	400
878.529	599
878.544	524
878.611	272
878.651	337
878.694	411
878.758	85
878.776	-4
878.858	97
878.865	104
878.941	72
878.972	-56
879.023	-99
879.078	269
879.105	351
879.185	-0
879.187	-1
879.269	93
879.292	265
879.351	403
879.399	107
879.433	86
879.506	118
879.516	102
879.598	-455
879.613	-338
879.680	-29
879.720	-14
879.762	156
879.827	-324
879.844	-453
879.926	16
879.933	31
880.007	184
880.040	280
880.089	419
880.147	489
880.171	411
880.253	370
880.254	375
880.335	1779
880.360	2312
880.417	3283
880.467	3458
880.499	3710
880.574	5574
880.580	5718
880.662	10741
880.680	9961
880.744	6238
880.787	3595
880.825	1685
880.893	476
880.907	238
880.989	333
881.000	349
881.070	515
881.106	349
881.152	93
881.213	121
881.233	108
881.315	200
881.319	195
881.396	375
881.426	246
881.478	-304
881.532	-381
881.559	-236
881.639	-34
881.641	-30
881.722	290
881.745	276
881.803	118
881.852	75
881.885	116
881.958	-33
881.966	-57
882.047	-12
882.064	-40
882.129	-145
882.171	242
882.210	668
882.277	374
882.291	265
882.372	815
882.383	885
882.454	1692
882.489	1274
882.535	529
882.596	359
882.616	361
882.697	325
882.702	363
882.778	470
882.808	81
882.859	-276
882.914	-132
882.940	-96
883.020	-224
883.021	-220
883.102	4
883.127	262
883.183	423
883.233	-108
883.264	-291
883.339	91
883.345	145
883.426	572
883.445	646
883.507	519
883.551	449
883.587	463
883.657	166
883.668	88
883.749	49
883.763	-2
883.830	132
883.869	293
883.910	169
883.975	95
883.991	124
884.072	-497
884.081	-485
884.152	201
884.187	491
884.233	535
884.292	396
884.314	358
884.394	249
884.398	254
884.475	536
884.504	501
884.555	339
884.610	196
884.636	48
884.716	-83
884.716	-79
884.797	282
884.821	311
884.877	350
884.927	418
884.958	418
885.033	541
885.038	510
885.118	-97
885.139	-249
885.199	-73
885.244	-16
885.279	-15
885.350	27
885.359	49
885.439	359
885.456	390
885.520	209
885.561	71
885.600	324
885.667	888
885.680	826
885.760	225
885.773	145
885.840	116
885.878	76
885.920	135
885.984	217
886.000	269
886.080	605
886.089	633
886.160	356
886.195	179
886.240	224
886.300	381
886.320	391
886.400	271
886.406	268
886.480	215
886.511	228
886.560	287
886.616	152
886.640	151
886.720	367
886.722	366
886.800	390
886.827	413
886.879	102
886.932	-114
886.959	50
887.038	394
887.039	399
887.119	633
887.143	649
887.198	306
887.248	33
887.278	278
887.354	758
887.358	749
887.437	583
887.459	491
887.517	129
887.564	-14
887.596	56
887.669	56
887.676	131
887.755	1172
887.774	1345
887.835	532
887.880	53
887.914	220
887.985	550
887.994	538
888.073	286
888.090	238
888.153	601
888.195	897
888.232	916
888.300	871
888.311	873
888.391	837
888.405	823
888.470	377
888.510	137
888.549	412
888.615	835
888.628	757
888.708	266
888.720	184
888.787	39
888.825	-46
888.866	134
888.930	410
888.945	415
889.024	441
889.035	441
889.103	75
889.140	-136
889.182	211
889.245	742
889.261	642
889.340	178
889.349	120
889.419	736
889.454	1049
889.498	744
889.559	317
889.577	389
889.656	703
889.664	733
889.735	203
889.768	-50
889.814	362
889.873	908
889.978	1019
890.083	1459
890.187	983
890.292	601
890.397	476
890.501	959
890.606	183
890.710	980
890.815	486
890.919	752
891.024	389
891.128	717
891.233	821
891.337	607
891.442	1440
891.546	372
891.650	349
891.755	341
891.859	658
891.963	1069
892.068	646
892.172	987
892.276	811
892.380	504
892.484	109
892.589	173
892.693	605
892.797	505
892.901	576
893.005	1929
893.109	489
893.213	1214
893.317	47
893.421	544
893.525	457
893.629	937
893.733	945
893.837	1248
893.941	442
894.045	1442
894.148	270
894.252	473
894.356	139
894.460	176
894.564	230
894.667	687
894.771	544
894.875	-297
894.978	925
895.082	1197
895.186	153
895.289	679
895.393	-96
895.496	1217
895.600	1138
895.703	-20
895.807	335
895.910	723
896.014	389
896.117	266
896.221	349
896.324	668
896.427	404
896.531	252
896.634	-187
896.737	911
896.840	153
896.944	523
897.047	312
897.150	756
897.253	686
897.356	972
897.460	466
897.563	121
897.666	259
897.769	1089
897.872	529
897.975	599
898.078	126
898.181	1256
898.284	173
898.387	462
898.490	166
898.593	972
898.695	592
898.798	620
898.901	169
899.004	364
899.107	631
899.209	657
899.312	173
899.415	826
899.518	721
899.620	911
899.723	-80
899.826	1302
899.928	379
900.031	1312
900.133	252
900.236	351
900.338	-159
900.441	518
900.543	894
900.646	409
900.748	646
900.851	1010
900.953	678
901.055	1023
901.158	129
901.260	863
901.362	485
901.465	555
901.567	427
901.669	604
901.771	420
901.873	1073
901.976	288
902.078	178
902.180	312
902.282	669
902.384	-268
902.486	869
902.588	957
902.690	969
902.792	907
902.894	789
902.996	538
903.098	1067
903.200	677
903.302	914
903.404	125
903.505	1434
903.607	494
903.709	807
903.811	714
903.913	194
904.014	623
904.116	1395
904.218	272
904.319	723
904.421	531
904.523	1020
904.624	1682
904.726	336
904.827	440
904.929	506
905.030	438
905.132	975
905.233	963
905.335	619
905.436	650
905.537	731
905.639	136
905.740	668
905.841	316
905.943	521
906.044	826
906.145	787
906.247	88
906.348	-258
906.449	1024
906.550	801
906.651	280
906.752	425
906.854	279
906.955	220
907.056	942
907.157	63
907.258	424
907.359	722
907.460	469
907.561	1016
907.662	453
907.762	689
907.863	327
907.964	481
908.065	-523
908.166	494
908.267	202
908.367	886
908.468	729
908.569	211
908.670	1329
908.770	876
908.871	384
908.971	738
909.072	254
909.173	1037
909.273	-45
909.374	701
909.474	572
909.575	495
909.675	1054
909.776	229
909.876	715
909.977	929
910.077	641
910.177	843
910.278	520
910.378	566
910.478	-407
910.579	1012
910.679	1177
910.779	778
910.879	-413
910.980	954
911.080	547
911.180	908
911.280	330
911.380	18
911.480	-39
911.580	254
911.680	759
911.780	247
911.880	-99
911.980	548
912.080	668
912.180	506
912.280	44
912.380	725
912.480	139
912.580	-118
912.679	-54
912.779	1455
912.879	-115
912.979	1026
913.078	739
913.178	580
913.278	699
913.377	630
913.477	932
913.577	1178
913.676	1093
913.776	873
913.875	689
913.975	425
914.074	585
914.174	1302
914.273	625
914.373	1172
914.472	42
914.572	946
914.671	-295
914.770	773
914.870	129
914.969	949
915.068	507
915.167	615
915.267	-302
915.366	354
915.465	515
915.564	1114
915.663	360
915.763	138
915.862	289
915.961	790
916.060	517
916.159	513
916.258	-88
916.357	504
916.456	552
916.555	430
916.654	2
916.752	382
916.851	51
916.950	682
917.049	343
917.148	281
917.247	574
917.345	623
917.444	631
917.543	988
917.642	72
917.740	311
917.839	766
917.937	678
918.036	381
918.135	785
918.233	1219
918.332	-65
918.430	242
918.529	166
918.627	813
918.726	825
918.824	576
918.923	511
919.021	1259
919.119	7
919.218	469
919.316	281
919.414	790
919.512	935
919.611	664
919.709	783
919.807	807
919.905	531
920.003	146
920.102	165
920.200	414
920.298	362
920.396	83
920.494	1151
920.592	449
920.690	654
920.788	748
920.886	656
920.984	482
921.082	899
921.180	1194
921.277	574
921.375	1004
921.473	985
921.571	1459
921.669	663
921.766	239
921.864	1462
921.962	642
922.060	1290
922.157	391
922.255	605
922.352	1013
922.450	1455
922.548	692
922.645	1114
922.743	1041
922.840	800
922.938	1623
923.035	1868
923.133	954
923.230	1168
923.327	778
923.425	1587
923.522	1247
923.619	1670
923.717	1093
923.814	828
923.911	1422
924.008	1818
924.106	1177
924.203	1090
924.300	271
924.397	1032
924.494	1517
924.591	1537
924.688	2449
924.786	1160
924.883	1040
924.979	1025
925.077	1465
925.173	978
925.270	1580
925.367	746
925.464	1616
925.561	1016
925.658	1045
925.755	1661
925.852	688
925.948	1318
926.045	874
926.142	880
926.239	881
926.335	1119
926.432	1283
926.529	942
926.625	1457
926.722	2015
926.818	1447
926.915	1124
927.011	1285
927.108	1187
927.204	585
927.301	979
927.397	1025
927.494	1116
927.590	1040
927.687	1089
927.783	911
927.879	1334
927.976	1454
928.072	1516
928.168	1101
928.264	1435
928.361	1401
928.457	936
928.553	459
928.649	1348
928.745	1264
928.841	1421
928.937	849
929.033	948
929.129	1008
929.225	1241
929.321	815
929.417	663
929.513	1390
929.609	1252
929.705	859
929.801	679
929.897	1307
929.993	1119
930.089	187
930.184	878
930.280	1075
930.376	972
930.471	889
930.567	1224
930.663	1436
930.758	1290
930.854	1114
930.950	1447
931.045	721
931.141	1267
931.236	1515
931.332	1155
931.427	683
931.523	662
931.618	1199
931.714	796
931.809	540
931.905	2256
932.000	333
932.095	543
932.191	416
932.286	470
932.381	380
932.476	1680
932.572	1141
932.667	1194
932.762	328
932.857	1486
932.952	1042
933.047	1058
933.142	897
933.237	470
933.332	760
933.427	509
933.522	976
933.617	954
933.712	1118
933.807	1246
933.902	108
933.997	978
934.092	883
934.187	410
934.282	664
934.376	772
934.471	993
934.566	1455
934.661	417
934.755	1941
934.850	284
934.945	1350
935.039	868
935.134	677
935.228	597
935.323	223
935.417	1082
935.512	525
935.606	552
935.701	381
935.795	351
935.890	1351
935.984	358
936.079	1805
936.173	425
936.267	151
936.362	980
936.456	1106
936.550	1231
936.644	500
936.738	1691
936.833	473
936.927	493
937.021	254
937.115	315
937.209	1048
937.303	1263
937.397	158
937.491	1229
937.585	1341
937.679	1363
937.773	1392
937.867	666
937.961	396
938.055	71
938.149	1437
938.243	496
938.337	1522
938.430	713
938.524	388
938.618	594
938.712	811
938.805	555
938.899	299
938.993	377
939.086	628
939.180	1156
939.274	1010
939.367	909
939.461	1028
939.554	845
939.648	467
939.741	639
939.835	720
939.928	23
940.022	404
940.115	939
940.208	200
940.302	424
940.395	1250
940.488	886
940.582	901
940.675	632
940.768	677
940.861	391
940.954	224
941.048	836
941.141	1092
941.234	171
941.327	114
941.420	1209
941.513	1559
941.606	613
941.699	1137
941.792	201
941.885	858
941.978	996
942.071	286
942.164	111
942.257	940
942.349	878
942.442	-360
942.535	394
942.628	402
942.721	-68
942.813	704
942.906	1010
942.999	547
943.091	1405
943.184	754
943.277	589
943.369	1385
943.462	-95
943.554	765
943.647	677
943.739	219
943.832	858
943.924	850
944.017	795
944.109	898
944.201	261
944.294	799
944.386	70
944.478	1174
944.571	966
944.663	645
944.755	278
944.847	539
944.940	-222
945.032	662
945.124	1091
945.216	597
945.308	8
945.400	565
945.492	15
945.584	817
945.676	334
945.768	497
945.860	339
945.952	352
946.044	830
946.136	1097
946.228	101
946.320	-245
946.412	434
946.503	900
946.595	-237
946.687	754
946.779	-334
946.870	572
946.962	-55
947.054	249
947.145	430
947.237	-90
947.329	78
947.420	523
947.512	194
947.603	616
947.695	519
947.786	293
947.878	422
947.969	185
948.061	81
948.152	619
948.243	453
948.335	678
948.426	89
948.517	326
948.609	770
948.700	867
948.791	8
948.882	344
948.973	95
949.065	1032
949.156	670
949.247	1044
949.338	491
949.429	620
949.520	552
949.611	927
949.702	208
949.793	22
949.884	76
949.975	39
950.066	-168
950.157	310
950.247	138
950.338	-180
950.429	548
950.520	-182
950.611	-56
950.701	495
950.792	-60
950.883	773
950.973	544
951.064	515
951.155	284
951.245	398
951.336	-95
951.427	397
951.517	-554
951.608	385
951.698	-294
951.788	721
951.879	145
951.969	210
952.060	188
952.150	625
952.240	327
952.331	-135
952.421	204
952.511	-103
952.602	170
952.692	338
952.782	292
952.872	30
952.962	-93
953.052	570
953.143	977
953.233	-77
953.323	246
953.413	-584
953.503	-278
953.593	-697
953.683	69
953.773	876
953.863	206
953.953	-85
954.042	-353
954.132	-19
954.222	-667
954.312	-146
954.402	299
954.492	915
954.581	77
954.671	457
954.761	169
954.850	813
954.940	367
955.030	833
955.119	-15
955.209	701
955.298	-120
955.388	598
955.477	-561
955.567	-14
955.656	281
955.746	179
955.835	-499
955.925	-185
956.014	-365
956.103	-182
956.193	28
956.282	40
956.371	548
956.461	35
956.550	655
956.639	41
956.728	148
956.817	37
956.906	522
956.995	1071
957.085	-182
957.174	-267
957.263	-145
957.352	748
957.441	-770
957.530	717
957.619	163
957.708	-155
957.796	417
957.885	551
957.974	-184
958.063	448
958.152	-205
958.241	794
958.329	348
958.418	638
958.507	751
958.596	218
958.684	263
958.773	429
958.861	425
958.950	136
959.039	-327
959.127	-388
959.216	40
959.304	389
959.393	289
959.481	507
959.570	331
959.658	450
959.746	-254
959.835	227
959.923	-757
960.011	264
960.100	-248
960.188	1047
960.276	80
960.365	284
960.453	-481
960.541	-623
960.629	-77
960.717	-237
960.805	-223
960.893	210
960.981	-358
961.069	390
961.158	158
961.245	-69
961.333	-13
961.421	584
961.509	478
961.597	350
961.685	235
961.773	-33
961.861	457
961.949	51
962.036	597
962.124	85
962.212	344
962.299	487
962.387	-128
962.475	-74
962.562	-483
962.650	665
962.738	112
962.825	-2
962.913	213
963.000	8
963.088	168
963.175	142
963.263	213
963.350	527
963.438	-785
963.525	560
963.612	-187
963.700	-242
963.787	1135
963.874	2873
963.962	1070
964.049	649
964.136	115
964.223	271
964.310	-1045
964.398	-237
964.485	-272
964.572	-480
964.659	-278
964.746	674
964.833	370
964.920	275
965.007	-652
965.094	-354
965.181	719
965.268	732
965.355	21
965.441	-10
965.528	-382
965.615	-38
965.702	-401
965.789	9
965.875	184
965.962	-9
966.049	314
966.136	720
966.222	282
966.309	125
966.395	305
966.482	102
966.569	371
966.655	97
966.742	-134
966.828	538
966.915	-464
967.001	-451
967.087	-320
967.174	-5
967.260	177
967.347	806
967.433	76
967.519	434
967.605	1097
967.692	70
967.778	252
967.864	467
967.950	-489
968.036	149
968.123	913
968.209	554
968.295	17
968.381	33
968.467	834
968.553	-415
968.639	180
968.725	100
968.811	331
968.897	302
968.983	-902
969.069	-270
969.154	176
969.240	-193
969.326	-59
969.412	-234
969.497	-665
969.583	-29
969.669	-14
969.755	747
969.840	-363
969.926	46
970.012	-428
970.097	322
970.183	-646
970.268	119
970.354	22
970.439	-39
970.525	-111
970.610	349
970.696	814
970.781	579
970.866	-330
970.952	66
971.037	-846
971.122	4
971.208	-449
971.293	91
971.378	-352
971.463	577
971.549	-786
971.634	-81
971.719	-502
971.804	221
971.889	421
971.974	-302
972.059	168
972.144	-300
972.229	-60
972.314	674
972.399	304
972.484	-440
972.569	-777
972.654	31
972.739	-275
972.824	221
972.908	-459
972.993	383
973.078	-343
973.163	206
973.247	-790
973.332	-619
973.417	181
973.501	-258
973.586	95
973.671	-558
973.755	80
973.840	377
973.924	-747
974.009	-384
974.093	-1038
974.178	-161
974.262	-126
974.346	217
974.431	251
974.515	-54
974.600	-907
974.684	-17
974.768	-514
974.852	171
974.937	-58
975.021	642
975.105	97
975.189	-581
975.273	-423
975.358	427
975.442	-550
975.526	70
975.610	-228
975.694	-755
975.778	321
975.862	195
975.946	-1071
976.030	-135
976.114	-1236
976.198	40
976.281	-786
976.365	-527
976.449	-310
976.533	-221
976.617	-586
976.700	291
976.784	-443
976.868	-107
976.951	-268
977.035	-464
977.119	157
977.202	-205
977.286	323
977.369	90
977.453	-587
977.536	170
977.620	-1093
977.703	-310
977.787	122
977.870	767
977.953	-283
978.037	-344
978.120	-201
978.203	234
978.287	-780
978.370	906
978.453	-485
978.536	154
978.620	-434
978.703	-348
978.786	-535
978.869	-272
978.952	-482
979.035	92
979.118	367
979.201	-668
979.284	214
979.367	-188
979.450	-531
979.533	-62
979.616	-492
979.699	-505
979.782	-375
979.865	-623
979.948	-554
980.030	-452
980.113	-398
980.196	-536
980.279	-493
980.361	-659
980.444	-616
980.526	-106
980.609	25
980.692	-431
980.774	-296
980.857	592
980.939	83
981.022	-475
981.104	-976
981.187	42
981.269	-99
981.352	-245
981.434	-794
981.516	-811
981.599	-691
981.681	2
981.763	-983
981.846	104
981.928	-685
982.010	-859
982.092	-191
982.174	440
982.256	-172
982.339	264
982.421	-770
982.503	-422
982.585	-386
982.667	-628
982.749	-236
982.831	38
982.913	-1200
982.995	-184
983.077	-256
983.158	-380
983.240	-634
983.322	247
983.404	-888
983.486	-129
983.568	-520
983.649	-686
983.731	65
983.813	-89
983.894	-615
983.976	-724
984.058	-681
984.139	-86
984.221	-364
984.302	65
984.384	100
984.465	123
984.547	-564
984.628	-221
984.710	-678
984.791	-419
984.872	-910
984.954	-97
985.035	-578
985.116	-526
985.198	-658
985.279	38
985.360	-747
985.441	-507
985.522	-1270
985.604	124
985.685	-963
985.766	494
985.847	-1202
985.928	-624
986.009	-600
986.090	-645
986.171	-152
986.252	70
986.333	-595
986.414	40
986.495	-753
986.576	-256
986.656	-901
986.737	-890
986.818	-707
986.899	-267
986.980	-701
987.060	487
987.141	-377
987.222	-124
987.302	300
987.383	-14
987.464	-310
987.544	109
987.625	-838
987.705	-280
987.786	134
987.866	-300
987.947	-206
988.027	215
988.108	-244
988.188	-615
988.268	-429
988.349	-118
988.429	-475
988.509	-620
988.589	-1607
988.670	-63
988.750	-363
988.830	-183
988.910	308
988.990	-568
989.070	-517
989.151	-546
989.231	-290
989.311	-440
989.391	390
989.471	-245
989.551	-411
989.631	-561
989.711	-488
989.791	-554
989.870	-332
989.950	-476
990.030	-500
990.110	-555
990.190	-1412
990.269	-556
990.349	-589
990.429	-569
990.509	-113
990.588	-535
990.668	265
990.747	-596
990.827	-126
990.907	-423
990.986	-882
991.066	50
991.145	-598
991.225	-986
991.304	-359
991.383	86
991.463	-1013
991.542	262
991.622	563
991.701	167
991.780	-884
991.859	-636
991.939	-1150
992.018	-743
992.097	-718
992.176	-326
992.256	-415
992.335	-405
992.414	-848
992.493	-136
992.572	-431
992.651	-957
992.730	-228
992.809	-187
992.888	-517
992.967	-219
993.046	-1175
993.125	-645
993.203	-551
993.282	-514
993.361	-1365
993.440	-349
993.519	-914
993.597	-16
993.676	-523
993.755	-406
993.834	-900
993.912	-49
993.991	-562
994.069	-960
994.148	-544
994.226	-502
994.305	-644
994.384	-982
994.462	-634
994.540	-1189
994.619	-902
994.697	306
994.776	-1416
994.854	-559
994.932	-1030
995.011	-574
995.089	-1472
995.167	-323
995.245	-1530
995.324	-752
995.402	-316
995.480	-835
995.558	-850
995.636	-579
995.714	-728
995.792	-647
995.870	-1041
995.948	-1353
996.026	-964
996.104	-651
996.182	-714
996.260	-538
996.338	-1196
996.416	-475
996.494	-1329
996.572	-630
996.649	-788
996.727	-1251
996.805	-485
996.883	-374
996.960	-524
997.038	-679
997.116	-593
997.193	-1114
997.271	-682
997.348	-708
997.426	-245
997.504	-664
997.581	-762
997.658	-190
997.736	-1309
997.813	-29
997.891	-1225
997.968	-803
998.046	-353
998.123	-590
998.200	-627
998.277	-1475
998.355	-1143
998.432	-577
998.509	-1225
998.586	-829
998.663	-661
998.741	-485
998.818	-1207
998.895	-569
998.972	-465
999.049	-410
999.126	-781
999.203	-1029
999.280	-1480
999.357	-692
999.434	-1171
999.511	-888
999.587	-643
999.664	-867
999.741	-814
999.818	-1458
999.895	-494
999.971	-799
1000.048	-471
1000.125	-351
1000.202	-636
1000.278	-909
1000.355	-618
1000.431	-711
1000.508	-790
1000.584	-239
1000.661	-734
1000.738	-188
1000.814	-888
1000.890	-493
1000.967	-1000
1001.043	-372
1001.120	-1382
1001.196	-637
1001.272	-629
1001.349	-143
1001.425	-1048
1001.501	-182
1001.577	-1073
1001.654	-756
1001.730	-367
1001.806	-178
1001.882	-1091
1001.958	-243
1002.034	-109
1002.110	-660
1002.186	-1653
1002.262	-406
1002.338	-469
1002.414	-879
1002.490	-569
1002.566	-1100
1002.642	-350
1002.718	-303
1002.794	-1165
1002.870	-638
1002.945	-815
1003.021	-560
1003.097	-1093
1003.173	-72
1003.248	-620
1003.324	-547
1003.400	-1061
1003.475	-370
1003.551	-1027
1003.626	-385
1003.702	-1325
1003.777	-424
1003.853	-538
1003.928	58
1004.004	-1079
1004.079	-361
1004.155	-1519
1004.230	-1608
1004.305	-621
1004.381	-997
1004.456	-1127
1004.531	-89
1004.607	-768
1004.682	-1152
1004.757	-863
1004.832	-720
1004.907	-168
1004.982	-489
1005.057	-959
1005.133	-861
1005.208	-1008
1005.283	-829
1005.358	-1025
1005.433	-884
1005.508	-893
1005.583	-682
1005.657	-1093
1005.732	-764
1005.807	-673
1005.882	-242
1005.957	-862
1006.032	-809
1006.106	-985
1006.181	-755
1006.256	-791
1006.331	-556
1006.405	-1478
1006.480	17
1006.554	-1178
1006.629	-455
1006.704	-655
1006.778	-1070
1006.853	-1181
1006.927	-893
1007.002	-1524
1007.076	-63
1007.150	-652
1007.225	-552
1007.299	-595
1007.373	-800
1007.448	-823
1007.522	-250
1007.596	-130
1007.671	-927
1007.745	-623
1007.819	-1130
1007.893	-1414
1007.967	-198
1008.041	-1057
1008.115	-345
1008.190	-708
1008.264	-682
1008.338	-1210
1008.412	-1083
1008.486	-1724
1008.560	-809
1008.633	-1334
1008.707	-477
1008.781	-809
1008.855	-585
1008.929	-386
1009.003	-303
1009.076	-1043
1009.150	-1160
1009.224	-330
1009.298	-1049
1009.371	-1089
1009.445	-877
1009.519	-447
1009.592	-446
1009.666	-567
1009.739	-878
1009.813	-788
1009.886	-806
1009.960	-1057
1010.033	-764
1010.107	-692
1010.180	-898
1010.253	-675
1010.327	-314
1010.400	-758
1010.473	-574
1010.547	-679
1010.620	-589
1010.693	-856
1010.766	-415
1010.840	-1241
1010.913	-201
1010.986	-1223
1011.059	-730
1011.132	-830
1011.205	-1094
1011.278	-1320
1011.351	-604
1011.424	-904
1011.497	-894
1011.570	-1523
1011.643	-707
1011.716	-1368
1011.789	-802
1011.862	-869
1011.934	-1045
1012.007	-1134
1012.080	-1288
1012.153	-635
1012.225	-568
1012.298	-1422
1012.371	-1009
1012.443	-842
1012.516	-1192
1012.588	-1188
1012.661	-640
1012.733	-995
1012.806	-1148
1012.879	-1136
1012.951	357
1013.023	-1908
1013.096	-737
1013.168	-1767
1013.241	-742
1013.313	-288
1013.385	-1092
1013.458	-1654
1013.530	-540
1013.602	-1092
1013.674	-1138
1013.746	-1034
1013.819	-655
1013.891	-1238
1013.963	-1065
1014.035	-562
1014.107	-315
1014.179	-1787
1014.251	-1073
1014.323	-859
1014.395	-1633
1014.467	-1236
1014.539	-375
1014.611	-1442
1014.683	-430
1014.754	-1280
1014.826	-1143
1014.898	-1221
1014.970	-1156
1015.042	-922
1015.113	-1083
1015.185	-1624
1015.257	-911
1015.328	-840
1015.400	-1886
1015.471	-1684
1015.543	-1446
1015.615	-1265
1015.686	-1804
1015.757	-1594
1015.829	-1436
1015.901	-1948
1015.972	-541
1016.043	-845
1016.115	-337
1016.186	-801
1016.257	-1247
1016.328	-1465
1016.400	-862
1016.471	-1089
1016.542	-1657
1016.613	-447
1016.685	-867
1016.756	-954
1016.827	-1342
1016.898	-1629
1016.969	-397
1017.040	-1657
1017.111	-1109
1017.182	-1561
1017.253	-1341
1017.324	-1024
1017.395	-850
1017.466	-1748
1017.537	-1370
1017.608	-1541
1017.678	-1574
1017.749	-1190
1017.820	-1313
1017.891	-1682
1017.961	-668
1018.032	-1436
1018.103	-557
1018.173	-1481
1018.244	-1767
1018.315	-1473
1018.385	-636
1018.456	-1256
1018.526	-362
1018.597	-949
1018.667	-1221
1018.738	-1748
1018.808	-1115
1018.878	-1625
1018.949	-888
1019.019	-903
1019.089	-493
1019.160	-557
1019.230	-689
1019.300	-830
1019.371	-1723
1019.441	-1504
1019.511	-655
1019.581	-1891
1019.651	-1076
1019.721	-1385
1019.791	-1436
1019.861	-1820
1019.931	-668
1020.001	-1649
1020.071	-1360
1020.141	-1907
1020.211	-1206
1020.281	-954
1020.351	-521
1020.421	-344
1020.491	-751
1020.560	-1438
1020.630	-1685
1020.700	-1085
1020.770	-1911
1020.839	-1179
1020.909	-1033
1020.979	-1339
1021.048	-620
1021.118	-1528
1021.187	-253
1021.257	-1206
1021.326	-540
1021.396	-1626
1021.465	-710
1021.535	-1477
1021.604	-1387
1021.674	-1173
1021.743	-1282
1021.812	-700
1021.882	-1165
1021.951	-1564
1022.020	-1068
1022.089	-915
1022.159	-1164
1022.228	-1036
1022.297	-1636
1022.366	-1468
1022.435	-451
1022.504	-1446
1022.573	-1288
1022.642	-1749
1022.711	-1379
1022.781	-1114
1022.849	-757
1022.918	-1059
1022.987	-1085
1023.056	-993
1023.125	-826
1023.194	-2285
1023.263	-1070
1023.331	-2261
1023.400	-1607
1023.469	-1028
1023.538	-857
1023.606	-1838
1023.675	-1189
1023.744	-1390
1023.812	-1190
1023.881	-1128
1023.949	-1336
1024.018	-1236
1024.086	-139
1024.155	-1240
1024.223	-1730
1024.292	-1028
1024.360	-1181
1024.429	-1256
1024.497	-510
1024.565	-1822
1024.634	-1224
1024.702	-1728
1024.770	-1292
1024.838	-1755
1024.907	-1347
1024.975	-1540
1025.043	-1369
1025.111	-1929
1025.179	-826
1025.247	-2101
1025.315	-1617
1025.383	-329
1025.451	-727
1025.519	-1164
1025.587	-1448
1025.655	-1974
1025.723	-1119
1025.791	-1627
1025.859	-1178
1025.927	-1686
1025.995	-881
1026.062	-2127
1026.130	-761
1026.198	-452
1026.266	-1447
1026.333	-1703
1026.401	-2240
1026.469	-1726
1026.536	-797
1026.604	-1398
1026.671	-1093
1026.739	-1244
1026.806	-2093
1026.874	-1539
1026.941	-829
1027.009	-2119
1027.076	-1650
1027.144	-1191
1027.211	-1020
1027.278	-1497
1027.345	-1423
1027.413	-789
1027.480	-1577
1027.547	-2497
1027.614	-608
1027.682	-1719
1027.749	-1513
1027.816	-2594
1027.883	-1085
1027.950	-1387
1028.017	-1655
1028.084	-1526
1028.151	-1292
1028.218	-1169
1028.285	-1506
1028.352	-1602
1028.419	-1692
1028.486	-2318
1028.553	-1708
1028.619	-1734
1028.686	-996
1028.753	-875
1028.820	-1171
1028.886	-1849
1028.953	-1749
1029.020	-980
1029.086	-1550
1029.153	-2192
1029.220	-1423
1029.286	-2204
1029.353	-1353
1029.419	-1236
1029.486	-946
1029.552	-1245
1029.619	-1696
1029.685	-1654
1029.751	-1561
1029.818	-1672
1029.884	-1890
1029.951	-928
1030.017	-1427
1030.083	-1200
1030.149	-867
1030.216	-1087
1030.282	-1196
1030.348	-1907
1030.414	-1583
1030.480	-1755
1030.546	-1466
1030.612	-1907
1030.678	-2140
1030.744	-1150
1030.810	-1920
1030.876	-1663
1030.942	-1045
1031.008	-2086
1031.074	-1427
1031.140	-1416
1031.206	-973
1031.272	-2346
1031.337	-2045
1031.403	-1867
1031.469	-1522
1031.534	-1782
1031.600	-1668
1031.666	-1942
1031.731	-1685
1031.797	-2210
1031.863	-1393
1031.928	-1651
1031.994	-1616
1032.059	-1756
1032.125	-2590
1032.190	-1578
1032.256	-1386
1032.321	-1689
1032.386	-1126
1032.452	-1658
1032.517	-1477
1032.582	-1525
1032.647	-1382
1032.713	-2215
1032.778	-1184
1032.843	-2130
1032.908	-1709
1032.974	-1857
1033.039	-1144
1033.104	-1240
1033.169	-1372
1033.234	-1526
1033.299	-1434
1033.364	-1444
1033.429	-1337
1033.494	-755
1033.559	-2148
1033.624	-2484
1033.688	-1263
1033.753	-1661
1033.818	-1269
1033.883	-2298
1033.948	-995
1034.013	-2125
1034.077	-1721
1034.142	-1198
1034.207	-984
1034.271	-1176
1034.336	-1263
1034.400	-1073
1034.465	-1795
1034.530	-1799
1034.594	-1100
1034.658	-1908
1034.723	-1861
1034.787	-1902
1034.852	-1374
1034.916	-1517
1034.981	-1451
1035.045	-1177
1035.109	-1415
1035.173	-1945
1035.238	-1380
1035.302	-1979
1035.366	-1849
1035.430	-1920
1035.495	-1388
1035.559	-1551
1035.623	-1908
1035.687	-2529
1035.751	-1720
1035.815	-1963
1035.879	-1132
1035.943	-1762
1036.007	-1934
1036.071	-1449
1036.135	-1475
1036.198	-1464
1036.262	-1883
1036.326	-1354
1036.390	-1590
1036.454	-879
1036.517	-1379
1036.581	-2380
1036.645	-1208
1036.709	-1338
1036.772	-1091
1036.836	-1426
1036.900	-2380
1036.963	-2198
1037.026	-1917
1037.090	-1859
1037.154	-1534
1037.217	-1159
1037.280	-1676
1037.344	-1030
1037.407	-1606
1037.471	-2201
1037.534	-1712
1037.597	-1534
1037.661	-1037
1037.724	-1939
1037.787	-1985
1037.850	-738
1037.913	-1808
1037.977	-800
1038.040	-1334
1038.103	-1235
1038.166	-1626
1038.229	-1752
1038.292	-1827
1038.355	-1881
1038.418	-2062
1038.481	-1641
1038.544	-2581
1038.607	-1842
1038.670	-1412
1038.732	-1500
1038.795	-2806
1038.858	-1219
1038.921	-1493
1038.984	-1512
1039.046	-1749
1039.109	-1619
1039.172	-1394
1039.234	-2455
1039.297	-1474
1039.360	-1625
1039.422	-1581
1039.485	-1941
1039.547	-1613
1039.610	-1428
1039.672	-2075
1039.734	-2327
1039.797	-1363
1039.859	-1704
1039.922	-1357
1039.984	-1470
1040.046	-2262
1040.109	-1271
1040.171	-1173
1040.233	-1479
1040.295	-2040
1040.358	-1848
1040.420	-1531
1040.482	-1762
1040.544	-1699
1040.606	-1062
1040.668	-1148
1040.730	-1679
1040.792	-2747
1040.854	-2139
1040.916	-1757
1040.978	-2293
1041.040	-1765
1041.102	-2040
1041.164	-2082
1041.225	-2175
1041.287	-1129
1041.349	-1469
1041.411	-1797
1041.472	-1462
1041.534	-1784
1041.596	-2403
1041.657	-2160
1041.719	-1491
1041.781	-1907
1041.842	-2564
1041.904	-1514
1041.965	-1773
1042.027	-1545
1042.088	-2010
1042.150	-1298
1042.211	-1681
1042.272	-1131
1042.334	-1802
1042.395	-1695
1042.456	-1949
1042.518	-570
1042.579	-1948
1042.640	-1522
1042.701	-2445
1042.763	-1767
1042.824	-1225
1042.885	-1896
1042.946	-1850
1043.007	-1671
1043.068	-1373
1043.129	-1575
1043.190	-2572
1043.251	-1360
1043.312	-1518
1043.373	-1536
1043.434	-2252
1043.495	-2030
1043.556	-2244
1043.616	-1678
1043.677	-2264
1043.738	-1641
1043.799	-1634
1043.859	-2009
1043.920	-2703
1043.981	-1644
1044.041	-1923
1044.102	-1490
1044.162	-2429
1044.223	-1508
1044.284	-1761
1044.344	-1663
1044.405	-1127
1044.465	-1812
1044.525	-1643
1044.586	-1774
1044.646	-1905
1044.707	-1033
1044.767	-2420
1044.827	-1751
1044.887	-2540
1044.948	-1249
1045.008	-1928
1045.068	-2458
1045.128	-994
1045.188	-1468
1045.249	-1444
1045.309	-1799
1045.369	-1294
1045.429	-1246
1045.489	-1773
1045.549	-1172
1045.609	-1537
1045.669	-1241
1045.729	-1439
1045.789	-1920
1045.848	-1820
1045.908	-662
1045.968	-1335
1046.028	-1531
1046.088	-1592
1046.147	-1039
1046.207	-737
1046.267	-1974
1046.326	-1113
1046.386	-765
1046.446	-1079
1046.505	-1235
1046.565	-1150
1046.624	-1256
1046.684	-1234
1046.743	-1075
1046.803	-1238
1046.862	-409
1046.922	0
