'Start Wavelength	183.907
'End Wavelength	1046.922
'Gate Delay	5.000
'Gate Width (ms)	1.050
'Laser Output Level	0.000
'X Position	0.000
'Y Position	0.000
'Z Position	0.000
'Grid Point Number	1.000
'Shot Number	100.000
183.907	108.000
183.977	-217.000
184.047	-509
184.116	12
184.186	563
184.256	210
184.325	310
184.395	190
184.465	-93
184.534	-59
184.604	-327
184.674	162
184.743	259
184.813	-716
184.883	168
184.952	320
185.022	279
185.092	347
185.161	-635
185.231	479
185.301	251
185.370	483
185.440	-200
185.509	-313
185.579	-1
185.649	341
185.718	254
185.788	404
185.857	-106
185.927	-548
185.996	21
186.066	6
186.136	-303
186.205	64
186.275	436
186.344	930
186.414	148
186.483	-484
186.553	485
186.622	-212
186.692	-251
186.761	-453
186.831	162
186.900	481
186.970	285
187.039	297
187.109	474
187.178	56
187.248	321
187.317	80
187.387	81
187.456	387
187.526	525
187.595	-159
187.664	337
187.734	-368
187.803	386
187.873	738
187.942	850
188.012	-341
188.081	-31
188.150	-249
188.220	125
188.289	-377
188.358	-34
188.428	-389
188.497	-82
188.567	-278
188.636	87
188.705	742
188.775	286
188.844	-59
188.913	-219
188.983	523
189.052	369
189.121	-365
189.191	-112
189.260	-496
189.329	471
189.399	-160
189.468	-120
189.537	-192
189.606	721
189.676	-110
189.745	318
189.814	-151
189.883	-27
189.953	237
190.022	-507
190.091	325
190.161	944
190.230	67
190.299	-26
190.368	51
190.437	19
190.507	398
190.576	-62
190.645	-37
190.714	353
190.783	-218
190.853	552
190.922	153
190.991	-264
191.060	-106
191.129	739
191.198	93
191.268	-242
191.337	-57
191.406	25
191.475	252
191.544	522
191.613	397
191.682	-133
191.752	-719
191.821	357
191.890	242
191.959	216
192.028	-353
192.097	419
192.166	-235
192.235	-59
192.304	-85
192.373	735
192.442	523
192.511	780
192.580	-425
192.650	-648
192.719	344
192.788	1304
192.857	-241
192.926	272
192.995	-437
193.064	883
193.133	83
193.202	813
193.271	586
193.340	460
193.409	388
193.478	161
193.547	965
193.615	1717
193.684	590
193.753	854
193.822	-173
193.891	566
193.960	355
194.029	459
194.098	501
194.167	383
194.236	-25
194.305	-135
194.374	302
194.443	-210
194.512	158
194.580	140
194.649	398
194.718	896
194.787	-472
194.856	107
194.925	426
194.994	721
195.062	64
195.131	25
195.200	-402
195.269	469
195.338	231
195.407	-178
195.475	222
195.544	236
195.613	588
195.682	224
195.751	267
195.819	484
195.888	-168
195.957	505
196.026	-50
196.094	316
196.163	319
196.232	1040
196.301	223
196.369	831
196.438	107
196.507	739
196.576	-118
196.644	219
196.713	208
196.782	479
196.850	365
196.919	386
196.988	94
197.056	631
197.125	379
197.194	-122
197.262	-172
197.331	178
197.400	-389
197.468	868
197.537	-295
197.606	578
197.674	395
197.743	1312
197.812	-20
197.880	1474
197.949	260
198.017	1306
198.086	590
198.155	324
198.223	484
198.292	949
198.360	55
198.429	166
198.497	226
198.566	1238
198.635	714
198.703	600
198.772	906
198.840	2871
198.909	42
198.977	332
199.046	108
199.114	277
199.183	6
199.251	375
199.320	359
199.388	-233
199.457	47
199.525	-210
199.594	-113
199.662	122
199.731	-433
199.799	9
199.867	170
199.936	670
200.004	198
200.073	155
200.141	239
200.210	-508
200.278	-59
200.346	709
200.415	389
200.483	896
200.552	410
200.620	523
200.688	-439
200.757	573
200.825	-777
200.893	411
200.962	-3
201.030	637
201.098	391
201.167	777
201.235	-598
201.303	226
201.372	289
201.440	607
201.508	404
201.577	345
201.645	-266
201.713	1040
201.781	-115
201.850	1032
201.918	482
201.986	277
202.055	318
202.123	1006
202.191	-284
202.259	129
202.327	217
202.396	82
202.464	57
202.532	630
202.600	1817
202.669	1038
202.737	154
202.805	383
202.873	789
202.941	217
203.009	199
203.078	556
203.146	92
203.214	700
203.282	327
203.350	128
203.418	-345
203.487	594
203.555	577
203.623	-72
203.691	690
203.759	-99
203.827	-106
203.895	458
203.963	373
204.031	769
204.099	548
204.168	-99
204.236	381
204.304	358
204.372	144
204.440	431
204.508	-159
204.576	483
204.644	206
204.712	257
204.780	160
204.848	-4
204.916	150
204.984	-131
205.052	834
205.120	899
205.188	569
205.256	322
205.324	91
205.392	438
205.460	745
205.528	383
205.596	-535
205.664	694
205.732	363
205.799	1528
205.867	1986
205.935	794
206.003	1516
206.071	275
206.139	-36
206.207	1056
206.275	112
206.343	1186
206.411	600
206.478	699
206.546	615
206.614	949
206.682	1001
206.750	556
206.818	631
206.885	1275
206.953	-80
207.021	1404
207.089	1022
207.157	509
207.225	563
207.292	909
207.360	469
207.428	497
207.496	1091
207.563	717
207.631	-95
207.699	342
207.767	476
207.834	258
207.902	1147
207.970	505
208.038	364
208.105	243
208.173	595
208.241	1247
208.309	673
208.376	788
208.444	807
208.512	455
208.579	204
208.647	965
208.715	916
208.782	1145
208.850	709
208.918	122
208.985	241
209.053	650
209.120	-67
209.188	335
209.256	728
209.323	649
209.391	256
209.459	1375
209.526	147
209.594	676
209.661	647
209.729	-43
209.796	-107
209.864	763
209.932	497
209.999	982
210.067	1477
210.134	1438
210.202	898
210.269	1617
210.337	1451
210.404	1590
210.472	257
210.539	791
210.607	540
210.674	1142
210.742	601
210.809	846
210.877	748
210.944	1847
211.012	749
211.079	1962
211.146	775
211.214	1556
211.281	1052
211.349	550
211.416	1015
211.484	803
211.551	323
211.618	513
211.686	875
211.753	1254
211.821	314
211.888	1298
211.955	889
212.023	764
212.090	19
212.157	633
212.225	1239
212.292	1892
212.359	4241
212.427	7370
212.494	3156
212.561	2036
212.629	481
212.696	1133
212.763	1387
212.831	465
212.898	1562
212.965	1151
213.032	1044
213.100	1488
213.167	1437
213.234	1391
213.301	1122
213.369	603
213.436	1590
213.503	830
213.570	1428
213.638	1004
213.705	114
213.772	1007
213.839	303
213.906	1087
213.973	1653
214.041	869
214.108	942
214.175	977
214.242	1074
214.309	1000
214.376	1712
214.444	1002
214.511	1458
214.578	1216
214.645	1609
214.712	851
214.779	1063
214.846	1754
214.913	1398
214.980	1814
215.048	1480
215.115	1618
215.182	787
215.249	1299
215.316	1120
215.383	1443
215.450	1049
215.517	806
215.584	836
215.651	830
215.718	538
215.785	244
215.852	904
215.919	1126
215.986	1089
216.053	1696
216.120	1342
216.187	1197
216.254	676
216.321	1555
216.388	826
216.455	1505
216.522	1265
216.589	2252
216.656	2130
216.722	1959
216.789	2161
216.856	1380
216.923	1529
216.990	1732
217.057	616
217.124	1635
217.191	1283
217.258	2300
217.324	2779
217.391	2154
217.458	1980
217.525	1896
217.592	1345
217.659	808
217.725	1555
217.792	1705
217.859	2082
217.926	1129
217.993	1877
218.059	806
218.126	306
218.193	792
218.260	-96
218.327	842
218.393	21
218.460	849
218.527	607
218.594	1188
218.660	1474
218.727	2184
218.794	253
218.860	943
218.927	663
218.994	573
219.061	238
219.127	648
219.194	1798
219.261	640
219.327	885
219.394	1426
219.461	303
219.527	510
219.594	16
219.661	469
219.727	419
219.794	984
219.860	854
219.927	1149
219.994	1188
220.060	2017
220.127	1738
220.193	1729
220.260	1538
220.326	3451
220.393	3260
220.460	4330
220.526	2892
220.593	2239
220.659	2638
220.726	2638
220.792	5562
220.859	5590
220.925	5914
220.992	6555
221.058	6619
221.125	5816
221.191	4348
221.258	3004
221.324	1896
221.391	2082
221.457	591
221.524	1955
221.590	2536
221.657	5099
221.723	2574
221.789	2851
221.856	2570
221.922	1388
221.989	1010
222.055	1819
222.121	471
222.188	1420
222.254	1260
222.321	758
222.387	817
222.453	717
222.520	894
222.586	46
222.652	538
222.719	-81
222.785	651
222.851	732
222.918	-110
222.984	1037
223.050	1169
223.116	948
223.183	1276
223.249	683
223.315	436
223.382	168
223.448	294
223.514	403
223.580	418
223.647	1050
223.713	900
223.779	327
223.845	214
223.911	1427
223.978	-247
224.044	559
224.110	494
224.176	1239
224.242	898
224.309	404
224.375	690
224.441	718
224.507	396
224.573	282
224.639	356
224.705	276
224.772	137
224.838	392
224.904	1132
224.970	615
225.036	701
225.102	556
225.168	520
225.234	175
225.300	-31
225.366	969
225.432	395
225.499	1027
225.565	182
225.631	1014
225.697	260
225.763	1262
225.829	848
225.895	2194
225.961	2059
226.027	2442
226.093	1817
226.159	2668
226.225	3970
226.291	9624
226.357	10869
226.423	5684
226.489	3476
226.554	3094
226.620	2958
226.686	2752
226.752	4674
226.818	8827
226.884	14239
226.950	10962
227.016	5222
227.082	3221
227.148	2698
227.214	2918
227.279	1303
227.345	1692
227.411	1190
227.477	1758
227.543	1524
227.609	2789
227.674	1917
227.740	1703
227.806	1298
227.872	1078
227.938	1463
228.003	1377
228.069	1189
228.135	846
228.201	1379
228.267	1467
228.332	1424
228.398	1600
228.464	1032
228.530	712
228.595	883
228.661	522
228.727	1727
228.792	1140
228.858	599
228.924	651
228.990	1107
229.055	1763
229.121	1218
229.187	461
229.252	560
229.318	677
229.384	1141
229.449	1315
229.515	42
229.581	555
229.646	1181
229.712	898
229.777	2555
229.843	1965
229.909	2276
229.974	2298
230.040	880
230.105	1176
230.171	914
230.236	2719
230.302	2340
230.368	1950
230.433	1564
230.499	1610
230.564	1160
230.630	1496
230.695	796
230.761	643
230.826	971
230.892	1433
230.957	890
231.023	978
231.088	439
231.154	362
231.219	941
231.284	1822
231.350	1533
231.415	579
231.481	854
231.546	420
231.612	637
231.677	585
231.742	-479
231.808	384
231.873	764
231.939	-110
232.004	993
232.069	1786
232.135	213
232.200	1021
232.265	448
232.331	581
232.396	342
232.461	751
232.527	311
232.592	222
232.657	480
232.723	1105
232.788	960
232.853	1056
232.918	425
232.984	299
233.049	-67
233.114	895
233.179	1110
233.245	1921
233.310	1162
233.375	453
233.440	402
233.506	1446
233.571	462
233.636	470
233.701	211
233.766	1226
233.832	202
233.897	709
233.962	187
234.027	504
234.092	1230
234.157	1000
234.222	515
234.288	2330
234.353	3917
234.418	2925
234.483	2356
234.548	1044
234.613	738
234.678	1064
234.743	2064
234.808	4407
234.873	1408
234.938	1788
235.004	1212
235.069	1996
235.134	582
235.199	1598
235.264	715
235.329	-288
235.394	1770
235.459	1744
235.524	1720
235.589	723
235.654	896
235.719	618
235.784	190
235.849	436
235.913	2443
235.978	1809
236.043	2050
236.108	1650
236.173	725
236.238	997
236.303	683
236.368	1270
236.433	2316
236.498	3170
236.563	3273
236.627	8254
236.692	19392
236.757	15284
236.822	7685
236.887	4543
236.952	4477
237.017	3393
237.081	4763
237.146	5892
237.211	11624
237.276	20956
237.341	25080
237.405	13983
237.470	6653
237.535	4437
237.600	3447
237.664	2611
237.729	1118
237.794	2945
237.859	5542
237.923	3859
237.988	1430
238.053	3272
238.118	1881
238.182	7199
238.247	4474
238.312	2563
238.376	1572
238.441	964
238.506	2247
238.570	761
238.635	1004
238.700	871
238.764	941
238.829	3303
238.893	2824
238.958	2059
239.023	623
239.087	1098
239.152	1028
239.216	704
239.281	706
239.346	1615
239.410	1168
239.475	1624
239.539	6427
239.604	3287
239.668	1451
239.733	956
239.797	2332
239.862	3902
239.926	4319
239.991	1103
240.055	1021
240.120	706
240.184	831
240.249	493
240.313	48
240.378	764
240.442	4311
240.507	4904
240.571	1348
240.635	2681
240.700	2081
240.764	1025
240.829	713
240.893	358
240.957	425
241.022	3573
241.086	4630
241.151	1477
241.215	132
241.279	1905
241.344	1966
241.408	1481
241.472	1124
241.537	1735
241.601	1507
241.665	1464
241.730	1061
241.794	1753
241.858	1373
241.922	1928
241.987	507
242.051	1096
242.115	1142
242.179	1029
242.244	-3
242.308	1763
242.372	1003
242.436	1362
242.501	1609
242.565	994
242.629	882
242.693	2107
242.757	1096
242.822	1485
242.886	1384
242.950	1581
243.014	1153
243.078	1460
243.142	1169
243.206	1140
243.271	1884
243.335	2737
243.399	3307
243.463	13639
243.527	22763
243.591	6610
243.655	3002
243.719	1537
243.783	2515
243.847	4101
243.911	4913
243.975	4393
244.040	1669
244.104	2618
244.168	1429
244.232	2847
244.296	3386
244.360	4017
244.424	1165
244.488	1206
244.552	1949
244.615	507
244.679	1219
244.743	1476
244.807	328
244.871	1393
244.935	743
244.999	-23
245.063	836
245.127	1472
245.191	2716
245.255	2535
245.319	2243
245.383	700
245.446	1501
245.510	-23
245.574	973
245.638	1312
245.702	1301
245.766	3978
245.829	2331
245.893	676
245.957	529
246.021	1398
246.085	962
246.149	1993
246.212	5920
246.276	5976
246.340	2884
246.404	2407
246.467	2278
246.531	2987
246.595	2900
246.659	1579
246.722	802
246.786	2604
246.850	2721
246.913	2318
246.977	634
247.041	1719
247.104	1081
247.168	2277
247.232	5790
247.295	8241
247.359	4036
247.423	2645
247.486	3953
247.550	2786
247.614	1261
247.677	2156
247.741	1694
247.804	1565
247.868	1597
247.932	5003
247.995	8484
248.059	2275
248.122	1860
248.186	2668
248.249	5785
248.313	16378
248.376	13919
248.440	9748
248.503	2284
248.567	3375
248.630	4560
248.694	6190
248.757	9910
248.821	16191
248.884	8873
248.948	9730
249.011	12775
249.075	19023
249.138	13753
249.202	6424
249.265	3844
249.328	5085
249.392	3530
249.455	2978
249.519	3238
249.582	3102
249.645	5539
249.709	4174
249.772	3640
249.835	3675
249.899	2517
249.962	3470
250.025	2069
250.089	7904
250.152	7712
250.215	3867
250.279	2604
250.342	3930
250.405	3055
250.468	3640
250.532	4880
250.595	8523
250.658	30224
250.721	33950
250.785	11785
250.848	8008
250.911	4442
250.974	4974
251.038	7388
251.101	10476
251.164	5719
251.227	6836
251.290	6122
251.354	11162
251.417	38213
251.480	29373
251.543	30025
251.606	61566
251.669	38271
251.732	18236
251.795	16941
251.859	20672
251.922	39419
251.985	18662
252.048	7957
252.111	6556
252.174	6583
252.237	11558
252.300	20703
252.363	28411
252.426	41333
252.489	16916
252.552	8978
252.615	6158
252.678	8509
252.741	17381
252.804	28000
252.867	46293
252.930	23892
252.993	12205
253.056	8507
253.119	5687
253.182	5340
253.245	8819
253.308	5746
253.371	5789
253.434	4358
253.497	4925
253.559	8960
253.622	6205
253.685	8178
253.748	6116
253.811	2928
253.874	5555
253.937	3350
254.000	3905
254.062	7732
254.125	8595
254.188	10439
254.251	5700
254.314	3540
254.376	7071
254.439	6031
254.502	5259
254.565	5986
254.628	10020
254.690	5306
254.753	2875
254.816	3106
254.878	2753
254.941	7096
255.004	5151
255.067	3034
255.129	2412
255.192	1290
255.255	851
255.317	2519
255.380	743
255.443	1234
255.505	567
255.568	479
255.631	1486
255.693	1024
255.756	-158
255.819	1136
255.881	1079
255.944	802
256.006	635
256.069	732
256.132	1163
256.194	1653
256.257	5023
256.319	3162
256.382	2397
256.444	2798
256.507	2000
256.569	954
256.632	2325
256.694	4442
256.757	16461
256.819	33152
256.882	12370
256.944	5783
257.007	4214
257.069	3990
257.132	2301
257.194	2903
257.257	2785
257.319	2089
257.381	3817
257.444	12128
257.506	41609
257.569	34009
257.631	13519
257.693	7844
257.756	4616
257.818	3128
257.880	2198
257.943	1660
258.005	1947
258.067	1509
258.130	1517
258.192	3390
258.254	3840
258.317	1817
258.379	2536
258.441	6141
258.503	4352
258.566	7420
258.628	6341
258.690	1699
258.753	2456
258.815	4516
258.877	2442
258.939	1493
259.001	2413
259.064	1592
259.126	1993
259.188	1908
259.250	1900
259.312	2059
259.375	4537
259.437	2296
259.499	1757
259.561	1738
259.623	2133
259.685	1089
259.747	1698
259.809	6280
259.872	9523
259.934	18659
259.996	12488
260.058	3468
260.120	2140
260.182	2380
260.244	2251
260.306	1570
260.368	1133
260.430	713
260.492	4382
260.554	4780
260.616	3572
260.678	9427
260.740	7461
260.802	1341
260.864	2756
260.926	776
260.988	1611
261.050	1763
261.112	6332
261.174	13490
261.236	5886
261.298	2706
261.359	5258
261.421	5248
261.483	1181
261.545	1623
261.607	523
261.669	1459
261.731	3041
261.793	6375
261.854	1754
261.916	1702
261.978	1655
262.040	1814
262.102	1427
262.164	1660
262.225	1633
262.287	1824
262.349	3936
262.411	2314
262.472	810
262.534	2936
262.596	5359
262.658	1843
262.719	1158
262.781	1693
262.843	4675
262.904	2618
262.966	2679
263.028	2817
263.090	21252
263.151	31975
263.213	9617
263.275	4880
263.336	2174
263.398	2681
263.459	215
263.521	1824
263.583	4251
263.644	1782
263.706	1100
263.767	-68
263.829	936
263.891	-245
263.952	-45
264.014	572
264.075	2614
264.137	4507
264.198	1768
264.260	85
264.321	1160
264.383	4297
264.444	7934
264.506	1623
264.567	1488
264.629	5563
264.690	5969
264.752	1317
264.813	931
264.875	703
264.936	2416
264.998	722
265.059	776
265.120	690
265.182	4488
265.243	21976
265.305	14659
265.366	2825
265.427	2175
265.489	1401
265.550	268
265.611	1412
265.673	1467
265.734	960
265.795	793
265.857	888
265.918	1791
265.979	7578
266.040	34558
266.102	19842
266.163	6116
266.224	4653
266.286	2023
266.347	386
266.408	1337
266.469	445
266.530	830
266.592	197
266.653	3439
266.714	3732
266.775	771
266.836	117
266.898	1477
266.959	1508
267.020	1388
267.081	1467
267.142	1199
267.203	952
267.264	-233
267.326	1204
267.387	1190
267.448	-200
267.509	1158
267.570	902
267.631	599
267.692	-849
267.753	1388
267.814	137
267.875	3812
267.936	5483
267.997	4300
268.058	2137
268.119	960
268.180	1001
268.241	531
268.302	-48
268.363	1151
268.424	939
268.485	1655
268.546	-255
268.607	560
268.668	-250
268.729	-588
268.790	506
268.851	722
268.912	3277
268.972	4055
269.033	1240
269.094	286
269.155	839
269.216	757
269.277	720
269.338	649
269.398	1106
269.459	317
269.520	1590
269.581	2134
269.642	2527
269.702	1228
269.763	1299
269.824	661
269.885	2319
269.945	3417
270.006	1328
270.067	253
270.128	199
270.188	502
270.249	652
270.310	943
270.370	1189
270.431	291
270.492	533
270.553	283
270.613	2699
270.674	5422
270.734	1006
270.795	715
270.856	1862
270.916	52
270.977	617
271.038	2190
271.098	974
271.159	3146
271.219	1108
271.280	408
271.340	798
271.401	352
271.462	2301
271.522	1280
271.583	778
271.643	1698
271.704	598
271.764	1137
271.825	5033
271.885	17232
271.946	16315
272.006	5905
272.066	10746
272.127	13260
272.187	3321
272.248	1732
272.308	3559
272.369	10328
272.429	3913
272.489	4451
272.550	3007
272.610	5202
272.671	1553
272.731	3148
272.791	4724
272.852	2578
272.912	1859
272.972	845
273.033	1625
273.093	1991
273.153	1662
273.214	1150
273.274	1511
273.334	10488
273.394	12521
273.455	4893
273.515	6689
273.575	11462
273.635	4562
273.696	8967
273.756	12628
273.816	4706
273.876	2858
273.936	8163
273.997	8375
274.057	2023
274.117	1719
274.177	4613
274.237	19194
274.297	11851
274.358	8556
274.418	11242
274.478	6752
274.538	2631
274.598	2275
274.658	9512
274.718	8988
274.778	3176
274.838	1448
274.898	6219
274.958	13416
275.018	13916
275.078	6431
275.138	3496
275.198	482
275.258	1763
275.318	2214
275.378	4289
275.438	3919
275.498	2820
275.558	8548
275.618	15042
275.678	7176
275.738	6338
275.798	3036
275.858	1663
275.918	834
275.978	1970
276.038	812
276.098	961
276.157	3821
276.217	9631
276.277	3103
276.337	2634
276.397	767
276.457	1804
276.517	161
276.576	316
276.636	865
276.696	2537
276.756	6531
276.815	3222
276.875	1008
276.935	2101
276.995	457
277.055	656
277.114	859
277.174	3091
277.234	6809
277.293	2668
277.353	1068
277.413	815
277.472	1114
277.532	1695
277.592	1863
277.651	10969
277.711	12275
277.771	6367
277.830	21246
277.890	11351
277.950	13480
278.009	28502
278.069	9708
278.128	13565
278.188	14336
278.248	7326
278.307	19054
278.367	8228
278.426	2733
278.486	2252
278.545	1126
278.605	587
278.664	1262
278.724	1700
278.783	7299
278.843	13669
278.902	3627
278.962	2511
279.021	3787
279.081	6152
279.140	4722
279.199	3982
279.259	3154
279.318	2974
279.378	5204
279.437	10325
279.496	34035
279.556	94730
279.615	52342
279.675	16088
279.734	11362
279.793	17300
279.853	17907
279.912	7344
279.971	4399
280.031	3994
280.090	7411
280.149	11487
280.208	16306
280.268	68172
280.327	44717
280.386	12125
280.445	9966
280.505	6811
280.564	4541
280.623	2604
280.682	5083
280.742	6079
280.801	1968
280.860	1396
280.919	770
280.978	1045
281.037	1133
281.097	1878
281.156	1812
281.215	1560
281.274	1892
281.333	9823
281.392	4468
281.451	752
281.510	631
281.569	1153
281.628	221
281.688	467
281.747	1643
281.806	1240
281.865	333
281.924	1024
281.983	593
282.042	-398
282.101	-261
282.160	737
282.219	112
282.278	507
282.337	5642
282.396	1680
282.454	1586
282.513	1861
282.572	9213
282.631	3697
282.690	495
282.749	208
282.808	1485
282.867	1959
282.926	650
282.985	302
283.043	-481
283.102	953
283.161	1013
283.220	5331
283.279	7714
283.338	1743
283.396	972
283.455	1302
283.514	1975
283.573	2560
283.631	2120
283.690	1262
283.749	1246
283.808	4041
283.866	2974
283.925	867
283.984	1877
284.043	2199
284.101	2199
284.160	1336
284.219	2743
284.277	2009
284.336	4351
284.395	13239
284.453	7548
284.512	4182
284.570	5130
284.629	4254
284.688	3972
284.746	4558
284.805	6667
284.863	8506
284.922	10699
284.981	14505
285.039	23453
285.098	40749
285.156	75677
285.215	88367
285.273	82757
285.332	63911
285.390	40879
285.449	26061
285.507	16939
285.566	13202
285.624	10188
285.683	7634
285.741	5946
285.799	6219
285.858	4558
285.916	4078
285.975	2751
286.033	2316
286.091	2564
286.150	1554
286.208	2388
286.267	2164
286.325	2242
286.383	3340
286.442	2109
286.500	966
286.558	1671
286.616	1176
286.675	2231
286.733	1436
286.791	1285
286.850	1955
286.908	2390
286.966	4229
287.024	1043
287.083	1233
287.141	607
287.199	1142
287.257	2593
287.315	1178
287.374	1637
287.432	5331
287.490	2939
287.548	2218
287.606	1813
287.664	1484
287.723	2854
287.781	3044
287.839	1348
287.897	2989
287.955	4240
288.013	6701
288.071	19662
288.129	71658
288.187	119707
288.245	54848
288.303	20379
288.361	11819
288.419	7719
288.477	5895
288.535	4025
288.593	2909
288.651	1912
288.709	1238
288.767	1150
288.825	1327
288.883	727
288.941	1021
288.999	643
289.057	981
289.115	607
289.173	313
289.231	401
289.289	529
289.346	812
289.404	1250
289.462	2103
289.520	2330
289.578	540
289.636	420
289.694	1116
289.751	824
289.809	51
289.867	600
289.925	1144
289.983	1151
290.040	126
290.098	865
290.156	436
290.214	1151
290.271	-99
290.329	262
290.387	-323
290.444	-118
290.502	-727
290.560	-64
290.617	226
290.675	641
290.733	75
290.790	126
290.848	1
290.906	927
290.963	-5
291.021	1006
291.078	38
291.136	696
291.194	6029
291.251	8630
291.309	1127
291.366	-21
291.424	640
291.481	627
291.539	419
291.596	1020
291.654	-369
291.711	-585
291.769	770
291.826	2359
291.884	739
291.941	-22
291.999	174
292.056	78
292.114	775
292.171	798
292.228	316
292.286	413
292.343	2418
292.401	2557
292.458	1288
292.515	484
292.573	946
292.630	1276
292.687	975
292.745	748
292.802	2559
292.859	6188
292.917	9533
292.974	3878
293.031	1419
293.089	194
293.146	439
293.203	-334
293.260	134
293.318	765
293.375	1846
293.432	1452
293.489	-85
293.546	166
293.604	1699
293.661	8617
293.718	15828
293.775	7348
293.832	2546
293.889	2184
293.947	1580
294.004	544
294.061	798
294.118	6099
294.175	11236
294.232	13083
294.289	5042
294.346	2605
294.403	2674
294.460	2113
294.517	1081
294.574	618
294.631	25
294.688	2578
294.745	6475
294.802	22058
294.859	19056
294.916	6632
294.973	3699
295.030	2247
295.087	1770
295.144	2398
295.201	1171
295.258	1142
295.315	1893
295.372	8901
295.429	11977
295.486	4963
295.542	3524
295.599	11319
295.656	13680
295.713	10471
295.770	11515
295.827	4600
295.883	2133
295.940	2305
295.997	3400
296.054	3317
296.111	1495
296.167	1687
296.224	156
296.281	249
296.338	175
296.394	875
296.451	1463
296.508	6836
296.564	9654
296.621	7872
296.678	18694
296.734	20530
296.791	6894
296.848	3584
296.904	4506
296.961	10519
297.018	16455
297.074	9160
297.131	3329
297.187	3438
297.244	5177
297.301	17588
297.357	22261
297.414	7471
297.470	2486
297.527	1428
297.583	2023
297.640	1907
297.696	1005
297.753	1199
297.809	84
297.866	459
297.922	695
297.979	564
298.035	629
298.092	3502
298.148	8773
298.204	7127
298.261	4218
298.317	9550
298.374	18049
298.430	9543
298.486	4814
298.543	1507
298.599	3798
298.656	4596
298.712	9305
298.768	20283
298.824	11965
298.881	4053
298.937	2128
298.993	2502
299.050	2198
299.106	2452
299.162	1145
299.218	1960
299.275	683
299.331	2169
299.387	6408
299.443	18564
299.500	13769
299.556	5237
299.612	3003
299.668	2723
299.724	2473
299.780	2476
299.837	2502
299.893	4306
299.949	15609
300.005	15315
300.061	15436
300.117	21660
300.173	8638
300.229	4801
300.285	6326
300.341	6406
300.397	2788
300.453	1868
300.510	1072
300.566	1296
300.622	2705
300.678	7415
300.734	12699
300.790	13481
300.845	14572
300.901	9558
300.957	13645
301.013	8567
301.069	2726
301.125	3199
301.181	2292
301.237	1833
301.293	355
301.349	1249
301.405	966
301.461	1277
301.516	1769
301.572	2322
301.628	4538
301.684	3480
301.740	7211
301.796	9188
301.851	6924
301.907	11689
301.963	11094
302.019	21486
302.074	47518
302.130	41965
302.186	19257
302.242	8713
302.297	4433
302.353	5420
302.409	10900
302.464	7703
302.520	8235
302.576	18395
302.631	17726
302.687	10248
302.743	4037
302.798	2222
302.854	1420
302.910	3357
302.965	3834
303.021	5852
303.076	5395
303.132	6880
303.187	7441
303.243	3320
303.299	1934
303.354	1543
303.410	1670
303.465	1633
303.521	1771
303.576	1465
303.632	2002
303.687	6024
303.743	15396
303.798	11627
303.853	4598
303.909	2293
303.964	1653
304.020	4000
304.075	6305
304.130	6388
304.186	11275
304.241	10626
304.297	8163
304.352	4002
304.358	3793
304.407	2095
304.449	2037
304.463	2020
304.518	2632
304.539	2256
304.573	1648
304.629	2004
304.630	2053
304.684	4339
304.720	9858
304.739	12680
304.794	15979
304.811	13509
304.850	7417
304.902	3661
304.905	3432
304.960	2631
304.992	2815
305.015	2950
305.071	2528
305.083	2399
305.126	1878
305.173	717
305.181	540
305.236	1137
305.264	1419
305.292	1673
305.347	1914
305.354	1937
305.402	2116
305.445	2603
305.457	2750
305.512	3824
305.535	3842
305.567	3779
305.622	3240
305.626	3442
305.678	7555
305.716	15262
305.733	18274
305.788	17210
305.807	15355
305.843	11766
305.897	15816
305.898	15867
305.953	14260
305.988	10191
306.008	7842
306.063	4585
306.078	4073
306.118	2997
306.168	1310
306.173	1157
306.228	1354
306.259	1056
306.283	861
306.338	1505
306.349	1545
306.393	1943
306.440	2451
306.448	2494
306.503	2459
306.530	2908
306.558	3924
306.613	7578
306.620	8179
306.668	11946
306.711	15076
306.723	15484
306.778	11372
306.801	9272
306.833	6518
306.888	2989
306.892	2867
306.943	2106
306.982	2223
306.997	2365
307.052	1351
307.072	1803
307.107	2585
307.162	2380
307.163	2393
307.217	4094
307.253	4852
307.272	5061
307.327	4906
307.343	4717
307.381	4223
307.434	4094
307.436	4176
307.491	8057
307.524	11667
307.546	13374
307.600	13680
307.614	12600
307.655	7725
307.704	4350
307.710	4241
307.765	4310
307.795	5650
307.819	7307
307.874	11228
307.885	11297
307.929	9297
307.975	8599
307.984	8897
308.038	13112
308.065	17066
308.093	26595
308.148	55316
308.156	61321
308.202	100001
308.246	119242
308.257	115530
308.312	69556
308.336	51497
308.366	39017
308.421	23235
308.426	22017
308.475	14429
308.517	10548
308.530	9997
308.585	8333
308.607	7889
308.639	7396
308.694	6703
308.697	6757
308.748	10122
308.787	13832
308.803	14205
308.857	11615
308.877	10885
308.912	10381
308.967	10257
308.967	10283
309.021	14064
309.058	17787
309.076	21755
309.130	37637
309.148	44739
309.185	73764
309.238	122011
309.239	122579
309.293	142325
309.328	141601
309.348	124974
309.402	70172
309.418	55989
309.457	39582
309.508	23605
309.511	23143
309.566	19231
309.598	18071
309.620	19026
309.674	22396
309.688	23426
309.729	23888
309.778	22298
309.783	21825
309.837	16167
309.868	13255
309.892	13470
309.946	15949
309.959	17128
310.001	23391
310.049	27736
310.055	26867
310.109	17322
310.139	11883
310.163	9392
310.218	5647
310.229	5003
310.272	4115
310.319	3313
310.326	3223
310.381	2981
310.409	2763
310.435	2576
310.489	2098
310.499	2070
310.543	2555
310.589	3093
310.598	3035
310.652	2547
310.679	2371
310.706	2266
310.760	1799
310.769	1745
310.814	1737
310.859	1812
310.868	1784
310.923	1581
310.948	1500
310.977	1866
311.031	2479
311.038	2597
311.085	2394
311.128	1953
311.139	1941
311.193	1964
311.218	1968
311.247	2010
311.301	2132
311.308	2148
311.356	1894
311.398	1530
311.410	1491
311.464	1457
311.488	1411
311.518	1358
311.572	1273
311.578	1271
311.626	1865
311.668	2373
311.680	2370
311.734	2259
311.758	2242
311.788	2314
311.842	2455
311.847	2471
311.896	2591
311.937	2682
311.950	2778
312.004	3231
312.027	3406
312.058	3130
312.112	2668
312.117	2620
312.165	1872
312.207	1235
312.297	2702
312.386	3444
312.476	1660
312.566	4545
312.656	2836
312.745	1519
312.835	2147
312.925	2507
313.015	1948
313.104	2369
313.194	1626
313.284	723
313.374	1567
313.463	2263
313.553	1024
313.643	1135
313.732	1371
313.822	1167
313.912	1269
314.001	1327
314.091	2109
314.180	2683
314.270	2345
314.360	2741
314.449	2032
314.539	1600
314.628	1223
314.718	2448
314.808	1645
314.897	2186
314.987	874
315.076	1843
315.166	3014
315.255	2520
315.345	2009
315.434	1654
315.524	1976
315.613	2823
315.703	3189
315.792	3342
315.881	6303
315.971	3677
316.060	4241
316.150	6333
316.239	5705
316.328	3431
316.418	1334
316.507	1274
316.597	2111
316.686	2281
316.775	2158
316.865	6016
316.954	2159
317.043	1473
317.133	1233
317.222	1753
317.311	991
317.400	997
317.490	2193
317.579	1939
317.668	1286
317.757	1939
317.847	4849
317.936	12037
318.025	8044
318.114	3669
318.203	2859
318.293	4637
318.382	9454
318.471	8134
318.560	8745
318.649	18092
318.738	5019
318.828	3008
318.917	3465
319.006	3624
319.095	7866
319.184	23049
319.273	15617
319.362	7269
319.451	3109
319.540	2005
319.629	4442
319.718	8775
319.807	4349
319.896	7328
319.985	27292
320.074	13769
320.163	2871
320.252	4996
320.341	3610
320.430	3888
320.519	4297
320.608	3309
320.697	2158
320.786	1560
320.875	2692
320.964	3238
321.053	5241
321.142	8111
321.230	9214
321.319	6822
321.408	13577
321.497	6991
321.586	5120
321.675	6717
321.764	7079
321.852	4873
321.941	7780
322.030	6887
322.119	6300
322.207	14187
322.296	10208
322.385	5196
322.474	5558
322.562	16544
322.651	11895
322.740	5614
322.829	9150
322.917	8701
323.006	5348
323.095	4942
323.183	4331
323.272	5846
323.361	9251
323.449	26810
323.538	11507
323.626	16137
323.715	14697
323.804	3852
323.892	14850
323.981	12081
324.069	2894
324.158	7382
324.246	9626
324.335	3789
324.424	5132
324.512	2343
324.601	2622
324.689	4505
324.778	8689
324.866	7669
324.954	2183
325.043	1059
325.131	4007
325.220	6915
325.308	7932
325.397	4832
325.485	4014
325.574	1369
325.662	1288
325.750	1564
325.839	1162
325.927	1017
326.015	1321
326.104	2771
326.192	5446
326.280	1506
326.369	1367
326.457	2564
326.545	4346
326.634	3302
326.722	913
326.810	1416
326.898	1129
326.987	1461
327.075	2849
327.163	4643
327.251	1974
327.340	2788
327.428	5002
327.516	1160
327.604	947
327.692	1441
327.781	1318
327.869	2976
327.957	2790
328.045	2124
328.133	1834
328.221	1738
328.309	2065
328.397	797
328.485	2003
328.574	2068
328.662	8188
328.750	6389
328.838	2362
328.926	1325
329.014	1186
329.102	2465
329.190	5290
329.278	4380
329.366	1418
329.454	735
329.542	1738
329.630	998
329.718	1967
329.806	1918
329.893	2896
329.981	4327
330.069	8499
330.157	29629
330.245	78516
330.333	53454
330.421	12118
330.509	5532
330.597	12026
330.684	10359
330.772	3613
330.860	3674
330.948	4476
331.036	2476
331.123	1006
331.211	1375
331.299	1722
331.387	3098
331.475	7657
331.562	2571
331.650	987
331.738	1159
331.825	1007
331.913	1461
332.001	532
332.089	1832
332.176	3506
332.264	7046
332.352	7514
332.439	2357
332.527	1515
332.614	784
332.702	2366
332.790	721
332.877	3356
332.965	8188
333.052	2739
333.140	2122
333.228	6659
333.315	2283
333.403	1583
333.490	3556
333.578	4902
333.665	8187
333.753	5637
333.840	1021
333.928	1922
334.015	5158
334.103	8032
334.190	28461
334.278	10715
334.365	2078
334.452	2156
334.540	1361
334.627	760
334.715	2567
334.802	5293
334.889	25529
334.977	36821
335.064	4169
335.151	2516
335.239	2527
335.326	2840
335.413	11866
335.501	22892
335.588	3841
335.675	1430
335.762	990
335.850	4066
335.937	2682
336.024	6056
336.111	29894
336.199	15846
336.286	1975
336.373	1674
336.460	769
336.547	597
336.635	1760
336.722	1817
336.809	1018
336.896	2491
336.983	7075
337.070	20124
337.157	32019
337.245	21170
337.332	17713
337.419	1782
337.506	1014
337.593	1181
337.680	4977
337.767	21358
337.854	6589
337.941	5787
338.028	6727
338.115	3163
338.202	2980
338.289	4877
338.376	18832
338.463	8125
338.550	9223
338.637	15209
338.724	3536
338.811	6158
338.898	1313
338.984	731
339.071	1085
339.158	1618
339.245	4996
339.332	3184
339.419	3577
339.506	4791
339.593	266
339.679	805
339.766	837
339.853	1043
339.940	3648
340.027	1619
340.113	872
340.200	1943
340.287	1248
340.374	1362
340.460	3645
340.547	1196
340.634	2456
340.720	9954
340.807	8221
340.894	854
340.980	878
341.067	1264
341.154	1266
341.240	1472
341.327	5186
341.414	1904
341.500	1983
341.587	1447
341.674	959
341.760	2170
341.847	4418
341.933	1701
342.020	362
342.106	252
342.193	676
342.279	3145
342.366	1469
342.452	3123
342.539	2007
342.625	3822
342.712	12036
342.798	5829
342.885	2075
342.971	612
343.058	261
343.144	-551
343.230	1441
343.317	547
343.403	986
343.490	-22
343.576	268
343.662	398
343.749	1120
343.835	1793
343.921	2833
344.008	18017
344.094	56648
344.180	15878
344.267	4200
344.353	11256
344.439	16857
344.525	6930
344.612	5978
344.698	6123
344.784	4252
344.870	1621
344.957	863
345.043	2211
345.129	1462
345.215	3769
345.301	2716
345.387	1346
345.474	798
345.560	427
345.646	229
345.732	1066
345.818	1624
345.904	982
345.990	1020
346.076	1652
346.162	2360
346.249	1293
346.335	262
346.421	733
346.507	3721
346.593	20239
346.679	6027
346.765	868
346.851	441
346.937	488
347.023	1478
347.108	723
347.194	1038
347.280	521
347.366	1016
347.452	3710
347.538	22698
347.624	18511
347.710	15574
347.796	2128
347.882	499
347.967	251
348.053	1541
348.139	658
348.225	757
348.311	326
348.397	759
348.482	1060
348.568	925
348.654	-188
348.740	211
348.825	82
348.911	2443
348.997	8555
349.083	23459
349.168	4094
349.254	1244
349.340	1213
349.425	844
349.511	1244
349.597	1333
349.682	2781
349.768	12997
349.854	7610
349.939	962
350.025	484
350.110	1269
350.196	-414
350.282	2
350.367	708
350.453	1168
350.538	1982
350.624	744
350.709	1548
350.795	-412
350.880	571
350.966	1136
351.051	1122
351.137	1862
351.222	735
351.308	2433
351.393	11853
351.479	3227
351.564	894
351.649	548
351.735	428
351.820	22
351.906	390
351.991	1572
352.076	6157
352.162	12807
352.247	2214
352.332	1445
352.418	2439
352.503	3285
352.588	15099
352.673	16313
352.759	3226
352.844	1069
352.929	77
353.014	1736
353.100	1672
353.185	1532
353.270	2450
353.355	4367
353.441	1154
353.526	1410
353.611	2732
353.696	4449
353.781	2227
353.866	959
353.952	1196
354.037	2612
354.122	8953
354.207	7419
354.292	2931
354.377	448
354.462	1297
354.547	1061
354.632	1392
354.717	1711
354.802	1657
354.887	977
354.972	108
355.057	860
355.142	-35
355.227	1134
355.312	2221
355.397	5485
355.482	12446
355.567	7440
355.652	3866
355.737	5288
355.822	14330
355.907	16748
355.991	2717
356.076	638
356.161	1140
356.246	1620
356.331	1033
356.416	3451
356.501	21993
356.585	33509
356.670	4743
356.755	2090
356.840	2818
356.924	13222
357.009	62389
357.094	32555
357.179	5276
357.263	3611
357.348	3331
357.433	3728
357.517	2580
357.602	2357
357.687	2007
357.771	3597
357.856	11888
357.941	9949
358.025	11435
358.110	60540
358.195	40450
358.279	5714
358.364	3616
358.448	8679
358.533	30031
358.617	24798
358.702	22560
358.787	10292
358.871	3630
358.956	3644
359.040	1143
359.125	901
359.209	623
359.294	4653
359.378	11452
359.462	4727
359.547	1710
359.631	966
359.716	458
359.800	451
359.885	1207
359.969	1189
360.053	1304
360.138	192
360.222	1609
360.306	3262
360.391	3702
360.475	5205
360.559	15068
360.644	11550
360.728	8431
360.812	11315
360.896	41306
360.981	18712
361.065	8732
361.149	1359
361.233	1528
361.318	1141
361.402	1512
361.486	1181
361.570	816
361.654	2032
361.739	4106
361.823	21858
361.907	45182
361.991	9864
362.075	2813
362.159	8025
362.243	6131
362.327	3643
362.411	3639
362.495	2333
362.580	1499
362.664	608
362.748	755
362.832	750
362.916	1502
363.000	6532
363.084	20473
363.168	50136
363.252	13482
363.336	3380
363.420	4048
363.503	16935
363.587	28868
363.671	5067
363.755	2167
363.839	5037
363.923	1642
364.007	3396
364.091	5062
364.175	4729
364.258	30747
364.342	22387
364.426	11217
364.510	6538
364.594	4487
364.677	6024
364.761	29941
364.845	31158
364.929	7788
365.013	6611
365.096	4559
365.180	6546
365.264	6035
365.347	32768
365.431	18939
365.515	3422
365.598	1031
365.682	1812
365.766	2120
365.849	3858
365.933	1186
366.017	2500
366.100	2246
366.184	58
366.267	719
366.351	584
366.435	627
366.518	364
366.602	322
366.685	124
366.769	945
366.852	2423
366.936	4606
367.019	2643
367.103	1951
367.186	3562
367.270	1262
367.353	28
367.436	1452
367.520	364
367.603	1015
367.687	1638
367.770	4095
367.853	2049
367.937	7063
368.020	17397
368.104	3888
368.187	3299
368.270	4790
368.353	4750
368.437	4941
368.520	12496
368.603	9108
368.687	9004
368.770	24363
368.853	6251
368.936	3339
369.020	4619
369.103	1794
369.186	134
369.269	995
369.352	2307
369.436	4324
369.519	2259
369.602	376
369.685	821
369.768	1830
369.851	885
369.934	-96
370.018	829
370.101	3138
370.184	3371
370.267	1501
370.350	3611
370.433	5483
370.516	14992
370.599	24286
370.682	6130
370.765	10836
370.848	13591
370.931	27532
371.014	13268
371.097	2091
371.180	1282
371.263	495
371.346	623
371.429	1390
371.511	1000
371.594	2202
371.677	4338
371.760	5846
371.843	4214
371.926	18148
372.009	57814
372.091	23465
372.174	8964
372.257	25647
372.340	12182
372.423	6414
372.505	8718
372.588	4717
372.671	5810
372.754	26559
372.836	16769
372.919	6749
373.002	19477
373.085	6974
373.167	4339
373.250	9393
373.332	23962
373.415	29758
373.498	74319
373.580	33111
373.663	26417
373.746	50285
373.828	12937
373.911	3848
373.993	4081
374.076	15746
374.159	19754
374.241	6739
374.324	20038
374.406	18014
374.489	15511
374.571	58224
374.654	30493
374.736	9822
374.819	31609
374.901	47846
374.983	59333
375.066	12843
375.148	3427
375.231	10960
375.313	30919
375.395	12492
375.478	2322
375.560	779
375.643	2357
375.725	6736
375.807	39519
375.890	39482
375.972	13781
376.054	6157
376.136	9449
376.219	6343
376.301	8827
376.383	37459
376.465	18432
376.548	7330
376.630	9094
376.712	30322
376.794	18708
376.877	1529
376.959	506
377.041	542
377.123	2399
377.205	4196
377.287	1367
377.369	319
377.452	786
377.534	39
377.616	501
377.698	582
377.780	-224
377.862	1293
377.944	1400
378.026	-275
378.108	323
378.190	511
378.272	814
378.354	294
378.436	-52
378.518	817
378.600	7299
378.682	5700
378.764	13483
378.846	14291
378.928	3891
379.010	4151
379.091	2900
379.173	543
379.255	-571
379.337	1287
379.419	4697
379.501	22259
379.583	11252
379.664	1387
379.746	4581
379.828	13750
379.910	20793
379.991	20850
380.073	4270
380.155	1762
380.237	1592
380.318	298
380.400	844
380.482	1847
380.564	5493
380.645	3989
380.727	4826
380.809	3167
380.890	1480
380.972	685
381.053	1455
381.135	1286
381.217	2753
381.298	16369
381.380	10160
381.461	5195
381.543	25713
381.624	45911
381.706	10647
381.787	3036
381.869	4159
381.951	10150
382.032	50407
382.113	42599
382.195	9175
382.276	5774
382.358	8786
382.439	26940
382.521	31106
382.602	54211
382.684	27672
382.765	40092
382.846	52903
382.928	74141
383.009	51637
383.090	31215
383.172	95841
383.253	171497
383.334	68053
383.416	49984
383.497	33875
383.578	15898
383.659	27299
383.741	85474
383.822	230400
383.903	147589
383.984	43444
384.066	58320
384.147	42722
384.228	10606
384.309	5681
384.390	4904
384.471	2723
384.553	3399
384.634	4065
384.715	5444
384.796	2102
384.877	3055
384.958	12799
385.039	20051
385.120	7689
385.201	3024
385.282	3445
385.363	4254
385.444	3300
385.525	5936
385.606	20101
385.687	22665
385.768	4975
385.849	4659
385.930	20036
386.011	49069
386.092	16090
386.173	3317
386.254	1546
386.335	2715
386.416	2132
386.496	6902
386.577	16666
386.658	5897
386.739	3154
386.820	2842
386.901	1159
386.981	1636
387.062	757
387.143	2040
387.224	11949
387.304	16752
387.385	5048
387.466	1668
387.547	3064
387.627	1905
387.708	2982
387.789	21985
387.869	37570
387.950	12156
388.031	2134
388.111	-580
388.192	3988
388.273	6363
388.353	3844
388.434	1972
388.514	3619
388.595	21409
388.676	36647
388.756	18357
388.837	13304
388.917	11146
388.998	1240
389.078	1426
389.159	1259
389.239	956
389.320	2085
389.400	1960
389.480	4425
389.561	15552
389.641	10722
389.722	2349
389.802	3850
389.883	5367
389.963	18921
390.043	14520
390.124	4011
390.204	3733
390.284	16959
390.365	13344
390.445	11470
390.525	41687
390.605	47952
390.686	14440
390.766	3988
390.846	1499
390.927	480
391.007	387
391.087	1488
391.167	1412
391.247	552
391.328	1500
391.408	4379
391.488	3491
391.568	75
391.648	1290
391.728	2723
391.808	2931
391.888	2191
391.969	6535
392.049	15512
392.129	6780
392.209	5208
392.289	18549
392.369	11391
392.449	6569
392.529	4944
392.609	2908
392.689	4033
392.769	15772
392.849	17326
392.929	8655
393.009	22266
393.089	19869
393.169	10194
393.248	24708
393.328	133406
393.408	199164
393.488	52037
393.568	11439
393.648	6006
393.728	4081
393.807	2906
393.887	2674
393.967	2490
394.047	3390
394.127	5382
394.206	9244
394.286	29652
394.366	137784
394.446	202657
394.525	63361
394.605	14373
394.685	8209
394.764	11431
394.844	19290
394.924	17302
395.003	5127
395.083	3796
395.163	3423
395.242	2028
395.322	3444
395.402	1651
395.481	3621
395.561	5678
395.640	21287
395.720	18998
395.799	23157
395.879	25757
395.958	16697
396.038	47789
396.117	182529
396.197	256600
396.276	99662
396.356	29514
396.435	16391
396.515	9867
396.594	7972
396.673	10840
396.753	31301
396.832	136925
396.912	134242
396.991	34078
397.070	7437
397.150	4015
397.229	2748
397.308	2565
397.388	3489
397.467	2682
397.546	1240
397.625	37
397.705	2280
397.784	1983
397.863	1171
397.942	756
398.022	-46
398.101	3538
398.180	19126
398.259	12506
398.338	3179
398.417	1356
398.497	193
398.576	600
398.655	11
398.734	1000
398.813	827
398.892	3050
398.971	20791
399.050	14033
399.129	887
399.208	-309
399.287	722
399.366	439
399.445	769
399.524	230
399.603	-801
399.682	889
399.761	4552
399.840	20836
399.919	22381
399.998	2979
400.077	-518
400.156	-1189
400.235	1256
400.313	340
400.392	70
400.471	6118
400.550	14042
400.629	3970
400.708	1446
400.786	-153
400.865	2716
400.944	5131
401.023	2558
401.102	17
401.180	-163
401.259	-147
401.338	101
401.416	905
401.495	621
401.574	1136
401.652	-895
401.731	138
401.810	563
401.888	107
401.967	-812
402.046	255
402.124	560
402.203	1157
402.281	753
402.360	849
402.438	4967
402.517	3824
402.596	1213
402.674	418
402.753	-384
402.831	710
402.910	43
402.988	1416
403.066	10915
403.145	9295
403.223	2605
403.302	8748
403.380	7541
403.459	5468
403.537	2150
403.615	231
403.694	-1053
403.772	375
403.850	-692
403.929	-298
404.007	-789
404.085	1646
404.164	693
404.242	1644
404.320	6351
404.398	28848
404.477	35283
404.555	42560
404.633	48454
404.711	25841
404.789	19500
404.868	3555
404.946	738
405.024	328
405.102	-357
405.180	-446
405.258	-599
405.336	635
405.415	-218
405.493	1666
405.571	1404
405.649	-838
405.727	-787
405.805	713
405.883	-186
405.961	222
406.039	1086
406.117	-478
406.195	704
406.273	4714
406.351	32305
406.429	26533
406.507	2793
406.585	-94
406.663	644
406.740	735
406.818	527
406.896	-435
406.974	908
407.052	987
407.130	14909
407.208	33010
407.285	7460
407.363	85
407.441	444
407.519	-294
407.596	249
407.674	2180
407.752	9822
407.830	12259
407.907	3645
407.985	505
408.063	476
408.141	-1050
408.218	772
408.296	100
408.373	-536
408.451	825
408.529	-138
408.606	-292
408.684	-516
408.762	-519
408.839	-551
408.917	-463
408.994	-208
409.072	-535
409.149	-471
409.227	187
409.304	295
409.382	-375
409.459	147
409.537	37
409.614	180
409.692	-674
409.769	-542
409.846	-104
409.924	1178
410.001	65
410.079	495
410.156	772
410.233	351
410.311	-417
410.388	-810
410.465	-218
410.543	450
410.620	-138
410.697	-158
410.775	-83
410.852	-1667
410.929	612
411.006	1139
411.083	-729
411.161	1013
411.238	2247
411.315	336
411.392	22
411.469	186
411.547	741
411.624	-969
411.701	-84
411.778	388
411.855	1293
411.932	107
412.009	-47
412.086	-969
412.163	686
412.240	-28
412.317	393
412.394	371
412.471	318
412.548	-418
412.625	-623
412.702	-195
412.779	1021
412.856	1268
412.933	-79
413.010	174
413.087	94
413.164	4712
413.241	12050
413.318	2710
413.395	1153
413.471	1548
413.548	485
413.625	-126
413.702	-406
413.779	473
413.855	-196
413.932	-74
414.009	-1301
414.086	-792
414.162	653
414.239	126
414.316	4089
414.393	16246
414.469	6724
414.546	-328
414.623	-1063
414.699	-848
414.776	-409
414.853	-70
414.929	61
415.006	83
415.082	176
415.159	-99
415.236	-134
415.312	-132
415.389	491
415.465	967
415.542	-3
415.618	-1213
415.695	1001
415.771	-231
415.848	-408
415.924	-264
416.000	-134
416.077	-264
416.153	-819
416.230	-1312
416.306	-448
416.383	-881
416.459	358
416.535	-772
416.612	-1328
416.688	-1085
416.764	-813
416.841	-1383
416.917	-584
416.993	-99
417.069	-55
417.146	122
417.222	2304
417.298	1257
417.374	-281
417.451	-351
417.527	-520
417.603	-48
417.679	-298
417.755	-455
417.831	-1696
417.908	-311
417.984	-187
418.060	-545
418.136	1287
418.212	1651
418.288	698
418.364	112
418.440	-1276
418.516	706
418.592	488
418.668	2365
418.744	3379
418.820	3611
418.896	300
418.972	-1035
419.048	-68
419.124	1262
419.200	278
419.276	-192
419.352	-1412
419.428	-528
419.504	-985
419.579	484
419.655	-163
419.731	-1026
419.807	1023
419.883	4155
419.959	3468
420.034	1036
420.110	638
420.186	8193
420.262	9897
420.337	1744
420.413	-262
420.489	-498
420.565	-332
420.640	-1433
420.716	112
420.792	-1781
420.867	454
420.943	-695
421.019	95
421.094	-271
421.170	-478
421.245	-1125
421.321	-228
421.397	-658
421.472	874
421.548	5009
421.623	5497
421.699	1236
421.774	-32
421.850	-500
421.925	1420
422.001	1367
422.076	-124
422.152	66
422.227	1091
422.302	2596
422.378	2351
422.453	4998
422.529	13888
422.604	51880
422.679	134597
422.755	98730
422.830	27620
422.905	7961
422.981	3028
423.056	2077
423.131	1756
423.207	858
423.282	76
423.357	2823
423.432	1758
423.508	1300
423.583	2199
423.658	3884
423.733	1103
423.808	773
423.883	647
423.959	195
424.034	512
424.109	-318
424.184	-795
424.259	-622
424.334	-10
424.409	-271
424.484	-635
424.559	-537
424.634	-599
424.709	-26
424.784	676
424.859	-99
424.934	-940
425.009	4154
425.084	11939
425.159	4921
425.234	183
425.309	-567
425.384	1310
425.459	4839
425.534	1190
425.609	-1395
425.683	350
425.758	-390
425.833	29
425.908	-333
425.983	1379
426.058	10917
426.132	6574
426.207	74
426.282	185
426.357	944
426.431	-74
426.506	-99
426.581	-117
426.655	-409
426.730	-745
426.805	-996
426.879	-186
426.954	47
427.029	312
427.103	6703
427.178	28394
427.253	17820
427.327	1434
427.402	345
427.476	5197
427.551	3968
427.625	-192
427.700	-553
427.774	-764
427.849	-490
427.923	-1087
427.998	-925
428.072	-1255
428.147	449
428.221	4480
428.296	16076
428.370	11689
428.444	270
428.519	-400
428.593	2383
428.667	3095
428.742	3042
428.816	2880
428.890	8187
428.965	20422
429.039	8202
429.113	3802
429.188	1705
429.262	-242
429.336	207
429.410	3901
429.485	3423
429.559	2073
429.633	2938
429.707	-484
429.781	907
429.855	9492
429.930	20332
430.004	11163
430.078	17025
430.152	17741
430.226	21921
430.300	33566
430.374	5195
430.448	1098
430.522	3647
430.596	17965
430.670	13805
430.744	16582
430.818	41520
430.892	12567
430.966	330
431.040	145
431.114	-926
431.188	-647
431.262	-1040
431.336	-986
431.410	597
431.484	3567
431.557	3553
431.631	-53
431.705	-864
431.779	-20
431.853	10513
431.927	12560
432.000	1477
432.074	-148
432.148	-222
432.222	-623
432.295	-884
432.369	-434
432.443	-654
432.516	6577
432.590	29243
432.664	15570
432.737	1228
432.811	-718
432.885	-664
432.958	15
433.032	-813
433.106	-1072
433.179	-1212
433.253	-555
433.326	-742
433.400	-562
433.473	-363
433.547	-1139
433.620	-878
433.694	-666
433.767	945
433.841	-1281
433.914	-315
433.988	-1359
434.061	-258
434.134	-546
434.208	-1004
434.281	-1023
434.355	-1260
434.428	-376
434.501	-1307
434.575	-994
434.648	-686
434.721	-991
434.795	-1226
434.868	-977
434.941	-1825
435.014	-1089
435.088	-945
435.161	46
435.234	611
435.307	676
435.381	-243
435.454	-528
435.527	-314
435.600	-201
435.673	-610
435.746	-1062
435.819	-44
435.892	-824
435.966	-741
436.039	-759
436.112	-391
436.185	-1179
436.258	-643
436.331	-1125
436.404	-677
436.477	-1134
436.550	-907
436.623	-892
436.696	-737
436.769	-970
436.842	-1481
436.915	-532
436.987	-1094
437.060	-734
437.133	-1659
437.206	-1137
437.279	-745
437.352	-1433
437.425	-674
437.498	-1287
437.570	1046
437.643	772
437.716	-838
437.789	-1113
437.861	-243
437.934	3009
438.007	1115
438.080	-298
438.152	-849
438.225	622
438.298	7618
438.370	40826
438.443	23884
438.516	4424
438.588	-39
438.661	-986
438.734	-340
438.806	-478
438.879	150
438.951	-945
439.024	832
439.096	-243
439.169	-884
439.241	-873
439.314	-1048
439.386	-208
439.459	176
439.531	616
439.604	-299
439.676	-750
439.749	-717
439.821	-1200
439.893	-413
439.966	-998
440.038	-831
440.110	-89
440.183	-440
440.255	-373
440.327	-375
440.400	2582
440.472	20505
440.544	21946
440.617	2159
440.689	716
440.761	1270
440.833	1704
440.905	1748
440.978	-463
441.050	-936
441.122	-539
441.194	-1066
441.266	-479
441.338	-974
441.411	-562
441.483	4348
441.555	11630
441.627	2062
441.699	35
441.771	-161
441.843	-429
441.915	-947
441.987	-1159
442.059	-1445
442.131	26
442.203	-402
442.275	466
442.347	243
442.419	360
442.491	1387
442.563	11382
442.635	7751
442.706	3574
442.778	4028
442.850	-302
442.922	-850
442.994	-921
443.066	-396
443.137	-455
443.209	-763
443.281	-48
443.353	1000
443.425	3914
443.496	20573
443.568	26115
443.640	10293
443.711	1484
443.783	-994
443.855	-1062
443.926	-404
443.998	-809
444.070	-102
444.141	-210
444.213	-52
444.285	632
444.356	-201
444.428	-24
444.499	-507
444.571	-1520
444.642	-1049
444.714	-384
444.785	-407
444.857	87
444.928	1688
445.000	1398
445.071	580
445.143	1666
445.214	288
445.285	138
445.357	5238
445.428	13318
445.500	42011
445.571	30940
445.642	13463
445.714	4741
445.785	6096
445.856	1073
445.928	556
445.999	311
446.070	450
446.141	102
446.213	390
446.284	230
446.355	-468
446.426	-811
446.497	-1539
446.569	-436
446.640	-266
446.711	971
446.782	-817
446.853	-285
446.924	-115
446.995	-345
447.066	-712
447.138	389
447.209	-862
447.280	-913
447.351	-1167
447.422	-931
447.493	-1234
447.564	-466
447.635	-366
447.706	-505
447.777	-1214
447.847	-677
447.918	-1517
447.989	-370
448.060	-318
448.131	1175
448.202	1112
448.273	725
448.344	-438
448.414	-396
448.485	-717
448.556	-1371
448.627	-1356
448.698	-681
448.768	-1128
448.839	-1268
448.910	-237
448.981	166
449.051	-204
449.122	-252
449.193	-1336
449.263	-708
449.334	-1629
449.405	-276
449.475	667
449.546	469
449.616	386
449.687	537
449.758	-469
449.828	-1150
449.899	-658
449.969	-695
450.040	-747
450.110	-394
450.181	-473
450.251	-925
450.322	-422
450.392	-351
450.463	-1019
450.533	-667
450.604	-1035
450.674	-514
450.744	-867
450.815	-631
450.885	-796
450.955	-1001
451.026	-1200
451.096	-1279
451.166	-1089
451.237	-73
451.307	2231
451.377	945
451.447	40
451.518	-1207
451.588	-1320
451.658	-391
451.728	-859
451.799	1353
451.869	3563
451.939	-191
452.009	-505
452.079	-1356
452.149	-367
452.219	-570
452.289	3019
452.360	2829
452.430	-365
452.500	-1223
452.570	-724
452.640	496
452.710	683
452.780	3696
452.850	1935
452.920	2311
452.990	-184
453.060	-131
453.129	-1080
453.199	966
453.269	1585
453.339	10840
453.409	20117
453.479	13131
453.549	22263
453.619	25770
453.688	11821
453.758	1338
453.828	-824
453.898	-927
453.968	-564
454.037	69
454.087	-213
454.107	-339
454.168	-756
454.177	-828
454.247	-904
454.249	-895
454.316	-1093
454.330	-979
454.386	-562
454.411	-123
454.456	357
454.492	1380
454.525	2231
454.574	1306
454.595	926
454.655	-140
454.665	-311
454.734	-39
454.736	-14
454.804	-282
454.817	317
454.873	2316
454.898	3328
454.943	4814
454.979	2764
455.013	1036
455.060	432
455.082	272
455.141	-28
455.152	-69
455.221	2645
455.222	2758
455.291	6491
455.303	6859
455.360	7849
455.384	11077
455.430	14547
455.465	12484
455.499	10833
455.546	6116
455.569	3852
455.627	2579
455.638	2454
455.707	-52
455.708	-37
455.777	-511
455.789	-499
455.846	-610
455.869	-634
455.916	-518
455.950	-223
455.985	-48
456.031	-348
456.054	-472
456.112	-135
456.124	-118
456.193	-307
456.193	-318
456.262	-415
456.274	-271
456.332	128
456.355	16
456.401	-500
456.436	-328
456.470	-23
456.516	-513
456.540	-753
456.597	-439
456.609	-381
456.678	-331
456.678	-343
456.747	-559
456.759	-588
456.817	-663
456.840	-716
456.886	-817
456.920	-604
456.955	-342
457.001	-488
457.024	-535
457.082	-99
457.093	-39
457.162	537
457.163	555
457.232	646
457.243	664
457.301	671
457.324	222
457.370	-545
457.405	-464
457.439	-333
457.485	359
457.508	677
457.566	298
457.577	224
457.646	-119
457.647	-101
457.715	501
457.727	568
457.784	1228
457.808	1670
457.853	2436
457.889	3243
457.922	3306
457.969	2580
457.991	2647
458.050	2970
458.060	3084
458.129	4779
458.130	4840
458.198	4451
458.211	4124
458.267	2278
458.292	1923
458.336	2037
458.372	1706
458.405	1797
458.453	1891
458.474	2344
458.533	4488
458.543	4754
458.611	7246
458.614	7379
458.680	5263
458.694	4394
458.749	2527
458.775	1668
458.818	887
458.855	664
458.887	527
458.936	406
458.955	412
459.016	560
459.024	599
459.093	1496
459.097	1508
459.162	999
459.177	865
459.230	1054
459.257	1522
459.299	1947
459.338	1862
459.368	1824
459.418	1900
459.437	1651
459.499	1059
459.505	1103
459.574	1430
459.579	1450
459.643	1037
459.659	1047
459.711	1306
459.740	1419
459.780	1622
459.820	1743
459.849	1785
459.900	1790
459.917	1772
459.981	2311
459.986	2346
460.054	2176
460.061	2196
460.123	2321
460.141	2279
460.191	2774
460.222	3438
460.260	4142
460.302	4557
460.328	4215
460.382	3617
460.397	3541
460.462	2783
460.465	2811
460.534	4766
460.543	4885
460.602	12884
460.623	15983
460.671	27797
460.703	37308
460.739	33827
460.783	30074
460.808	25265
460.864	6069
460.876	5039
460.944	2361
460.945	2325
461.013	1691
461.024	1746
461.081	2265
461.104	2228
461.150	1757
461.184	1458
461.218	1658
461.264	1905
461.286	1773
461.345	1901
461.355	1960
461.423	1956
461.425	1958
461.491	1836
461.505	1750
461.559	2938
461.585	3650
461.628	6700
461.665	9393
461.696	10726
461.745	13574
461.764	11475
461.825	3471
461.832	3422
461.901	2312
461.905	2310
461.969	2197
461.985	2119
462.037	2128
462.065	2210
462.105	2384
462.145	2484
462.173	3652
462.225	5657
462.241	6197
462.305	8817
462.310	8570
462.378	4865
462.385	4367
462.446	2889
462.465	2426
462.514	2406
462.545	2547
462.582	2328
462.625	2043
462.650	2150
462.705	2320
462.718	2342
462.785	2551
462.786	2563
462.854	2956
462.865	3041
462.922	4308
462.945	5027
462.990	4107
463.025	2935
463.058	2657
463.104	2361
463.126	2224
463.184	1932
463.194	2029
463.262	2781
463.264	2803
463.330	2419
463.344	2285
463.398	2790
463.424	3086
463.466	2805
463.504	2762
463.533	2854
463.583	2608
463.601	2625
463.663	2807
463.669	2911
463.737	4242
463.743	4338
463.805	6047
463.823	6548
463.873	9824
463.903	11925
463.940	13025
463.982	14467
464.008	11750
464.062	5348
464.076	4934
464.142	2656
464.144	2659
464.211	3094
464.221	3148
464.279	3331
464.301	3342
464.347	2988
464.381	2834
464.414	3442
464.461	4359
464.482	4571
464.540	4848
464.550	4818
464.617	4682
464.620	4670
464.685	5098
464.699	5188
464.753	6627
464.779	7217
464.820	7268
464.859	7545
464.888	7343
464.938	6782
464.956	6946
465.018	7442
465.023	7373
465.091	6482
465.098	6352
465.158	5660
465.177	5512
465.226	6487
465.257	7035
465.293	6888
465.336	6584
465.361	6714
465.416	7152
465.428	7433
465.495	8768
465.496	8820
465.563	14476
465.575	15426
465.631	18306
465.654	19609
465.698	13471
465.734	8102
465.765	7598
465.813	6807
465.833	6512
465.893	5685
465.900	5781
465.968	6497
465.972	6540
466.035	6554
466.052	6524
466.102	6736
466.131	6845
466.170	6736
466.210	6560
466.237	6872
466.290	7541
466.304	7564
466.369	7460
466.372	7516
466.439	8813
466.449	8961
466.506	9292
466.528	9432
466.573	11678
466.607	13302
466.641	17537
466.687	23370
466.708	25648
466.766	31831
466.775	29852
466.842	14530
466.845	13771
466.909	11739
466.925	11237
466.977	10821
467.004	10599
467.044	10885
467.083	11126
467.111	11901
467.163	13275
467.178	13663
467.242	15145
467.245	15080
467.312	13083
467.321	12792
467.379	12031
467.400	11718
467.446	12497
467.480	13019
467.559	12364
467.638	9356
467.717	10495
467.796	11100
467.875	11387
467.955	10279
468.034	12686
468.113	24415
468.192	35988
468.271	13076
468.350	8278
468.429	8061
468.508	8669
468.588	8090
468.667	8517
468.746	7774
468.825	8587
468.904	7423
468.983	8628
469.062	10326
469.141	14515
469.220	8619
469.299	7272
469.378	7028
469.456	10712
469.535	9442
469.614	8265
469.693	7928
469.772	10506
469.851	12292
469.930	11125
470.009	8116
470.088	7727
470.166	9535
470.245	12561
470.324	15588
470.403	13064
470.482	9255
470.560	8227
470.639	8136
470.718	9226
470.797	7985
470.875	7878
470.954	10093
471.033	11860
471.111	6217
471.190	6393
471.269	5636
471.347	5239
471.426	5942
471.505	7208
471.583	9285
471.662	7577
471.740	6496
471.819	7517
471.898	6514
471.976	7075
472.055	6405
472.133	7137
472.212	8682
472.290	9069
472.369	6284
472.447	6183
472.526	5090
472.604	6962
472.683	6711
472.761	6931
472.839	6041
472.918	5672
472.996	6128
473.075	7026
473.153	6655
473.231	6406
473.310	6262
473.388	6177
473.466	6030
473.545	7144
473.623	9415
473.701	10301
473.780	6042
473.858	5903
473.936	6833
474.014	5374
474.093	6645
474.171	8911
474.249	12431
474.327	8762
474.405	6166
474.484	6303
474.562	6293
474.640	6261
474.718	6309
474.796	6677
474.874	6527
474.952	6084
475.030	5744
475.108	6844
475.187	8216
475.265	8016
475.343	8156
475.421	9351
475.499	6482
475.577	7332
475.655	7054
475.733	13196
475.811	21806
475.889	20322
475.966	15931
476.044	5447
476.122	6245
476.200	7024
476.278	5679
476.356	5549
476.434	5614
476.512	6920
476.590	6874
476.667	6729
476.745	3901
476.823	5815
476.901	5166
476.979	5428
477.056	4868
477.134	4809
477.212	4648
477.290	5022
477.367	4763
477.445	4634
477.523	4262
477.601	4754
477.678	4239
477.756	5495
477.834	6337
477.911	3781
477.989	4398
478.066	3982
478.144	4994
478.222	5919
478.299	5737
478.377	6811
478.454	5065
478.532	4529
478.609	3733
478.687	5231
478.764	4425
478.842	4641
478.919	4954
478.997	4376
479.074	4698
479.152	4586
479.229	6950
479.307	4725
479.384	3355
479.461	4187
479.539	3547
479.616	5418
479.694	3739
479.771	3991
479.848	5323
479.926	6501
480.003	7785
480.080	4821
480.157	3482
480.235	3968
480.312	4310
480.389	4230
480.467	6884
480.544	9960
480.621	4797
480.698	4525
480.775	5073
480.853	5058
480.930	4590
481.007	5339
481.084	5261
481.161	6619
481.238	5614
481.315	4267
481.392	3832
481.470	4000
481.547	3081
481.624	4080
481.701	3776
481.778	3742
481.855	4393
481.932	6261
482.009	10453
482.086	8982
482.163	3708
482.240	4662
482.317	6563
482.393	6025
482.470	4443
482.547	3829
482.624	3785
482.701	4340
482.778	3721
482.855	3615
482.932	3057
483.009	2784
483.085	3943
483.162	4872
483.239	5470
483.316	3766
483.393	2916
483.469	2229
483.546	3423
483.623	4959
483.699	3333
483.776	3603
483.853	4057
483.930	6583
484.006	15801
484.083	31705
484.160	19555
484.236	32838
484.313	25768
484.389	18133
484.466	16480
484.543	14886
484.619	15525
484.696	16571
484.772	15532
484.849	16683
484.925	14138
485.002	13333
485.078	14996
485.155	15447
485.231	14105
485.308	12145
485.384	13484
485.461	15650
485.537	21580
485.614	28696
485.690	13820
485.766	12248
485.843	13320
485.919	16587
485.995	18675
486.072	12390
486.148	11832
486.224	11638
486.301	11710
486.377	14087
486.453	14768
486.530	14034
486.606	18633
486.682	20787
486.758	21967
486.835	25021
486.911	19252
486.987	28055
487.063	31965
487.139	39633
487.215	29371
487.292	17680
487.368	13130
487.444	14334
487.520	16350
487.596	16595
487.672	18055
487.748	26752
487.824	41399
487.900	24911
487.976	14458
488.052	13881
488.128	16388
488.204	14442
488.280	12848
488.356	13383
488.432	21279
488.508	37770
488.584	16211
488.660	11650
488.736	11892
488.812	10859
488.888	15316
488.964	18147
489.039	32221
489.115	53933
489.191	38286
489.267	13523
489.343	11941
489.418	9624
489.494	9852
489.570	8834
489.646	9602
489.722	9926
489.797	10463
489.873	12486
489.949	24701
490.024	26275
490.100	10055
490.176	9250
490.251	10910
490.327	14849
490.403	9654
490.478	8942
490.554	7412
490.629	8539
490.705	6464
490.781	8833
490.856	7713
490.932	10408
491.007	9730
491.083	9940
491.158	9577
491.234	10727
491.309	18820
491.385	23120
491.460	9301
491.536	9404
491.611	8541
491.686	8812
491.762	11743
491.837	21073
491.913	38063
491.988	46480
492.063	69338
492.139	22674
492.214	11579
492.289	8005
492.365	6842
492.440	9299
492.515	7454
492.590	8624
492.666	6343
492.741	8343
492.816	12583
492.891	8863
492.967	7774
493.042	6673
493.117	7462
493.192	8796
493.267	14697
493.342	46943
493.418	79343
493.493	17492
493.568	6865
493.643	6161
493.718	8323
493.793	10973
493.868	13181
493.943	8973
494.018	7234
494.093	5814
494.168	5409
494.243	5452
494.318	4916
494.393	5609
494.468	5139
494.543	6216
494.618	6087
494.693	5486
494.768	5603
494.842	6496
494.917	5204
494.992	6011
495.067	6009
495.142	5961
495.217	6514
495.292	6004
495.366	6883
495.441	8998
495.516	10286
495.591	14576
495.665	37335
495.740	107615
495.815	59532
495.890	11938
495.964	7984
496.039	9496
496.114	8273
496.188	9576
496.263	10466
496.338	8783
496.412	8605
496.487	11457
496.561	10776
496.636	13306
496.710	10921
496.785	11379
496.860	12257
496.934	11963
497.009	11274
497.083	11336
497.158	13672
497.232	14549
497.307	16181
497.381	15189
497.455	16424
497.530	21101
497.604	19175
497.679	18292
497.753	25585
497.827	32896
497.902	33172
497.976	36882
498.050	55069
498.125	169749
498.199	219979
498.273	52711
498.348	40364
498.422	35789
498.496	34197
498.570	30878
498.645	24617
498.719	23613
498.793	23659
498.867	28013
498.941	32859
499.016	62967
499.090	193777
499.164	93844
499.238	15728
499.312	12378
499.386	14174
499.460	13799
499.534	11860
499.609	12885
499.683	16551
499.757	17769
499.831	26975
499.905	108054
499.979	134759
500.053	21544
500.127	18564
500.201	15444
500.275	10138
500.349	8676
500.422	10435
500.496	13404
500.570	26952
500.644	58052
500.718	129296
500.792	37895
500.866	8951
500.940	9651
501.013	9062
501.087	7857
501.161	14438
501.235	18301
501.309	30256
501.382	93675
501.456	105906
501.530	21535
501.603	32790
501.677	16543
501.751	6310
501.825	7435
501.898	11374
501.972	37202
502.046	30437
502.119	7432
502.193	15286
502.266	43597
502.340	25382
502.413	15495
502.487	36743
502.561	23335
502.634	8365
502.708	7084
502.781	5121
502.855	4867
502.928	2769
503.002	3461
503.075	3613
503.149	3559
503.222	3837
503.295	5041
503.369	5949
503.442	7979
503.516	22929
503.589	72742
503.662	56128
503.736	15454
503.809	30926
503.882	29988
503.956	35556
504.029	41117
504.102	17652
504.175	20001
504.249	9900
504.322	7285
504.395	6874
504.468	4540
504.542	3241
504.615	3210
504.688	2776
504.761	2986
504.834	4558
504.907	5844
504.980	9422
505.053	5098
505.127	5594
505.200	8521
505.273	5837
505.346	4149
505.419	1600
505.492	3470
505.565	2332
505.638	2493
505.711	2588
505.784	2499
505.857	1521
505.930	3127
506.003	2577
506.076	4036
506.149	3666
506.221	5672
506.294	4662
506.367	11545
506.440	48874
506.513	36184
506.586	7556
506.659	3608
506.731	3684
506.804	3621
506.877	5445
506.950	5125
507.022	2237
507.095	3203
507.168	5443
507.241	3059
507.313	2616
507.386	3493
507.459	5294
507.531	3843
507.604	2560
507.677	2113
507.749	1937
507.822	3369
507.894	9498
507.967	14047
508.040	7592
508.112	5694
508.185	5061
508.257	5214
508.330	7950
508.402	5875
508.475	4905
508.547	5521
508.620	4846
508.692	8224
508.765	6040
508.837	4356
508.909	3955
508.982	3718
509.054	5225
509.127	4881
509.199	3367
509.271	3689
509.344	3850
509.416	4039
509.488	3965
509.560	3486
509.633	4535
509.705	5540
509.777	5500
509.849	8336
509.922	6616
509.994	5872
510.066	5335
510.138	5295
510.210	12665
510.283	11909
510.355	8471
510.427	7422
510.499	6615
510.571	6188
510.643	6943
510.715	9758
510.787	9201
510.859	6444
510.931	7651
511.003	9352
511.076	8958
511.148	5730
511.219	6800
511.291	9743
511.363	11246
511.435	6823
511.507	6506
511.579	5094
511.651	5601
511.723	5107
511.795	4593
511.867	5274
511.939	6598
512.010	10811
512.082	10088
512.154	5351
512.226	5977
512.298	7489
512.369	14247
512.441	10727
512.513	9219
512.585	7849
512.656	8090
512.728	7779
512.800	6208
512.871	5609
512.943	6182
513.015	5195
513.086	5911
513.158	6606
513.230	6240
513.301	9113
513.373	10091
513.444	6495
513.516	5599
513.588	5062
513.659	6224
513.731	6901
513.802	5780
513.874	11497
513.945	22464
514.016	10166
514.088	5254
514.159	6202
514.231	7277
514.302	10502
514.374	8283
514.445	7083
514.516	13741
514.588	12409
514.659	7758
514.730	12196
514.802	11793
514.873	11026
514.944	14161
515.016	10693
515.087	10614
515.158	10419
515.229	15473
515.301	12870
515.372	18696
515.443	17023
515.514	11553
515.585	8984
515.656	8109
515.728	6758
515.799	6607
515.870	6454
515.941	6207
516.012	5410
516.083	8321
516.154	9070
516.225	11721
516.296	10873
516.367	10110
516.438	12274
516.509	15125
516.580	21962
516.651	51026
516.722	207768
516.793	138444
516.864	25006
516.935	20091
517.006	23304
517.077	30293
517.148	63130
517.219	209144
517.289	436972
517.360	130215
517.431	39655
517.502	12217
517.573	10259
517.643	10017
517.714	9939
517.785	11685
517.856	10114
517.926	14786
517.997	17169
518.068	22120
518.138	32338
518.209	47600
518.280	137499
518.350	532760
518.421	341790
518.492	43985
518.562	18648
518.633	13137
518.703	11265
518.774	13434
518.845	21022
518.915	22439
518.986	13081
519.056	11958
519.127	18570
519.197	27830
519.268	56776
519.338	48626
519.408	11445
519.479	13079
519.549	10474
519.620	6814
519.690	5330
519.760	5713
519.831	5347
519.901	5342
519.971	4660
520.042	4640
520.112	4910
520.182	6963
520.253	8146
520.323	5854
520.393	8017
520.463	15272
520.534	8033
520.604	20144
520.674	10537
520.744	7607
520.814	20648
520.885	22246
520.955	16169
521.025	62841
521.095	35628
521.165	5811
521.235	5305
521.305	5029
521.375	4231
521.445	4630
521.515	6441
521.585	7739
521.655	7566
521.725	5597
521.795	6338
521.865	3338
521.935	7184
522.005	6662
522.075	4205
522.145	3967
522.215	4243
522.285	6996
522.355	9074
522.424	16167
522.494	16424
522.564	10309
522.634	12726
522.704	46000
522.774	25320
522.843	5757
522.913	3860
522.983	5901
523.053	4778
523.122	4400
523.192	6790
523.262	20120
523.331	29957
523.401	7614
523.471	2927
523.540	3696
523.610	2597
523.680	3143
523.749	3503
523.819	3487
523.888	3989
523.958	3612
524.027	2678
524.097	4113
524.166	3087
524.236	3442
524.305	4457
524.375	2585
524.444	2390
524.514	3213
524.583	3395
524.653	4708
524.722	5305
524.791	3952
524.861	3867
524.930	2176
524.999	3033
525.069	5091
525.138	3631
525.207	3946
525.277	3999
525.346	2600
525.415	3578
525.484	3089
525.554	3045
525.623	4096
525.692	3975
525.761	3140
525.830	2536
525.900	3566
525.969	6056
526.038	8028
526.107	12484
526.176	36260
526.245	38758
526.314	15883
526.383	21995
526.452	31135
526.522	43813
526.591	64554
526.660	30129
526.729	16263
526.797	15108
526.867	26903
526.935	117012
527.004	166542
527.073	102345
527.142	13080
527.211	5586
527.280	4489
527.349	5970
527.418	2569
527.487	4060
527.555	2626
527.624	2084
527.693	2222
527.762	2736
527.831	1639
527.899	2051
527.968	1929
528.037	1810
528.106	3585
528.174	6694
528.243	5984
528.312	7028
528.380	12978
528.449	4433
528.518	3302
528.586	1244
528.655	2756
528.723	2136
528.792	1730
528.861	2456
528.929	1687
528.998	3179
529.066	1716
529.135	3083
529.203	2028
529.272	3222
529.340	3781
529.409	4559
529.477	3315
529.545	4043
529.614	5746
529.682	5123
529.751	7370
529.819	7795
529.887	5956
529.956	5847
530.024	5056
530.092	4724
530.161	5857
530.229	7132
530.297	6638
530.365	5412
530.434	4833
530.502	5191
530.570	3946
530.638	2948
530.707	4683
530.775	5776
530.843	3310
530.911	4225
530.979	4263
531.047	4292
531.115	5481
531.183	3956
531.252	4747
531.320	4221
531.388	4209
531.456	4535
531.524	3957
531.592	4826
531.660	6804
531.728	5020
531.796	4772
531.864	4957
531.932	4727
532.000	5209
532.067	5832
532.135	6905
532.203	7042
532.271	8818
532.339	11342
532.407	22592
532.475	19983
532.542	9834
532.610	9540
532.678	11507
532.746	29247
532.814	98710
532.881	35399
532.949	8628
533.017	5834
533.084	6617
533.152	4703
533.220	5237
533.287	5488
533.355	5367
533.423	4973
533.490	5843
533.558	5493
533.625	5372
533.693	6567
533.761	5442
533.828	6483
533.896	6590
533.963	11759
534.031	15526
534.098	16254
534.166	10876
534.233	6277
534.300	7730
534.368	8212
534.435	6595
534.503	6460
534.570	7182
534.637	5653
534.705	6447
534.772	6639
534.840	6668
534.907	17410
534.974	29487
535.041	8518
535.109	5993
535.176	4514
535.243	4545
535.310	4781
535.378	4181
535.445	4195
535.512	4613
535.579	3696
535.646	4365
535.714	3559
535.781	6000
535.848	6654
535.915	6694
535.982	8146
536.049	9026
536.116	8556
536.183	5295
536.250	5101
536.317	5329
536.384	5917
536.451	7142
536.518	8272
536.585	5891
536.652	7287
536.719	9571
536.786	7472
536.853	5137
536.920	8456
536.987	12180
537.053	12235
537.120	37618
537.187	50022
537.254	6266
537.321	3227
537.388	4991
537.454	2904
537.521	3264
537.588	2798
537.654	4101
537.721	5367
537.788	6035
537.855	3242
537.921	3287
537.988	3759
538.055	5006
538.121	4115
538.188	4695
538.254	6901
538.321	11988
538.388	7951
538.454	4252
538.521	3222
538.587	3760
538.654	2998
538.720	3195
538.787	2549
538.853	3731
538.920	4698
538.986	3851
539.053	4403
539.119	3955
539.185	4019
539.252	4659
539.318	6985
539.385	6772
539.451	5770
539.517	5764
539.583	6232
539.650	10404
539.716	34391
539.782	14529
539.849	4232
539.915	4889
539.981	4400
540.047	5245
540.114	4080
540.180	6151
540.246	4261
540.312	6747
540.378	11251
540.444	13722
540.510	11406
540.576	36275
540.643	16848
540.709	3414
540.775	3752
540.841	3913
540.907	5109
540.973	9057
541.039	7490
541.105	8316
541.171	4637
541.237	3217
541.303	5084
541.369	5232
541.435	6813
541.500	9543
541.566	7341
541.632	4081
541.698	3874
541.764	4127
541.830	3892
541.896	3379
541.961	2991
542.027	3150
542.093	3594
542.159	4284
542.224	4465
542.290	6279
542.356	10957
542.421	12925
542.487	7153
542.553	4871
542.618	4866
542.684	3893
542.750	4624
542.815	5113
542.881	7496
542.947	27791
543.012	30787
543.078	5064
543.143	3887
543.209	5672
543.274	3691
543.340	5419
543.405	9008
543.471	21590
543.536	6441
543.602	3947
543.667	2919
543.732	4139
543.798	2611
543.863	3968
543.928	2154
543.994	3072
544.059	3353
544.124	3000
544.190	3207
544.255	4247
544.320	3873
544.386	3901
544.451	6224
544.516	7394
544.581	6194
544.646	15825
544.712	36019
544.777	9584
544.842	4822
544.907	5713
544.972	4254
545.037	3687
545.102	4639
545.168	4638
545.233	5250
545.298	6491
545.363	5983
545.428	7611
545.493	10289
545.558	23932
545.623	15125
545.688	5384
545.753	4483
545.818	4616
545.883	4279
545.947	4353
546.012	4699
546.077	4989
546.142	5503
546.207	3768
546.272	6499
546.337	6220
546.401	6342
546.466	4949
546.531	3756
546.596	5518
546.661	5183
546.725	6240
546.790	4201
546.855	4927
546.919	3896
546.984	5565
547.049	4502
547.113	6259
547.178	4997
547.243	6529
547.307	6881
547.372	7420
547.436	7777
547.501	7390
547.565	6892
547.630	8823
547.695	8692
547.759	7641
547.823	8154
547.888	7312
547.952	6514
548.017	6274
548.081	8532
548.146	10150
548.210	9793
548.274	7908
548.339	7092
548.403	6820
548.468	5789
548.532	5641
548.596	6832
548.660	6681
548.725	7662
548.789	7825
548.853	9416
548.917	8181
548.982	9042
549.046	10332
549.110	6376
549.174	6075
549.238	6777
549.303	6416
549.367	7351
549.431	6654
549.495	6132
549.559	6904
549.623	7443
549.687	8948
549.751	11004
549.815	10253
549.879	9959
549.943	7091
550.007	8652
550.071	8846
550.135	10691
550.199	9357
550.263	7555
550.327	9229
550.391	10061
550.455	9892
550.519	8979
550.582	9333
550.646	11673
550.710	13552
550.774	10114
550.838	10241
550.901	10694
550.965	11959
551.029	11859
551.093	13102
551.156	14484
551.220	20726
551.284	25977
551.347	16135
551.411	21353
551.475	28941
551.538	13518
551.602	10341
551.666	9299
551.729	9458
551.793	9780
551.856	9609
551.920	9332
551.983	8602
552.047	9097
552.110	8453
552.174	9405
552.237	9274
552.301	9270
552.364	8155
552.428	8150
552.491	9502
552.554	9803
552.618	9065
552.681	10699
552.745	10135
552.808	15365
552.871	21654
552.934	17523
552.998	11416
553.061	10812
553.124	10906
553.187	10247
553.251	10802
553.314	11680
553.377	12886
553.440	17162
553.503	38737
553.567	87699
553.630	26521
553.693	10105
553.756	9768
553.819	8578
553.882	8872
553.945	8060
554.008	8847
554.071	7701
554.134	8168
554.197	7820
554.260	8163
554.323	9406
554.386	8599
554.449	8518
554.512	8611
554.575	7621
554.638	8294
554.701	7928
554.764	7753
554.827	7692
554.889	7559
554.952	7105
555.015	6817
555.078	6438
555.141	7641
555.203	7643
555.266	7759
555.329	7274
555.391	6985
555.454	7575
555.517	8122
555.580	6969
555.642	6538
555.705	5634
555.768	7527
555.830	7809
555.893	5809
555.955	5978
556.018	6574
556.080	6009
556.143	5850
556.206	5666
556.268	7163
556.330	6740
556.393	6905
556.455	5841
556.518	8028
556.580	9140
556.643	5951
556.705	6357
556.767	4878
556.830	5976
556.892	6080
556.955	8568
557.017	8653
557.079	5968
557.142	5502
557.204	5503
557.266	10343
557.328	11213
557.391	6075
557.453	4726
557.515	5848
557.577	5612
557.639	6672
557.701	4598
557.764	5123
557.826	4996
557.888	6270
557.950	4445
558.012	5566
558.074	7075
558.136	11012
558.198	27129
558.260	17049
558.322	6564
558.384	6521
558.446	8408
558.508	8984
558.570	11454
558.632	15125
558.694	27129
558.756	26056
558.818	49705
558.880	158629
558.942	79125
559.003	31372
559.065	22378
559.127	9579
559.189	9882
559.251	10020
559.312	12064
559.374	22962
559.436	81571
559.498	68533
559.559	12259
559.621	9738
559.683	10666
559.744	13696
559.806	32891
559.868	70016
559.929	21151
559.991	9985
560.052	11321
560.114	24136
560.176	24912
560.237	14942
560.299	30323
560.360	12969
560.422	5489
560.483	5282
560.545	5484
560.606	3812
560.667	3739
560.729	4818
560.790	3733
560.852	4309
560.913	4791
560.974	4129
561.036	3849
561.097	4769
561.158	4877
561.220	5204
561.281	5057
561.342	4110
561.403	6281
561.465	6757
561.526	13349
561.587	23233
561.648	8799
561.709	5859
561.771	5677
561.832	5193
561.893	4961
561.954	5173
562.015	4327
562.076	5494
562.137	4717
562.198	5144
562.259	4925
562.320	4786
562.381	5780
562.442	7006
562.503	7020
562.564	5687
562.625	4266
562.686	4953
562.747	4429
562.808	5218
562.869	5245
562.930	6382
562.991	5074
563.051	5590
563.112	4212
563.173	5428
563.234	4168
563.294	5264
563.355	4716
563.416	4853
563.477	5626
563.537	5069
563.598	6715
563.659	4877
563.720	4598
563.780	5709
563.841	5548
563.901	6143
563.962	5200
564.023	4967
564.083	5746
564.144	5360
564.204	5144
564.265	5311
564.325	6912
564.386	8973
564.446	11296
564.507	6418
564.567	5328
564.628	6030
564.688	5902
564.749	6589
564.809	6974
564.869	6215
564.930	5944
564.990	5589
565.050	5915
565.111	6234
565.171	5615
565.231	6665
565.292	7053
565.352	6149
565.412	7053
565.472	6284
565.532	6919
565.593	7573
565.653	5568
565.713	7515
565.773	8079
565.833	7374
565.893	9833
565.953	8380
566.013	8426
566.074	7931
566.134	9204
566.194	11641
566.254	13449
566.314	11115
566.374	10156
566.434	10312
566.494	10434
566.554	10936
566.614	12125
566.673	11948
566.733	13006
566.793	14127
566.853	14786
566.913	14676
566.973	15332
567.033	14968
567.092	14792
567.152	15018
567.212	15278
567.272	15235
567.331	16448
567.391	17642
567.451	17946
567.511	19391
567.570	20244
567.630	16389
567.690	14999
567.749	16577
567.809	17357
567.868	19236
567.928	20775
567.988	25464
568.047	29368
568.107	36414
568.166	48192
568.226	66826
568.285	93443
568.345	96410
568.404	84818
568.464	76044
568.523	71918
568.582	71237
568.642	74952
568.701	87460
568.761	109277
568.820	154621
568.879	175488
568.939	151695
568.998	124466
569.057	101193
569.116	81868
569.176	67323
569.235	56838
569.294	46903
569.353	41212
569.413	36215
569.472	31964
569.531	27502
569.590	24415
569.649	23788
569.708	19230
569.767	19637
569.827	18042
569.886	17189
569.945	15050
570.004	13400
570.063	13178
570.122	13105
570.181	12606
570.240	11804
570.299	12107
570.358	12441
570.417	9673
570.475	10175
570.534	9957
570.593	10479
570.652	9929
570.711	9061
570.770	8039
570.829	9228
570.887	8406
570.946	9002
571.005	8776
571.064	7416
571.122	7082
571.181	7711
571.240	7239
571.299	6888
571.357	6795
571.416	7535
571.475	6916
571.533	7712
571.592	6314
571.650	7427
571.709	6609
571.768	6420
571.826	6544
571.885	5924
571.943	5604
572.002	5480
572.060	5908
572.119	5563
572.177	6003
572.236	5499
572.294	4788
572.352	5716
572.411	4846
572.469	5457
572.528	5441
572.586	5382
572.644	5510
572.703	7114
572.761	6534
572.819	4561
572.877	5123
572.936	4815
572.994	4343
573.052	5052
573.110	4095
573.169	4313
573.227	4938
573.285	5006
573.343	5166
573.401	4827
573.459	4989
573.517	4289
573.576	4125
573.634	4893
573.692	4169
573.750	4413
573.808	4531
573.866	4476
573.924	5283
573.982	5899
574.040	4428
574.098	4359
574.155	4705
574.213	4811
574.271	3916
574.329	4777
574.387	4236
574.445	3886
574.503	4450
574.560	4359
574.618	3619
574.676	4073
574.734	4175
574.792	4985
574.849	4222
574.907	4348
574.965	4170
575.022	4398
575.080	5136
575.138	4175
575.195	3346
575.253	4456
575.311	4534
575.368	4422
575.426	3622
575.483	4545
575.541	5155
575.598	3856
575.656	4027
575.713	4594
575.771	3911
575.828	5039
575.886	4301
575.943	5123
576.001	3892
576.058	4780
576.115	5167
576.173	4489
576.230	5469
576.287	5798
576.345	5596
576.402	4717
576.459	3898
576.517	5042
576.574	5391
576.631	5686
576.688	4808
576.746	4119
576.803	4611
576.860	4252
576.917	5082
576.974	4489
577.031	3869
577.089	4662
577.146	3979
577.203	4628
577.260	5451
577.317	4477
577.374	5002
577.431	5233
577.488	4853
577.545	4571
577.602	6157
577.659	4884
577.716	5228
577.773	6068
577.830	5178
577.886	5440
577.943	4774
578.000	5434
578.057	5937
578.114	6364
578.171	8415
578.227	11234
578.284	12323
578.341	10494
578.398	7706
578.454	7685
578.511	6247
578.568	6746
578.625	6206
578.681	5564
578.738	6082
578.794	5185
578.851	5902
578.908	5505
578.964	6083
579.021	6571
579.077	5266
579.134	6716
579.190	5386
579.247	6120
579.303	5831
579.360	6308
579.416	5031
579.473	5647
579.529	6301
579.586	6383
579.642	5690
579.698	5902
579.755	6605
579.811	7354
579.867	7811
579.924	7381
579.980	7284
580.036	9105
580.093	11254
580.149	15713
580.205	19526
580.261	16333
580.317	13521
580.374	10661
580.430	10589
580.486	9946
580.542	8133
580.598	8140
580.619	8117
580.654	8086
580.692	7970
580.710	7925
580.765	7965
580.767	7973
580.823	8016
580.838	7796
580.879	7238
580.911	7534
580.935	7771
580.984	7027
580.991	6927
581.047	8589
581.057	8532
581.103	8393
581.130	8962
581.159	9533
581.203	9542
581.215	9553
581.270	10402
581.276	10236
581.326	8711
581.349	8376
581.382	7883
581.422	8230
581.438	8388
581.494	8179
581.494	8173
581.550	8169
581.567	8073
581.606	7871
581.640	8259
581.661	8519
581.713	7928
581.717	7875
581.773	6975
581.786	6994
581.829	7204
581.859	7199
581.885	7181
581.932	7665
581.940	7756
581.996	8439
582.004	8390
582.052	8130
582.077	8216
582.107	8304
582.150	8300
582.163	8315
582.219	8703
582.223	8671
582.274	8293
582.296	8260
582.330	8272
582.368	8709
582.386	8918
582.441	8697
582.441	8697
582.497	9146
582.514	9139
582.552	9295
582.587	9725
582.608	9966
582.659	9827
582.663	9810
582.719	10091
582.732	9899
582.774	9340
582.805	9586
582.830	9820
582.877	9861
582.885	9851
582.941	10307
582.950	10371
582.996	10946
583.023	11537
583.052	12193
583.095	12984
583.107	13209
583.162	14619
583.168	14814
583.218	16313
583.240	15777
583.273	14939
583.313	14009
583.328	13647
583.384	12089
583.385	12097
583.439	12352
583.458	12094
583.494	11613
583.531	11441
583.549	11398
583.603	11496
583.605	11499
583.660	11909
583.676	11830
583.715	11631
583.748	11477
583.770	11318
583.820	11579
583.825	11619
583.881	11896
583.893	11880
583.936	11609
583.965	11626
583.991	11744
584.038	11818
584.046	11845
584.101	11556
584.110	11612
584.156	11919
584.183	12305
584.211	12572
584.255	12788
584.266	12871
584.321	12962
584.328	12990
584.376	13247
584.400	13363
584.431	13532
584.472	13536
584.486	13494
584.541	13243
584.545	13302
584.596	14341
584.617	14172
584.651	13862
584.689	14016
584.706	14125
584.761	14687
584.762	14692
584.816	14859
584.834	15105
584.871	15788
584.906	15484
584.926	15284
584.978	15314
584.980	15305
585.035	16399
585.051	16293
585.090	16247
585.123	16680
585.145	17029
585.195	17770
585.200	17802
585.254	18008
585.267	18093
585.309	18962
585.340	20178
585.364	20903
585.412	20414
585.419	20290
585.473	20972
585.484	21019
585.528	21501
585.556	22118
585.583	23190
585.628	26327
585.637	27381
585.692	35959
585.700	38160
585.747	50668
585.772	50745
585.801	44907
585.845	31149
585.856	28486
585.910	24831
585.917	24425
585.965	23804
585.989	24368
586.019	24857
586.061	24103
586.074	23985
586.128	24724
586.133	24829
586.183	26272
586.205	26657
586.237	26801
586.277	26847
586.292	26926
586.346	27299
586.349	27326
586.401	27802
586.421	28135
586.455	28745
586.493	29249
586.509	29672
586.564	31774
586.565	31849
586.618	35974
586.637	37126
586.672	37433
586.709	35642
586.727	34894
586.781	34978
586.781	34978
586.835	36188
586.853	36604
586.889	37312
586.925	38083
586.944	38611
586.996	40177
586.998	40225
587.052	41723
587.068	42466
587.106	43842
587.140	44567
587.161	45107
587.212	47274
587.215	47413
587.269	49679
587.284	50530
587.323	52325
587.356	53755
587.377	54837
587.427	57758
587.431	57968
587.485	61137
587.499	61751
587.539	63745
587.571	66387
587.593	68440
587.643	72687
587.648	73112
587.702	78363
587.715	79620
587.755	83935
587.786	87709
587.810	90770
587.858	97214
587.864	98001
587.917	106791
587.930	109008
587.971	117494
588.001	123956
588.025	129155
588.073	140282
588.079	141946
588.133	158313
588.145	162135
588.187	176077
588.217	186604
588.241	196798
588.288	219406
588.295	222872
588.348	252858
588.360	260090
588.402	290031
588.431	312217
588.456	333594
588.503	378386
588.510	385866
588.564	450166
588.575	464761
588.617	533460
588.646	583707
588.671	636336
588.718	739464
588.725	758043
588.778	904829
588.789	932319
588.832	1026082
588.861	1074930
588.886	1059197
588.932	988621
588.939	969159
588.993	801095
589.004	787887
589.047	944182
589.075	1055819
589.100	1093346
589.147	1106491
589.154	1093070
589.207	959505
589.218	931563
589.261	856701
589.290	812421
589.314	808084
589.361	811722
589.368	821213
589.421	910104
589.433	928635
589.475	1002828
589.504	1040944
589.528	1010713
589.576	911253
589.582	909112
589.635	947580
589.647	959888
589.689	991421
589.718	978549
589.742	894603
589.790	711198
589.795	694875
589.849	545263
589.861	511921
589.902	439877
589.932	389769
589.955	360886
590.004	304139
590.009	299952
590.062	256990
590.075	247011
590.115	224118
590.146	207184
590.168	197557
590.218	176712
590.222	175301
590.275	158204
590.289	153985
590.328	144182
590.360	136297
590.381	131629
590.431	120679
590.435	120133
590.488	111582
590.503	109160
590.541	103630
590.574	98814
590.594	96578
590.645	91635
590.647	91389
590.700	84043
590.716	81905
590.753	79400
590.787	77211
590.806	75651
590.859	71132
590.859	71082
590.912	67344
590.930	66080
590.965	63895
591.001	61771
591.018	60718
591.071	57680
591.072	57637
591.124	55673
591.143	55098
591.177	54224
591.214	53079
591.230	52373
591.283	50096
591.285	49986
591.336	48513
591.356	47924
591.389	46781
591.427	45326
591.442	45011
591.495	43828
591.498	43723
591.547	42252
591.569	41540
591.600	40647
591.640	39454
591.653	39414
591.706	39261
591.711	39216
591.759	37936
591.782	37254
591.811	36964
591.853	36546
591.864	36495
591.917	36060
591.924	35971
591.969	34737
591.995	34032
592.022	33705
592.066	33045
592.075	32847
592.127	31580
592.137	31318
592.180	31897
592.208	32263
592.233	31744
592.279	30634
592.285	30548
592.338	29678
592.350	29456
592.390	28915
592.421	28501
592.443	28268
592.491	27677
592.495	27693
592.548	27742
592.562	27734
592.600	27289
592.633	26888
592.653	26435
592.704	25074
592.705	25219
592.775	25348
592.846	25080
592.916	24256
592.987	24700
593.058	24378
593.128	23585
593.199	23065
593.270	21554
593.341	21433
593.411	21558
593.482	20597
593.553	20908
593.623	20269
593.694	19278
593.764	20205
593.835	20049
593.906	19062
593.976	18264
594.047	19078
594.117	19106
594.188	19637
594.258	18405
594.329	17359
594.399	17661
594.470	17625
594.540	17097
594.611	16788
594.681	15618
594.751	16009
594.822	17307
594.892	17126
594.963	17004
595.033	16015
595.103	16348
595.174	16149
595.244	17728
595.314	19619
595.384	16093
595.455	15304
595.525	15592
595.595	15169
595.665	15483
595.736	15409
595.806	14494
595.876	15351
595.946	15071
596.016	14540
596.087	14533
596.157	13249
596.227	14004
596.297	14224
596.367	14312
596.437	15558
596.507	17074
596.577	18518
596.647	15473
596.717	14741
596.787	14812
596.857	15209
596.927	14273
596.997	15428
597.067	15536
597.137	15602
597.207	15872
597.277	14957
597.347	14638
597.417	14598
597.487	14609
597.557	15642
597.626	14979
597.696	15218
597.766	15331
597.836	17291
597.906	15040
597.975	14424
598.045	14091
598.115	14500
598.185	13436
598.254	15435
598.324	15743
598.394	15802
598.464	15815
598.533	14656
598.603	13968
598.672	15487
598.742	14063
598.812	14379
598.881	14349
598.951	14420
599.020	14775
599.090	14766
599.159	14314
599.229	14527
599.299	14810
599.368	15172
599.437	14911
599.507	14755
599.576	14603
599.646	15290
599.715	16105
599.785	14458
599.854	14782
599.924	15334
599.993	15691
600.062	15621
600.132	14655
600.201	14776
600.270	16340
600.340	15553
600.409	16041
600.478	16635
600.547	16987
600.617	16661
600.686	15835
600.755	16306
600.824	16535
600.894	16406
600.963	15853
601.032	15621
601.101	16386
601.170	15821
601.239	15829
601.308	16369
601.378	16775
601.447	16873
601.516	16386
601.585	17911
601.654	17932
601.723	18317
601.792	18230
601.861	19036
601.930	20530
601.999	20991
602.068	19279
602.137	19816
602.206	19471
602.275	19003
602.343	20207
602.412	21045
602.481	20250
602.550	18940
602.619	20285
602.688	19630
602.756	20417
602.825	19849
602.894	19445
602.963	20840
603.032	20198
603.100	20394
603.169	20160
603.238	20459
603.307	20998
603.375	19936
603.444	20102
603.513	19605
603.581	19024
603.650	21408
603.719	18187
603.787	16846
603.856	16894
603.924	17096
603.993	18468
604.061	18349
604.130	18229
604.198	19466
604.267	18180
604.335	18432
604.404	19482
604.472	19169
604.541	18886
604.609	20137
604.678	20213
604.746	20815
604.815	22141
604.883	21892
604.951	20404
605.020	20159
605.088	19407
605.156	17922
605.225	17663
605.293	18012
605.361	18035
605.429	17835
605.498	17359
605.566	19247
605.634	18680
605.702	19008
605.771	17976
605.839	19155
605.907	17059
605.975	17413
606.043	18597
606.111	16645
606.180	18123
606.248	19531
606.316	19353
606.384	18975
606.452	17230
606.520	14050
606.588	14146
606.656	11850
606.724	11931
606.792	12075
606.860	10922
606.928	10064
606.996	9736
607.064	9764
607.132	9760
607.200	10759
607.267	10576
607.335	10647
607.403	10476
607.471	10477
607.539	10629
607.607	11338
607.674	9775
607.742	9950
607.810	9543
607.878	10282
607.946	9182
608.013	9299
608.081	9684
608.149	10764
608.216	10516
608.284	10885
608.352	10671
608.419	10443
608.487	11774
608.555	11492
608.622	10133
608.690	10135
608.757	10381
608.825	10733
608.893	10772
608.960	11297
609.028	12287
609.095	12416
609.163	11565
609.230	9731
609.298	9554
609.365	10225
609.432	10113
609.500	11026
609.567	12081
609.635	12156
609.702	12394
609.769	13571
609.837	12866
609.904	11699
609.971	12420
610.039	15883
610.106	21175
610.173	35965
610.241	79436
610.308	130062
610.375	111204
610.442	35038
610.509	16899
610.577	13484
610.644	11905
610.711	10838
610.778	10943
610.845	11814
610.912	11403
610.980	11954
611.047	14357
611.114	14419
611.181	10841
611.248	9876
611.315	11083
611.382	11351
611.449	10576
611.516	11701
611.583	11877
611.650	11403
611.717	10814
611.784	12023
611.851	12010
611.918	13102
611.984	15152
612.051	19528
612.118	36954
612.185	89249
612.252	107438
612.319	26831
612.386	15306
612.452	13775
612.519	12612
612.586	13298
612.653	13482
612.719	12467
612.786	12505
612.853	11514
612.919	10859
612.986	11514
613.053	10263
613.120	9769
613.186	9516
613.253	11250
613.319	9350
613.386	9996
613.453	10658
613.519	11098
613.586	11571
613.652	15137
613.719	14357
613.785	13633
613.852	10590
613.918	10457
613.985	10594
614.051	13204
614.118	20700
614.184	28453
614.250	13140
614.317	10140
614.383	10123
614.449	10411
614.516	10326
614.582	10796
614.648	10779
614.715	10337
614.781	10254
614.847	10524
614.914	10423
614.980	10454
615.046	10738
615.112	10531
615.179	11992
615.245	13868
615.311	16808
615.377	27150
615.443	43726
615.509	29388
615.575	18234
615.642	14417
615.708	14419
615.774	15280
615.840	17225
615.906	21149
615.972	33477
616.038	63107
616.104	109513
616.170	146929
616.236	190871
616.302	51943
616.368	23233
616.434	18522
616.500	15185
616.565	14798
616.631	15839
616.697	15838
616.763	14566
616.829	17356
616.895	27179
616.961	33748
617.026	21447
617.092	11877
617.158	11882
617.224	11304
617.289	9797
617.355	10218
617.421	9436
617.487	10564
617.552	9033
617.618	9484
617.684	9493
617.749	10380
617.815	9577
617.880	8493
617.946	9479
618.012	9939
618.077	9246
618.143	10297
618.208	9927
618.274	9463
618.339	10022
618.405	9448
618.470	9148
618.536	8944
618.601	9279
618.667	9421
618.732	8901
618.798	9038
618.863	9405
618.928	8625
618.994	9204
619.059	9626
619.124	10958
619.190	10669
619.255	8852
619.320	8578
619.386	8732
619.451	9008
619.516	8356
619.581	8160
619.647	8493
619.712	9169
619.777	8344
619.842	8859
619.907	9064
619.972	9706
620.038	8952
620.103	8317
620.168	7498
620.233	9121
620.298	7875
620.363	8744
620.428	8593
620.493	8217
620.558	8228
620.623	8493
620.688	8791
620.753	8528
620.818	9340
620.883	9508
620.948	8639
621.013	8322
621.078	8950
621.143	8287
621.207	9975
621.272	9050
621.337	10010
621.402	9908
621.467	10144
621.532	10845
621.596	9945
621.661	9975
621.726	8955
621.791	8440
621.855	9409
621.920	10308
621.985	9649
622.049	11294
622.114	11017
622.179	10142
622.243	9736
622.308	10693
622.373	10916
622.437	10394
622.502	9547
622.566	9754
622.631	9204
622.695	10814
622.760	9402
622.824	10617
622.889	10055
622.953	11059
623.018	12104
623.082	14391
623.147	9791
623.211	10055
623.276	10015
623.340	9293
623.404	9214
623.469	9617
623.533	9074
623.597	9557
623.662	9321
623.726	9784
623.790	8797
623.854	9526
623.919	8619
623.983	8134
624.047	9129
624.111	8495
624.176	8559
624.240	9057
624.304	10036
624.368	9281
624.432	9596
624.496	8544
624.560	8927
624.625	10431
624.689	9245
624.753	9482
624.817	9084
624.881	8360
624.945	7792
625.009	9405
625.073	7719
625.137	8860
625.201	9337
625.265	10895
625.329	8584
625.393	8287
625.456	9164
625.520	8436
625.584	9348
625.648	9880
625.712	12182
625.776	19904
625.839	26044
625.903	16268
625.967	8411
626.031	11249
626.095	15960
626.158	10965
626.222	7334
626.286	7487
626.349	6389
626.413	6205
626.477	6998
626.540	6530
626.604	6759
626.668	6882
626.731	6153
626.795	6096
626.858	6814
626.922	6978
626.986	6690
627.049	5580
627.113	5673
627.176	6768
627.240	6073
627.303	5544
627.366	5598
627.430	6261
627.493	6605
627.557	5060
627.620	6150
627.684	6385
627.747	6545
627.810	5537
627.874	5784
627.937	4897
628.000	5867
628.064	5242
628.127	4854
628.190	5099
628.253	4915
628.317	4623
628.380	5193
628.443	5652
628.506	4832
628.569	4346
628.632	4130
628.696	4923
628.759	3871
628.822	4248
628.885	4968
628.948	4636
629.011	5064
629.074	4442
629.137	4348
629.200	4035
629.263	5584
629.326	4290
629.389	4503
629.452	4322
629.515	3966
629.578	4660
629.641	4858
629.704	4265
629.767	4567
629.830	5737
629.892	4078
629.955	3727
630.018	4953
630.081	3897
630.144	5322
630.207	4346
630.269	4510
630.332	4813
630.395	4479
630.458	4010
630.520	3517
630.583	4307
630.646	4165
630.708	2958
630.771	4011
630.834	4358
630.896	3395
630.959	3821
631.021	4251
631.084	4215
631.146	3976
631.209	4413
631.272	3598
631.334	4092
631.397	3981
631.459	4079
631.522	3978
631.584	3857
631.646	3754
631.709	4375
631.771	4556
631.834	4856
631.896	3867
631.958	3206
632.021	3496
632.083	2737
632.145	3205
632.208	3517
632.270	4370
632.332	3372
632.395	2950
632.457	3742
632.519	3422
632.581	3404
632.643	3366
632.706	3766
632.768	2685
632.830	2967
632.892	3087
632.954	3130
633.016	3094
633.078	3303
633.141	3464
633.203	3734
633.265	3213
633.327	3426
633.389	2695
633.451	4484
633.513	4584
633.575	3843
633.637	3620
633.698	3859
633.760	3438
633.822	3594
633.884	3181
633.946	3028
634.008	3071
634.070	3642
634.132	4006
634.193	4611
634.255	4272
634.317	3707
634.379	4202
634.441	3400
634.502	3521
634.564	2956
634.626	3009
634.687	3440
634.749	3408
634.811	3287
634.873	2219
634.934	2578
634.996	3189
635.057	2765
635.119	2446
635.181	3076
635.242	2781
635.304	2472
635.365	3142
635.427	2931
635.488	3359
635.550	2390
635.611	2805
635.673	2339
635.734	2924
635.796	3232
635.857	3463
635.918	2880
635.980	3488
636.041	3351
636.102	3365
636.164	3600
636.225	3580
636.286	2620
636.348	3741
636.409	3008
636.470	1967
636.531	2739
636.593	2927
636.654	2542
636.715	2889
636.776	2136
636.838	1976
636.899	3372
636.960	1707
637.021	2140
637.082	2421
637.143	3075
637.204	1645
637.265	1624
637.326	3179
637.387	2966
637.448	1822
637.509	2228
637.570	1430
637.631	2261
637.692	1978
637.753	2232
637.814	2204
637.875	2190
637.936	2260
637.997	2119
638.058	2399
638.119	2765
638.179	1623
638.240	1847
638.301	2224
638.362	2026
638.423	1810
638.483	2624
638.544	1654
638.605	2001
638.666	1807
638.726	2945
638.787	2421
638.848	2273
638.908	2449
638.969	1823
639.030	2567
639.090	1712
639.151	2010
639.211	1944
639.272	2917
639.332	4773
639.393	3644
639.453	1715
639.514	1707
639.574	2238
639.635	1132
639.695	1999
639.756	1752
639.816	1952
639.877	1771
639.937	3073
639.997	5082
640.058	3019
640.118	2385
640.178	2202
640.239	2151
640.299	1952
640.359	2095
640.420	2127
640.480	2054
640.540	2505
640.600	1422
640.661	1903
640.721	1217
640.781	2828
640.841	2245
640.901	2500
640.961	2528
641.021	1912
641.082	1943
641.142	2372
641.202	3281
641.262	1869
641.322	2557
641.382	1368
641.442	1795
641.502	1640
641.562	2191
641.622	2015
641.682	2162
641.742	1500
641.802	2029
641.861	1854
641.921	1956
641.981	2313
642.041	1961
642.101	3076
642.161	1573
642.221	1201
642.280	1773
642.340	1831
642.400	946
642.460	2098
642.519	1092
642.579	1476
642.639	2114
642.698	247
642.758	2075
642.818	2485
642.877	1364
642.937	2026
642.997	2613
643.056	2449
643.116	1689
643.175	2098
643.235	2131
643.294	1676
643.354	2202
643.414	1724
643.473	2099
643.532	2690
643.592	3014
643.651	4838
643.711	8184
643.770	15035
643.830	32270
643.889	96242
643.948	56047
644.008	6567
644.067	3536
644.126	2829
644.186	1590
644.245	2653
644.304	905
644.363	2999
644.423	1532
644.482	2345
644.541	1463
644.600	663
644.659	1597
644.719	1733
644.778	2572
644.837	2944
644.896	6413
644.955	14875
645.014	12211
645.073	3471
645.132	1565
645.191	2848
645.250	973
645.309	2963
645.368	1159
645.427	1782
645.486	1732
645.545	4335
645.604	1939
645.663	1289
645.722	1622
645.781	1854
645.840	1909
645.898	2005
645.957	2687
646.016	4132
646.075	7358
646.134	13171
646.192	28931
646.251	73991
646.310	23712
646.369	4090
646.427	2783
646.486	1765
646.545	1327
646.603	2952
646.662	1726
646.721	1867
646.779	778
646.838	390
646.896	1682
646.955	2067
647.014	3346
647.072	3583
647.131	8839
647.189	9425
647.248	1754
647.306	2169
647.365	1216
647.423	64
647.481	2474
647.540	365
647.598	1482
647.657	1237
647.715	1201
647.773	343
647.832	1416
647.890	589
647.948	902
648.007	1960
648.065	445
648.123	1508
648.181	2258
648.240	1451
648.298	2587
648.356	991
648.414	1007
648.472	1567
648.531	1680
648.589	1310
648.647	1308
648.705	726
648.763	940
648.821	741
648.879	1105
648.937	1319
648.995	1847
649.053	1915
649.111	1880
649.169	3462
649.227	5496
649.285	8378
649.343	26081
649.401	30472
649.459	6723
649.516	6698
649.574	2998
649.632	5249
649.690	11077
649.748	4514
649.806	2870
649.863	7739
649.921	7426
649.979	7694
650.037	3049
650.094	337
650.152	504
650.210	855
650.268	1529
650.325	654
650.383	766
650.440	463
650.498	1658
650.556	1306
650.613	1142
650.671	928
650.728	586
650.786	1091
650.843	719
650.901	-280
650.958	490
651.016	1390
651.073	660
651.131	840
651.188	-525
651.246	1498
651.303	475
651.360	1545
651.418	199
651.475	1046
651.532	65
651.590	1274
651.647	482
651.704	230
651.762	741
651.819	1092
651.876	470
651.933	712
651.990	949
652.048	-379
652.105	72
652.162	1692
652.219	588
652.276	925
652.333	641
652.390	-112
652.448	516
652.505	878
652.562	402
652.619	762
652.676	2152
652.733	3289
652.790	507
652.847	-153
652.904	869
652.961	-215
653.017	722
653.074	650
653.131	325
653.188	-331
653.245	4
653.302	109
653.359	1445
653.415	1055
653.472	818
653.529	1137
653.586	-66
653.642	114
653.699	124
653.756	347
653.813	-221
653.869	386
653.926	-219
653.983	239
654.039	-74
654.096	381
654.152	887
654.209	30
654.266	736
654.322	-425
654.379	305
654.435	1205
654.492	449
654.548	570
654.605	1179
654.661	1663
654.717	660
654.774	698
654.830	698
654.887	702
654.943	20
655.000	623
655.056	1162
655.112	68
655.168	-55
655.225	506
655.281	343
655.337	846
655.394	1641
655.450	1282
655.506	1644
655.562	728
655.618	3008
655.675	429
655.731	1195
655.787	135
655.843	391
655.899	142
655.955	1477
656.011	981
656.067	-432
656.123	1154
656.179	697
656.235	1739
656.291	723
656.347	1694
656.403	87
656.459	316
656.515	-48
656.571	1361
656.627	1628
656.683	295
656.739	1477
656.795	939
656.850	1443
656.906	701
656.962	256
657.018	45
657.074	-103
657.129	959
657.185	369
657.241	978
657.297	43
657.352	1163
657.408	-453
657.464	1415
657.519	98
657.575	245
657.630	137
657.686	29
657.742	-339
657.797	408
657.853	-331
657.908	1507
657.964	-741
658.019	-233
658.075	295
658.130	414
658.186	-478
658.241	220
658.297	-155
658.352	9
658.407	851
658.463	-321
658.518	337
658.573	736
658.629	140
658.684	-298
658.739	-192
658.795	-236
658.850	91
658.905	-491
658.960	605
659.016	-3
659.071	-591
659.126	810
659.181	942
659.236	1672
659.291	1703
659.346	843
659.401	310
659.457	1203
659.512	1576
659.567	1525
659.622	-112
659.677	-134
659.732	-719
659.787	819
659.842	-184
659.897	147
659.952	539
660.007	400
660.061	368
660.116	-287
660.171	-798
660.226	78
660.281	1423
660.336	-173
660.391	180
660.445	-15
660.500	554
660.555	643
660.610	-231
660.664	998
660.719	196
660.774	-117
660.828	238
660.883	358
660.938	-287
660.992	-465
661.047	703
661.101	446
661.156	-189
661.211	-10
661.265	394
661.320	730
661.374	651
661.429	874
661.483	261
661.538	-189
661.592	-245
661.647	612
661.701	36
661.755	257
661.810	67
661.864	-716
661.919	-220
661.973	1064
662.027	293
662.081	-208
662.136	-25
662.190	-45
662.244	238
662.299	237
662.353	663
662.407	231
662.461	67
662.515	843
662.569	-248
662.624	660
662.678	-508
662.732	-118
662.786	498
662.840	233
662.894	442
662.948	42
663.002	-100
663.056	316
663.110	-206
663.164	1
663.218	386
663.272	-166
663.326	510
663.380	534
663.434	323
663.488	54
663.542	25
663.595	287
663.649	-431
663.703	108
663.757	-46
663.811	-571
663.864	326
663.918	366
663.972	61
664.026	-197
664.079	-431
664.133	300
664.187	460
664.240	168
664.294	-325
664.348	703
664.401	31
664.455	690
664.508	-580
664.562	288
664.615	592
664.669	-686
664.722	102
664.776	-20
664.829	-1016
664.883	-375
664.936	-1100
664.990	318
665.043	757
665.097	-124
665.150	873
665.203	431
665.257	-148
665.310	527
665.363	-804
665.417	331
665.470	394
665.523	405
665.576	-170
665.630	-699
665.683	366
665.736	9
665.789	-593
665.842	-72
665.895	-71
665.949	784
666.002	-465
666.055	483
666.108	229
666.161	252
666.214	203
666.267	548
666.320	134
666.373	936
666.426	-517
666.479	-18
666.532	296
666.585	47
666.638	460
666.691	-161
666.744	270
666.796	-61
666.849	536
666.902	-59
666.955	215
667.008	534
667.060	-379
667.113	-27
667.166	-402
667.219	686
667.271	438
667.324	467
667.377	-953
667.430	211
667.482	-155
667.535	779
667.587	300
667.640	270
667.693	-177
667.745	1238
667.798	2027
667.850	-419
667.903	-346
667.955	673
668.008	8
668.060	231
668.113	157
668.165	282
668.218	347
668.270	592
668.322	-627
668.375	471
668.427	480
668.479	-629
668.532	72
668.584	-193
668.636	441
668.689	-18
668.741	-304
668.793	335
668.845	-413
668.898	746
668.950	432
669.002	238
669.054	-871
669.106	906
669.158	334
669.211	215
669.263	439
669.315	126
669.367	1119
669.419	177
669.471	890
669.523	704
669.575	1155
669.627	572
669.679	440
669.731	1259
669.783	275
669.835	948
669.886	1400
669.938	952
669.990	1178
670.042	26
670.094	1122
670.146	1679
670.197	1416
670.249	3638
670.301	3909
670.353	5848
670.404	8762
670.456	13824
670.508	21685
670.560	35562
670.611	57317
670.663	97543
670.715	185013
670.766	340064
670.818	260327
670.869	71718
670.921	24034
670.972	13690
671.024	8470
671.075	6231
671.127	4915
671.178	2878
671.230	3597
671.281	2493
671.333	2339
671.384	1268
671.436	1501
671.487	1964
671.538	1329
671.590	1317
671.641	2334
671.692	1792
671.744	3996
671.795	4400
671.846	1634
671.897	921
671.949	527
672.000	1469
672.051	445
672.102	-95
672.153	-131
672.204	219
672.256	88
672.307	782
672.358	477
672.409	606
672.460	530
672.511	169
672.562	-531
672.613	757
672.664	164
672.715	-512
672.766	-525
672.817	-319
672.868	-40
672.919	140
672.970	693
673.021	103
673.071	164
673.122	-169
673.173	-11
673.224	-148
673.275	53
673.326	-490
673.376	668
673.427	-309
673.478	-65
673.528	352
673.579	763
673.630	4
673.680	-54
673.731	-79
673.782	-490
673.832	-201
673.883	-605
673.934	-247
673.984	-303
674.035	-673
674.085	-151
674.136	461
674.186	-337
674.237	-358
674.287	-319
674.338	526
674.388	43
674.438	-735
674.489	-85
674.539	6
674.589	-494
674.640	-256
674.690	189
674.740	-801
674.791	-135
674.841	98
674.891	169
674.942	-503
674.992	-393
675.042	-559
675.092	-685
675.142	68
675.193	-1311
675.243	-84
675.293	-257
675.343	-339
675.393	-1455
675.443	-91
675.493	-732
675.543	-578
675.593	-362
675.643	-749
675.693	-416
675.743	-149
675.793	-568
675.843	-523
675.893	-372
675.943	-567
675.993	-473
676.043	-284
676.093	684
676.142	-1054
676.192	-139
676.242	-207
676.292	-1339
676.341	-483
676.391	-172
676.441	232
676.491	-1018
676.540	162
676.590	-400
676.640	-27
676.689	-366
676.739	-777
676.789	-681
676.838	-851
676.888	-200
676.937	-757
676.987	-564
677.037	-879
677.086	-1161
677.136	-256
677.185	-56
677.235	-27
677.284	-282
677.333	-247
677.383	-678
677.432	-800
677.482	-1052
677.531	-643
677.580	-648
677.630	-502
677.679	-1247
677.728	-459
677.778	-345
677.827	-1143
677.876	-585
677.925	-623
677.975	-1082
678.024	296
678.073	-530
678.122	-1029
678.171	-569
678.220	-496
678.269	-712
678.319	-422
678.368	-995
678.417	131
678.466	-294
678.515	-768
678.564	-2
678.613	-627
678.662	-515
678.711	-724
678.760	-511
678.809	-147
678.857	-504
678.906	-582
678.955	-1369
679.004	-606
679.053	-1054
679.102	-451
679.151	-776
679.199	-505
679.248	-984
679.297	-816
679.346	-444
679.394	-673
679.443	-790
679.492	-371
679.540	-447
679.589	-305
679.638	-826
679.686	-121
679.735	-652
679.784	-90
679.832	-593
679.881	-908
679.929	-1217
679.978	-1153
680.026	-1189
680.075	-834
680.123	-1375
680.172	-300
680.220	-393
680.268	-819
680.317	-706
680.365	-352
680.414	-672
680.462	-473
680.510	-417
680.559	-1213
680.607	-733
680.655	-155
680.703	-1238
680.752	-664
680.800	-634
680.848	-1332
680.896	-887
680.945	40
680.993	-756
681.041	-646
681.089	-1110
681.137	-1121
681.185	-505
681.233	-1065
681.258	-768
681.281	-500
681.329	-1132
681.377	-1062
681.380	-1017
681.425	-413
681.473	-96
681.502	-563
681.521	-917
681.569	-903
681.617	-378
681.624	-378
681.665	-446
681.713	-357
681.745	-491
681.761	-578
681.809	-952
681.857	-8
681.867	-56
681.904	-246
681.952	-655
681.989	-454
682.000	-417
682.048	-876
682.096	-429
682.111	-147
682.143	455
682.191	-513
682.233	-459
682.239	-473
682.286	-30
682.334	-1245
682.354	-652
682.382	155
682.430	176
682.476	112
682.477	98
682.525	-157
682.572	-127
682.598	-60
682.620	16
682.667	134
682.715	-457
682.720	-363
682.763	301
682.810	192
682.841	-60
682.857	-175
682.905	36
682.952	284
682.963	197
683.000	-219
683.047	-512
683.085	461
683.095	736
683.142	604
683.190	375
683.206	389
683.237	312
683.284	1093
683.328	319
683.332	254
683.379	425
683.426	767
683.449	458
683.473	59
683.521	563
683.568	357
683.571	379
683.615	663
683.662	1034
683.693	598
683.709	323
683.757	447
683.804	888
683.814	676
683.851	-61
683.898	617
683.936	527
683.945	477
683.992	608
684.039	481
684.057	589
684.086	821
684.133	526
684.179	644
684.180	638
684.227	740
684.274	697
684.300	871
684.321	1004
684.368	590
684.415	1329
684.422	1369
684.462	1477
684.509	725
684.543	902
684.556	975
684.603	866
684.649	330
684.665	660
684.696	1378
684.743	1424
684.786	1593
684.790	1593
684.837	760
684.883	1226
684.908	1428
684.930	1610
684.977	1152
685.023	1407
685.029	1394
685.070	1303
685.117	1584
685.150	1315
685.164	1154
685.210	1137
685.257	1352
685.272	1260
685.303	1175
685.350	1588
685.393	2008
685.396	2035
685.443	1099
685.490	1592
685.514	1594
685.536	1542
685.583	1838
685.629	1778
685.636	1774
685.675	1735
685.722	1185
685.757	1450
685.768	1537
685.815	1688
685.861	1716
685.878	1657
685.908	1509
685.954	1520
686.000	1911
686.000	1919
686.047	1710
686.093	2031
686.121	2341
686.139	2405
686.185	2436
686.232	2614
686.242	2393
686.278	1778
686.324	2438
686.363	1877
686.370	1747
686.416	2139
686.463	2246
686.484	2269
686.509	2407
686.555	2095
686.601	2531
686.606	2548
686.647	2423
686.693	1946
686.727	1963
686.739	2062
686.785	2045
686.831	1980
686.848	2203
686.877	2390
686.923	2105
686.969	1532
686.969	1530
687.015	2087
687.061	2134
687.090	2512
687.107	2631
687.153	2389
687.199	2380
687.211	2462
687.245	2840
687.291	2196
687.332	2780
687.336	2835
687.382	2381
687.428	2655
687.453	2669
687.474	2608
687.520	2426
687.565	2392
687.574	2312
687.611	2148
687.657	2135
687.695	2224
687.702	2256
687.748	2883
687.794	2816
687.816	3082
687.839	3192
687.885	3199
687.931	2721
687.937	2765
687.976	3147
688.022	2567
688.058	2764
688.067	2815
688.113	2444
688.158	2751
688.179	2646
688.204	2549
688.249	2876
688.295	2925
688.300	2947
688.340	3028
688.386	2749
688.421	2682
688.431	2729
688.477	2775
688.522	3086
688.542	3432
688.567	3728
688.613	3389
688.658	3239
688.663	3271
688.703	3564
688.749	3017
688.784	2722
688.794	2629
688.839	3186
688.884	3016
688.905	2954
688.930	3013
688.975	3421
689.020	3190
689.026	3215
689.065	3146
689.110	2977
689.146	2763
689.155	2769
689.201	2974
689.246	3298
689.267	3297
689.291	3290
689.336	3632
689.381	3316
689.388	3349
689.426	3609
689.471	3536
689.509	4079
689.516	4136
689.561	3572
689.606	3367
689.630	3281
689.651	3338
689.696	3222
689.741	2960
689.750	3090
689.785	3425
689.830	3167
689.871	2922
689.875	2938
689.920	3401
689.965	3714
689.992	3601
690.010	3373
690.054	3772
690.099	3437
690.112	3355
690.144	3469
690.189	3947
690.233	4004
690.233	4010
690.278	4184
690.323	3794
690.354	3901
690.367	4141
690.412	4482
690.457	4868
690.474	5145
690.501	5201
690.546	4990
690.590	4671
690.595	4615
690.635	4663
690.680	5397
690.716	5548
690.724	5658
690.769	6128
690.813	7207
690.836	7515
690.857	8498
690.902	10799
690.946	13305
690.957	13820
690.991	18836
691.035	26411
691.077	33997
691.080	34459
691.124	41138
691.168	45904
691.198	49450
691.213	45763
691.257	35064
691.301	24545
691.318	20372
691.346	17957
691.390	13975
691.434	9888
691.439	9475
691.478	8642
691.522	7576
691.559	6312
691.567	6267
691.611	6405
691.655	6235
691.680	6064
691.699	5859
691.743	5766
691.787	5432
691.800	5252
691.831	5140
691.875	5268
691.919	5642
691.921	5627
691.964	4957
692.008	4819
692.041	4127
692.052	4132
692.096	4685
692.139	5015
692.162	5150
692.183	5106
692.227	4609
692.271	4980
692.282	4922
692.315	4954
692.359	5299
692.402	5408
692.403	5418
692.447	5071
692.490	5089
692.523	4781
692.534	4798
692.578	5023
692.622	5123
692.643	5315
692.666	5391
692.709	5288
692.753	5270
692.763	5235
692.797	5622
692.840	6409
692.884	6695
692.884	6707
692.928	6271
692.971	6145
693.004	5955
693.015	5991
693.059	6333
693.102	6357
693.124	6373
693.146	6453
693.189	6191
693.233	6724
693.245	6740
693.276	7098
693.320	7636
693.363	8010
693.365	8018
693.407	8854
693.450	9067
693.485	9757
693.493	10215
693.537	12388
693.580	14260
693.605	15439
693.624	17353
693.667	22070
693.710	26843
693.725	28509
693.753	39314
693.797	55964
693.840	74241
693.845	76162
693.883	88852
693.926	101557
693.966	112999
693.970	110784
694.013	86315
694.056	61422
694.086	44444
694.099	41595
694.142	32358
694.185	23008
694.206	18542
694.229	17399
694.272	15199
694.315	12897
694.326	12265
694.358	11399
694.401	10133
694.444	9268
694.446	9174
694.487	8738
694.530	8697
694.566	8605
694.573	8549
694.616	7749
694.659	7316
694.686	6952
694.702	6979
694.745	6501
694.787	6826
694.806	6823
694.830	6686
694.873	6302
694.916	5942
694.926	5854
694.959	6023
695.002	6247
695.044	6492
695.046	6486
695.087	6474
695.130	6110
695.166	5979
695.172	6032
695.215	6245
695.258	6380
695.286	6629
695.301	6617
695.343	6244
695.386	6053
695.406	5773
695.428	5741
695.471	6121
695.514	6309
695.526	6336
695.556	6169
695.599	6101
695.641	5776
695.646	5743
695.684	5945
695.726	6019
695.766	6095
695.769	6097
695.811	5947
695.854	5629
695.886	5542
695.896	5660
695.938	5819
695.981	6168
696.005	6308
696.023	6203
696.065	5954
696.108	5686
696.125	5553
696.150	5854
696.192	6332
696.235	6824
696.245	6933
696.277	6833
696.319	6586
696.361	6386
696.365	6348
696.404	6833
696.446	7403
696.485	7822
696.488	7819
696.530	7566
696.572	7268
696.604	6975
696.614	6959
696.656	6975
696.698	6796
696.724	6701
696.740	6535
696.783	6151
696.825	5712
696.844	5450
696.867	5682
696.909	6029
696.951	6602
696.964	6727
696.992	6668
697.034	6484
697.076	6388
697.083	6335
697.118	6502
697.160	6891
697.202	7164
697.203	7149
697.244	6838
697.286	6517
697.323	6192
697.327	6219
697.369	6352
697.411	6493
697.442	6519
697.453	6516
697.494	6433
697.536	6344
697.562	6314
697.578	6477
697.620	6785
697.661	7138
697.682	7279
697.703	7136
697.744	6788
697.786	6486
697.801	6342
697.828	6628
697.869	7106
697.911	7492
697.921	7585
697.952	7425
697.994	7086
698.035	6816
698.040	6761
698.077	6762
698.118	6705
698.160	6678
698.160	6656
698.201	6513
698.243	6326
698.279	6121
698.284	6172
698.325	6535
698.367	6798
698.399	7016
698.408	6995
698.449	6801
698.491	6621
698.518	6463
698.532	6523
698.573	6659
698.614	6809
698.638	6852
698.656	6754
698.697	6499
698.738	6245
698.757	6099
698.779	6279
698.820	6597
698.862	6911
698.877	7009
698.903	6978
698.944	6889
698.985	6802
698.996	6758
699.026	6856
699.067	6969
699.116	7083
699.235	7048
699.354	7088
699.474	5983
699.593	6953
699.713	6983
699.832	7351
699.951	6745
700.070	6969
700.190	6987
700.309	6982
700.428	6479
700.547	6278
700.667	6905
700.786	7067
700.905	5633
701.024	6994
701.143	5872
701.262	5998
701.381	5747
701.500	7341
701.619	6598
701.738	6376
701.857	6341
701.976	6733
702.095	6459
702.214	6833
702.333	6236
702.452	6684
702.571	6573
702.690	6108
702.809	6191
702.928	6493
703.047	6023
703.165	6215
703.284	5662
703.403	5852
703.522	6116
703.640	5899
703.759	6226
703.878	7515
703.997	5726
704.115	6213
704.234	5495
704.353	5837
704.471	5061
704.590	6147
704.708	6178
704.827	6960
704.946	4824
705.064	6393
705.183	5437
705.301	6520
705.420	7104
705.538	7840
705.656	6030
705.775	7038
705.893	8456
706.012	14161
706.130	6990
706.249	6767
706.367	6279
706.485	6841
706.604	6048
706.722	7145
706.840	6427
706.958	8491
707.077	6845
707.195	6710
707.313	5952
707.431	6599
707.549	5522
707.668	6019
707.786	6216
707.904	6910
708.022	5198
708.140	7069
708.258	5165
708.376	5956
708.494	5909
708.612	6801
708.730	6901
708.848	8233
708.966	6307
709.084	7003
709.202	6128
709.320	6916
709.438	6835
709.556	7009
709.674	6045
709.791	7015
709.909	6336
710.027	7490
710.145	5173
710.263	6993
710.380	5888
710.498	6924
710.616	5628
710.733	6513
710.851	5500
710.969	7006
711.086	5885
711.204	7270
711.322	6290
711.439	6620
711.557	5613
711.674	6586
711.792	5404
711.909	7075
712.027	6905
712.144	6383
712.262	5730
712.379	6216
712.497	6468
712.614	7885
712.732	5985
712.849	6661
712.966	5925
713.084	7201
713.201	6416
713.318	6897
713.436	6047
713.553	6652
713.670	5677
713.787	7450
713.905	6717
714.022	7299
714.139	6122
714.256	7000
714.373	5783
714.490	8428
714.608	10446
714.725	24553
714.842	58798
714.959	13323
715.076	6274
715.193	6253
715.310	5704
715.427	6575
715.544	5955
715.661	6028
715.778	6078
715.895	6998
716.011	5543
716.128	6154
716.245	5375
716.362	6563
716.479	5492
716.596	6450
716.713	5791
716.829	5353
716.946	5253
717.063	6256
717.180	4933
717.296	6042
717.413	5237
717.530	6117
717.646	5720
717.763	5747
717.880	5792
717.996	5167
718.113	4541
718.229	5598
718.346	4952
718.462	5321
718.579	5394
718.695	6794
718.812	6558
718.928	5728
719.045	5591
719.161	5025
719.277	4619
719.394	5139
719.510	5008
719.626	5943
719.743	5953
719.859	5367
719.975	5286
720.092	9260
720.208	22103
720.324	12818
720.440	5552
720.557	5099
720.673	4693
720.789	6780
720.905	8090
721.021	9034
721.137	4941
721.253	5550
721.369	5112
721.486	5486
721.602	5026
721.718	4987
721.834	4522
721.950	5204
722.066	4142
722.181	5098
722.297	4933
722.413	5417
722.529	4748
722.645	5265
722.761	4047
722.877	5296
722.993	4507
723.108	4676
723.224	3658
723.340	4958
723.456	4746
723.571	5029
723.687	4606
723.803	4450
723.918	3653
724.034	4237
724.150	4465
724.265	5151
724.381	4709
724.497	7680
724.612	4594
724.728	4462
724.843	3624
724.959	4431
725.074	5341
725.190	7024
725.305	4171
725.421	5620
725.536	3935
725.651	5075
725.767	4055
725.882	4157
725.997	4081
726.113	4885
726.228	3547
726.343	4896
726.459	3879
726.574	4417
726.689	3572
726.804	3708
726.920	3719
727.035	3989
727.150	3890
727.265	4505
727.380	3463
727.495	4103
727.610	3938
727.725	4248
727.841	4409
727.956	5603
728.071	6256
728.186	4406
728.301	2546
728.416	4340
728.531	3915
728.645	3788
728.760	3293
728.875	4547
728.990	3489
729.105	4036
729.220	3791
729.335	4059
729.449	3713
729.564	3649
729.679	3245
729.794	3436
729.908	3039
730.023	3855
730.138	3104
730.253	4001
730.367	3035
730.482	4405
730.596	2459
730.711	4131
730.826	3522
730.940	4110
731.055	3916
731.169	3706
731.284	3486
731.398	4062
731.513	3630
731.627	3683
731.742	3859
731.856	4186
731.970	3106
732.085	3672
732.199	3667
732.313	3469
732.428	5027
732.542	8708
732.656	11235
732.771	5704
732.885	2883
732.999	3807
733.113	3427
733.227	4354
733.342	3156
733.456	3535
733.570	3134
733.684	3568
733.798	2725
733.912	3466
734.026	2667
734.140	4137
734.254	2806
734.368	3606
734.482	4600
734.596	3737
734.710	2752
734.824	3921
734.938	2942
735.052	4577
735.166	4201
735.280	3749
735.393	3468
735.507	4024
735.621	3374
735.735	4229
735.849	2828
735.962	4438
736.076	3077
736.190	3824
736.303	3591
736.417	4936
736.531	3080
736.644	3752
736.758	2381
736.872	3465
736.985	2866
737.099	2991
737.212	2493
737.326	3317
737.439	3926
737.553	3477
737.666	2155
737.780	3625
737.893	3346
738.007	2933
738.120	3290
738.233	3477
738.347	3223
738.460	4084
738.573	3623
738.687	3756
738.800	2496
738.913	4081
739.026	3341
739.140	3893
739.253	3082
739.366	3855
739.479	2407
739.592	3310
739.705	2987
739.818	4303
739.932	2994
740.045	4278
740.158	2859
740.271	4061
740.384	2646
740.497	3896
740.610	3214
740.723	3533
740.836	3099
740.949	4008
741.062	3519
741.174	3965
741.287	2899
741.400	3344
741.513	2892
741.626	3031
741.739	3282
741.851	3824
741.964	2487
742.077	3812
742.189	2427
742.302	3422
742.415	2971
742.527	3437
742.640	3115
742.753	3819
742.865	2713
742.978	3223
743.090	2488
743.203	3815
743.316	2048
743.428	3096
743.541	3451
743.653	3992
743.766	2558
743.878	3673
743.990	2444
744.103	4386
744.215	3927
744.327	3736
744.440	3947
744.552	4946
744.664	3328
744.777	3569
744.889	2702
745.001	4136
745.113	2702
745.226	3590
745.338	3909
745.450	2962
745.562	2252
745.674	3282
745.786	3440
745.898	3666
746.010	2999
746.122	3428
746.234	2761
746.347	3698
746.459	3381
746.570	3994
746.682	3273
746.794	5414
746.906	3518
747.018	3933
747.130	2505
747.242	3266
747.354	2839
747.466	3854
747.577	3630
747.689	3848
747.801	3148
747.913	3352
748.024	2799
748.136	3879
748.248	2419
748.359	2474
748.471	2990
748.583	2854
748.694	2674
748.806	3221
748.918	3142
749.029	3765
749.141	3194
749.252	3591
749.364	2777
749.475	3862
749.587	3636
749.698	3434
749.809	3059
749.921	3519
750.032	3207
750.144	3461
750.255	3013
750.366	3762
750.478	2984
750.589	3563
750.700	3328
750.811	3889
750.923	3088
751.034	4269
751.145	4155
751.256	3893
751.367	2757
751.479	3015
751.590	3060
751.701	3245
751.812	2847
751.923	3204
752.034	2784
752.145	3713
752.256	2870
752.367	3813
752.478	3060
752.589	3682
752.700	3325
752.811	3761
752.922	2902
753.032	3400
753.143	3267
753.254	3621
753.365	3590
753.476	4075
753.586	3109
753.697	3825
753.808	2859
753.919	4432
754.029	2508
754.140	4350
754.251	3647
754.361	3878
754.472	3104
754.582	3458
754.693	3439
754.804	4289
754.914	3718
755.025	3818
755.135	3107
755.246	3675
755.356	3199
755.466	4279
755.577	4185
755.687	3993
755.798	3381
755.908	3840
756.018	3733
756.129	4539
756.239	3857
756.349	4533
756.460	3080
756.570	4591
756.680	3926
756.790	4778
756.900	4501
757.011	4403
757.121	4172
757.231	3977
757.341	4297
757.451	4409
757.561	3863
757.671	5335
757.781	3972
757.891	5122
758.001	4579
758.111	4886
758.221	4869
758.331	4689
758.441	5499
758.551	5466
758.661	5296
758.771	6044
758.880	5450
758.990	5420
759.100	5232
759.210	5448
759.320	5373
759.429	6473
759.539	5941
759.649	6596
759.758	5799
759.868	6713
759.978	5155
760.087	6004
760.197	6376
760.307	7463
760.416	6991
760.526	5984
760.635	6450
760.745	7732
760.854	6844
760.964	8445
761.073	7366
761.182	8373
761.292	7423
761.401	8060
761.511	8411
761.620	9836
761.729	8942
761.839	9047
761.948	8960
762.057	9969
762.166	9043
762.276	10642
762.385	10120
762.494	10665
762.603	11286
762.712	12644
762.822	12360
762.931	13506
763.040	12030
763.149	13303
763.258	13895
763.367	15935
763.476	15683
763.585	17003
763.694	16911
763.803	17850
763.912	18303
764.021	19863
764.130	21825
764.238	22824
764.347	24327
764.456	26857
764.565	28539
764.674	31970
764.783	34184
764.891	38318
765.000	42517
765.109	47832
765.217	54410
765.326	64628
765.435	74543
765.543	90323
765.652	109142
765.761	136773
765.869	175155
765.978	230800
766.086	312959
766.195	431811
766.303	566335
766.412	573900
766.520	430422
766.629	573377
766.737	522383
766.846	386794
766.954	282082
767.062	211979
767.171	162022
767.279	127109
767.387	102006
767.496	84636
767.604	71481
767.712	62851
767.820	55008
767.928	50449
768.037	43635
768.145	43214
768.253	39683
768.361	39042
768.469	37729
768.577	39424
768.685	40766
768.793	42879
768.901	45846
769.009	52372
769.117	60538
769.225	76860
769.333	100020
769.441	141498
769.549	209729
769.657	333103
769.765	496856
769.873	500972
769.981	478753
770.088	454207
770.196	299185
770.304	198482
770.412	142733
770.519	107654
770.627	83333
770.735	67277
770.842	56004
770.950	49771
771.058	41041
771.165	38400
771.273	32749
771.380	30808
771.488	26644
771.595	25784
771.703	22227
771.810	21556
771.918	19512
772.025	18311
772.133	17019
772.240	16937
772.348	14721
772.455	15279
772.562	13128
772.670	13799
772.777	12325
772.884	12969
772.991	11358
773.099	12674
773.206	10001
773.313	10436
773.420	9599
773.528	8248
773.635	9101
773.742	9987
773.849	8453
773.956	8655
774.063	7310
774.170	7840
774.277	7881
774.384	8262
774.491	6676
774.598	8003
774.705	7439
774.812	6786
774.919	7436
775.026	7412
775.133	5067
775.239	6617
775.346	5736
775.453	6319
775.560	5043
775.667	5650
775.773	5374
775.880	6127
775.987	4892
776.093	5838
776.200	4602
776.307	5592
776.413	4934
776.520	5453
776.627	4661
776.733	4624
776.840	3989
776.946	5996
777.053	5616
777.159	8486
777.266	5638
777.372	7673
777.478	6774
777.585	6441
777.691	3521
777.798	4246
777.904	4299
778.010	5020
778.117	4012
778.223	4390
778.329	4189
778.435	4012
778.542	3920
778.648	3448
778.754	3073
778.860	3961
778.966	2868
779.072	3512
779.178	3401
779.284	4137
779.391	3047
779.497	4881
779.603	5451
779.708	8951
779.815	16357
779.920	50265
780.026	153373
780.132	79216
780.238	11959
780.344	6881
780.450	5275
780.556	4683
780.661	3490
780.767	3456
780.873	3397
780.979	3227
781.085	2860
781.190	3473
781.296	2579
781.402	2609
781.507	2751
781.613	2685
781.719	3144
781.824	2806
781.930	2297
782.035	2342
782.141	1815
782.246	2508
782.352	2033
782.457	2539
782.563	2243
782.668	3278
782.773	1684
782.879	2026
782.984	2080
783.090	3157
783.195	2275
783.300	2471
783.405	1909
783.511	2558
783.616	1997
783.721	2253
783.826	1817
783.932	2310
784.037	2100
784.142	2505
784.247	2267
784.352	2394
784.457	872
784.562	3019
784.667	1866
784.772	2030
784.877	896
784.982	2111
785.087	2170
785.192	2257
785.297	1843
785.402	1659
785.507	1758
785.611	2103
785.716	1785
785.821	2011
785.926	1237
786.031	2062
786.135	1472
786.240	1541
786.345	1710
786.450	2436
786.554	1096
786.659	1948
786.763	512
786.868	2642
786.973	1357
787.077	1802
787.182	1814
787.286	2167
787.391	1533
787.495	1433
787.600	2173
787.704	873
787.809	1284
787.913	2818
788.017	1109
788.122	2085
788.226	1125
788.330	2041
788.435	1104
788.539	1590
788.643	707
788.747	2362
788.852	1004
788.956	1118
789.060	1427
789.164	2184
789.268	996
789.372	2050
789.476	1093
789.580	2202
789.684	844
789.788	2095
789.892	1077
789.996	1882
790.100	1176
790.204	1799
790.308	655
790.412	1579
790.516	350
790.620	1164
790.724	1656
790.828	1659
790.931	169
791.035	1718
791.139	1019
791.242	1391
791.346	1234
791.450	1294
791.554	361
791.657	685
791.761	1142
791.864	1448
791.968	837
792.072	2314
792.175	808
792.279	1406
792.382	1052
792.486	1454
792.589	1652
792.693	1707
792.796	546
792.899	1669
793.003	816
793.106	1551
793.209	642
793.313	1890
793.416	-43
793.519	1512
793.623	1501
793.726	2589
793.829	1025
793.932	1443
794.035	191
794.138	1825
794.242	1635
794.345	3162
794.448	4335
794.551	9861
794.654	28293
794.757	90458
794.860	53961
794.963	6865
795.066	2117
795.169	2465
795.272	1140
795.375	2023
795.477	726
795.580	1638
795.683	871
795.786	1362
795.889	-126
795.991	2134
796.094	1076
796.197	1332
796.300	425
796.402	1748
796.505	913
796.608	1513
796.710	871
796.813	1362
796.915	776
797.018	1571
797.120	433
797.223	926
797.326	586
797.428	952
797.530	-128
797.633	2178
797.735	510
797.838	1210
797.940	1609
798.042	1526
798.145	-45
798.247	1609
798.349	-49
798.452	678
798.554	368
798.656	310
798.758	562
798.860	616
798.962	-34
799.065	1237
799.167	-26
799.269	1898
799.371	732
799.473	1920
799.575	650
799.677	915
799.779	1133
799.881	982
799.983	1153
800.085	1002
800.187	332
800.289	474
800.390	712
800.492	1198
800.594	690
800.696	701
800.798	44
800.899	923
801.001	207
801.103	1400
801.205	-183
801.306	201
801.408	121
801.509	706
801.611	294
801.713	1208
801.814	223
801.916	1039
802.017	634
802.119	660
802.220	1071
802.322	-573
802.423	1261
802.525	525
802.626	-125
802.727	1536
802.829	43
802.930	-263
803.031	605
803.133	245
803.234	-85
803.335	1406
803.436	-83
803.538	1090
803.639	-104
803.740	1129
803.841	342
803.942	1173
804.043	398
804.144	289
804.245	-435
804.346	867
804.447	-25
804.548	773
804.649	964
804.750	1166
804.851	-701
804.952	347
805.053	137
805.154	170
805.255	352
805.355	56
805.456	-103
805.557	811
805.658	23
805.758	913
805.859	221
805.960	884
806.061	319
806.161	513
806.262	-200
806.362	555
806.463	-395
806.564	791
806.664	-233
806.765	728
806.865	256
806.966	957
807.066	227
807.166	1249
807.267	172
807.367	553
807.468	568
807.568	107
807.668	-666
807.769	739
807.869	580
807.969	192
808.069	243
808.170	591
808.270	15
808.370	716
808.470	693
808.570	898
808.670	-337
808.770	333
808.870	73
808.970	1125
809.070	-682
809.170	478
809.271	6
809.370	835
809.470	-402
809.570	676
809.670	-490
809.770	621
809.870	-280
809.970	101
810.070	214
810.169	990
810.269	-321
810.369	1415
810.469	196
810.568	339
810.668	-179
810.768	271
810.867	20
810.967	996
811.066	466
811.166	368
811.265	356
811.365	671
811.464	-316
811.564	1119
811.663	89
811.763	60
811.862	-394
811.962	427
812.061	-313
812.160	553
812.260	46
812.359	1564
812.458	1137
812.557	3629
812.657	7393
812.756	4988
812.855	839
812.954	593
813.053	-148
813.153	1289
813.252	-436
813.351	550
813.450	-67
813.549	437
813.648	359
813.747	887
813.846	519
813.945	746
814.044	100
814.143	1568
814.242	234
814.341	1083
814.439	568
814.538	1727
814.637	-39
814.736	387
814.835	532
814.933	555
815.032	825
815.131	1078
815.229	737
815.328	1346
815.427	770
815.525	1112
815.624	591
815.722	923
815.821	1092
815.919	1956
816.018	263
816.116	1561
816.215	572
816.313	1903
816.412	337
816.510	1465
816.609	949
816.707	1919
816.805	821
816.904	1859
817.002	1544
817.100	2624
817.198	1915
817.296	3858
817.395	2971
817.493	4461
817.591	4319
817.689	7351
817.787	9036
817.885	14033
817.983	20999
818.081	40121
818.179	81649
818.277	180911
818.375	266491
818.473	148976
818.571	58099
818.669	32079
818.767	23531
818.865	20912
818.963	21927
819.061	28106
819.158	42658
819.256	74595
819.354	140385
819.452	271644
819.549	307172
819.647	177526
819.745	80548
819.842	44486
819.940	26834
820.038	19654
820.135	14033
820.233	11663
820.330	7879
820.428	6906
820.525	5579
820.623	4937
820.720	4149
820.818	4230
820.915	3178
821.012	3933
821.110	1863
821.207	2693
821.304	2275
821.402	2728
821.499	1734
821.596	3340
821.693	1922
821.791	2007
821.888	793
821.985	2276
822.082	1955
822.179	2388
822.276	980
822.373	2001
822.470	886
822.567	1399
822.664	211
822.761	1672
822.858	192
822.955	559
823.052	848
823.149	702
823.246	184
823.343	425
823.440	303
823.536	893
823.633	-148
823.730	599
823.827	639
823.923	357
824.020	1288
824.117	1066
824.213	271
824.310	1427
824.407	267
824.503	1332
824.600	731
824.696	751
824.793	305
824.889	554
824.986	228
825.082	1068
825.179	449
825.275	244
825.371	-402
825.468	813
825.564	-160
825.660	1181
825.757	-372
825.853	990
825.949	-261
826.045	1183
826.142	-890
826.238	513
826.334	-587
826.430	-197
826.526	194
826.622	279
826.718	-303
826.814	362
826.910	356
827.006	853
827.102	-614
827.198	843
827.294	-432
827.390	252
827.486	-475
827.582	16
827.678	-1409
827.774	1261
827.869	-950
827.965	986
828.061	-795
828.157	359
828.252	331
828.348	-252
828.444	153
828.539	-445
828.635	-520
828.731	1244
828.826	-839
828.922	-154
829.017	-764
829.113	684
829.208	-435
829.304	75
829.399	-434
829.495	-78
829.590	159
829.685	866
829.781	242
829.876	-318
829.971	-603
830.066	115
830.162	-327
830.257	807
830.352	-106
830.447	465
830.543	-283
830.638	-228
830.733	-553
830.828	293
830.923	-1227
831.018	510
831.113	-595
831.208	-369
831.303	-518
831.398	63
831.493	-1561
831.588	-131
831.683	-1045
831.778	102
831.873	-1185
831.967	165
832.062	-1288
832.157	-561
832.252	398
832.346	-494
832.441	-666
832.536	638
832.631	237
832.725	1420
832.820	-603
832.914	-392
833.009	-702
833.104	209
833.198	-485
833.293	-196
833.387	-783
833.482	694
833.576	-871
833.670	455
833.765	-931
833.859	335
833.954	365
834.048	166
834.142	-743
834.237	-344
834.331	-936
834.425	610
834.519	-928
834.613	62
834.708	-452
834.802	2
834.896	-656
834.990	71
835.084	-515
835.178	310
835.272	-318
835.366	-186
835.460	-767
835.554	-189
835.648	-1010
835.742	-196
835.836	-1280
835.930	-906
836.024	-405
836.117	529
836.211	-363
836.305	1157
836.399	23
836.493	-725
836.586	171
836.680	-242
836.774	-523
836.867	244
836.961	-883
837.055	-441
837.148	-210
837.242	16
837.335	-714
837.429	15
837.522	22
837.616	297
837.709	-245
837.803	69
837.896	-666
837.989	-316
838.083	-558
838.176	-29
838.269	-258
838.363	890
838.456	-71
838.549	490
838.642	-517
838.735	1761
838.829	-3
838.922	-447
839.015	-1046
839.108	166
839.201	-829
839.294	565
839.387	-480
839.480	-255
839.573	-593
839.666	469
839.759	-529
839.852	605
839.945	-1234
840.038	-271
840.131	-322
840.223	-427
840.316	71
840.409	84
840.502	-1757
840.594	-184
840.687	-736
840.780	56
840.873	-776
840.965	-560
841.058	-1328
841.150	477
841.243	-395
841.336	477
841.428	3
841.521	-66
841.613	-663
841.706	61
841.798	-739
841.890	104
841.983	-884
842.075	734
842.167	-462
842.260	27
842.352	-511
842.444	352
842.537	-709
842.629	793
842.721	-531
842.813	33
842.905	-857
842.997	382
843.090	-553
843.182	-105
843.274	-772
843.366	393
843.458	683
843.550	2387
843.642	-207
843.734	166
843.826	-30
843.918	203
844.009	-288
844.101	471
844.193	-567
844.285	-609
844.377	-212
844.469	938
844.560	-23
844.652	890
844.744	-310
844.835	416
844.927	-513
845.019	479
845.110	-637
845.202	516
845.293	-375
845.385	-322
845.476	-509
845.568	203
845.659	-1081
845.751	925
845.842	-1164
845.934	-34
846.025	-571
846.116	-149
846.208	-1091
846.299	-239
846.390	-932
846.482	-293
846.573	-1037
846.664	178
846.755	-1275
846.846	161
846.937	-1336
847.029	591
847.120	-812
847.211	383
847.302	-605
847.393	-505
847.484	-32
847.575	-762
847.666	-744
847.757	-94
847.847	-1308
847.938	505
848.029	-1439
848.120	353
848.211	-564
848.302	100
848.392	-662
848.483	588
848.574	-2065
848.664	-76
848.755	-665
848.846	-88
848.936	-839
849.027	-532
849.118	-966
849.208	-935
849.299	-433
849.389	-541
849.480	316
849.570	183
849.661	204
849.751	2138
849.841	979
849.932	-321
850.022	-1404
850.112	353
850.203	-850
850.293	-81
850.383	-1074
850.474	-468
850.564	-192
850.654	-320
850.744	-318
850.834	-347
850.924	-768
851.014	435
851.104	-843
851.194	-276
851.284	-532
851.374	281
851.464	-560
851.554	-136
851.644	-770
851.734	758
851.824	605
851.914	2201
852.004	4267
852.094	8756
852.183	3900
852.273	689
852.363	-856
852.452	40
852.542	-1154
852.632	-404
852.721	-609
852.811	-199
852.901	-1505
852.990	-299
853.080	-1389
853.169	-730
853.259	-934
853.348	-508
853.438	-1489
853.527	-534
853.617	-1200
853.706	362
853.795	-136
853.885	1025
853.974	1918
854.063	5263
854.152	9738
854.242	8212
854.331	905
854.420	-34
854.509	-604
854.598	172
854.687	-1184
854.777	-337
854.866	-1058
854.955	506
855.044	-199
855.133	-567
855.222	-1314
855.311	-341
855.400	-1352
855.488	-792
855.577	-745
855.666	-75
855.755	-953
855.844	379
855.933	-941
856.021	105
856.110	-588
856.199	-378
856.288	-795
856.376	-228
856.465	-1431
856.554	-429
856.642	-1015
856.731	101
856.819	-787
856.908	-162
856.996	-749
857.085	-347
857.173	-1103
857.262	-778
857.350	-836
857.438	366
857.527	-601
857.615	595
857.703	-426
857.792	-988
857.880	-959
857.968	-18
858.056	-998
858.145	-127
858.233	-977
858.321	-876
858.409	-144
858.497	-1040
858.585	-1372
858.673	-418
858.761	-1463
858.849	-837
858.937	-1223
859.025	-266
859.113	-716
859.201	-145
859.289	-1340
859.377	-471
859.465	-1362
859.552	-617
859.640	-1215
859.728	-103
859.816	-759
859.903	-48
859.991	-1687
860.079	84
860.166	-858
860.254	-230
860.342	-868
860.429	-893
860.517	-1127
860.604	538
860.692	-680
860.779	-451
860.867	-942
860.954	-245
861.042	-1102
861.129	16
861.216	-631
861.304	459
861.391	-1310
861.478	-397
861.565	-477
861.653	-45
861.740	-1267
861.827	175
861.914	-611
862.001	-743
862.089	-335
862.176	-329
862.263	-153
862.350	-23
862.437	-646
862.524	-90
862.611	-1534
862.698	-432
862.785	-757
862.871	-193
862.958	-1132
863.045	-674
863.132	-1213
863.219	-499
863.306	-1951
863.392	-478
863.479	-393
863.566	-427
863.652	-1235
863.739	-552
863.826	-699
863.912	-636
863.999	-1633
864.086	-298
864.172	-1019
864.259	-428
864.345	-1618
864.432	-889
864.518	-694
864.604	-730
864.691	-680
864.777	121
864.863	-755
864.950	-155
865.036	-1345
865.122	259
865.209	218
865.295	119
865.381	-1307
865.467	-34
865.553	-772
865.639	-255
865.726	-791
865.812	335
865.898	-140
865.984	1477
866.070	2326
866.156	6387
866.242	2559
866.328	10
866.414	-1191
866.499	-324
866.585	-908
866.671	-489
866.757	-1324
866.843	-211
866.928	-945
867.014	-746
867.100	-846
867.186	-700
867.271	-841
867.357	-66
867.442	-596
867.528	142
867.614	-530
867.699	-713
867.785	-376
867.870	-10
867.956	-658
868.041	1181
868.127	-915
868.212	-196
868.297	85
868.383	283
868.468	-791
868.553	732
868.639	-43
868.724	1283
868.809	-233
868.894	266
868.979	-714
869.065	-109
869.150	-1424
869.235	-924
869.320	-1357
869.405	-117
869.490	-1517
869.575	-571
869.660	-707
869.745	-178
869.830	-700
869.915	-815
870.000	-518
870.085	-644
870.169	-807
870.254	-420
870.339	-1540
870.424	-409
870.509	-767
870.593	-442
870.678	-1618
870.763	-365
870.847	-1090
870.932	-976
871.016	-1151
871.101	-804
871.186	-989
871.270	-511
871.355	-1306
871.439	-434
871.523	-1399
871.608	-49
871.692	-926
871.777	-924
871.861	-1175
871.945	-640
872.030	-1257
872.114	-690
872.198	-1217
872.282	-318
872.367	-1062
872.451	-300
872.535	-1014
872.619	-240
872.703	-1157
872.787	-762
872.871	-737
872.955	-78
873.039	-2058
873.123	-222
873.207	-489
873.291	-683
873.375	-757
873.459	-177
873.543	-1017
873.627	-83
873.711	-1161
873.794	-634
873.878	-1766
873.962	35
874.045	-994
874.129	-765
874.137	-839
874.213	-1582
874.245	-1088
874.296	-287
874.352	-1496
874.380	-2090
874.460	-437
874.464	-370
874.547	-1248
874.568	-1161
874.631	-924
874.676	-1103
874.714	-1237
874.784	-536
874.798	-406
874.881	-658
874.892	-656
874.965	-600
874.999	-869
875.048	-1236
875.107	-1005
875.131	-911
875.215	-760
875.215	-759
875.298	-502
875.323	-882
875.381	-1725
875.430	-807
875.465	-155
875.538	-832
875.548	-925
875.631	-51
875.646	-256
875.714	-1260
875.753	-640
875.798	80
875.861	-924
875.881	-1255
875.964	-541
875.968	-555
876.047	-773
876.076	-626
876.130	-347
876.183	-860
876.213	-1138
876.291	-606
876.296	-578
876.379	-987
876.398	-807
876.462	-8
876.506	-219
876.545	-493
876.613	-368
876.628	-346
876.711	-1182
876.721	-1125
876.794	-610
876.828	-617
876.877	-637
876.935	-500
876.960	-443
877.043	-1439
877.043	-1432
877.125	210
877.150	24
877.208	-398
877.258	-610
877.291	-761
877.365	-481
877.374	-453
877.456	-766
877.472	-763
877.539	-582
877.579	-443
877.622	-391
877.687	-829
877.704	-944
877.787	-9
877.794	-94
877.869	-1007
877.901	-648
877.952	-21
878.008	-519
878.034	-735
878.115	-213
878.117	-204
878.199	-512
878.222	-472
878.282	-318
878.329	-618
878.364	-832
878.437	163
878.447	292
878.529	-822
878.544	-737
878.611	-194
878.651	-640
878.694	-1152
878.758	-419
878.776	-211
878.858	-540
878.865	-542
878.941	-624
878.972	-634
879.023	-574
879.078	-328
879.105	-199
879.185	-302
879.187	-305
879.269	-282
879.292	-401
879.351	-796
879.399	-385
879.433	98
879.506	-396
879.516	-520
879.598	-365
879.613	-520
879.680	-825
879.720	-461
879.762	-204
879.827	-276
879.844	-250
879.926	182
879.933	146
880.007	-371
880.040	-445
880.089	-432
880.147	-342
880.171	-346
880.253	137
880.254	135
880.335	-18
880.360	249
880.417	1001
880.467	922
880.499	1141
880.574	3153
880.580	3196
880.662	1449
880.680	1334
880.744	1027
880.787	400
880.825	-2
880.893	68
880.907	155
880.989	-350
881.000	-302
881.070	-17
881.106	-98
881.152	-342
881.213	-348
881.233	-360
881.315	-647
881.319	-624
881.396	723
881.426	791
881.478	119
881.532	-85
881.559	35
881.639	-164
881.641	-177
881.722	25
881.745	-310
881.803	-726
881.852	-107
881.885	154
881.958	-503
881.966	-565
882.047	-235
882.064	-287
882.129	-352
882.171	-187
882.210	114
882.277	170
882.291	63
882.372	-103
882.383	-161
882.454	-286
882.489	-363
882.535	-245
882.596	-158
882.616	-247
882.697	-229
882.702	-260
882.778	-471
882.808	-388
882.859	-243
882.914	-193
882.940	-208
883.020	-467
883.021	-464
883.102	-204
883.127	-49
883.183	136
883.233	58
883.264	-22
883.339	83
883.345	94
883.426	-293
883.445	-255
883.507	43
883.551	35
883.587	-174
883.657	-337
883.668	-277
883.749	-478
883.763	-387
883.830	-101
883.869	-63
883.910	6
883.975	268
883.991	272
884.072	-414
884.081	-390
884.152	253
884.187	150
884.233	-155
884.292	64
884.314	144
884.394	11
884.398	7
884.475	-148
884.504	-251
884.555	-14
884.610	359
884.636	153
884.716	-839
884.716	-836
884.797	-122
884.821	-82
884.877	-239
884.927	-28
884.958	119
885.033	258
885.038	258
885.118	181
885.139	106
885.199	-271
885.244	-132
885.279	120
885.350	-232
885.359	-236
885.439	363
885.456	416
885.520	323
885.561	314
885.600	254
885.667	99
885.680	111
885.760	130
885.773	140
885.840	413
885.878	624
885.920	616
885.984	188
886.000	76
886.080	128
886.089	74
886.160	-130
886.195	-5
886.240	381
886.300	530
886.320	468
886.400	572
886.406	548
886.480	235
886.511	266
886.560	465
886.616	444
886.640	496
886.720	762
886.722	758
886.800	-8
886.827	-73
886.879	312
886.932	245
886.959	246
887.038	651
887.039	650
887.119	-65
887.143	-197
887.198	126
887.248	356
887.278	124
887.354	-416
887.358	-386
887.437	142
887.459	282
887.517	691
887.564	1050
887.596	763
887.669	-30
887.676	-14
887.755	225
887.774	278
887.835	336
887.880	419
887.914	387
887.985	199
887.994	279
888.073	949
888.090	1115
888.153	540
888.195	52
888.232	107
888.300	323
888.311	363
888.391	498
888.405	542
888.470	298
888.510	58
888.549	256
888.615	804
888.628	758
888.708	227
888.720	168
888.787	-111
888.825	-359
888.866	-204
888.930	188
888.945	321
889.024	891
889.035	975
889.103	304
889.140	-90
889.182	174
889.245	636
889.261	610
889.340	384
889.349	366
889.419	1048
889.454	1355
889.498	965
889.559	449
889.577	485
889.656	634
889.664	648
889.735	454
889.768	362
889.814	437
889.873	536
889.978	761
890.083	537
890.187	-5
890.292	325
890.397	997
890.501	740
890.606	566
890.710	332
890.815	1185
890.919	368
891.024	967
891.128	907
891.233	-270
891.337	386
891.442	279
891.546	819
891.650	2
891.755	460
891.859	539
891.963	1124
892.068	282
892.172	-398
892.276	-119
892.380	1241
892.484	1042
892.589	618
892.693	551
892.797	801
892.901	578
893.005	1509
893.109	78
893.213	-86
893.317	996
893.421	816
893.525	469
893.629	641
893.733	313
893.837	257
893.941	917
894.045	967
894.148	1123
894.252	5384
894.356	4479
894.460	1425
894.564	112
894.667	731
894.771	11
894.875	-273
894.978	213
895.082	361
895.186	497
895.289	702
895.393	-86
895.496	870
895.600	470
895.703	402
895.807	-328
895.910	287
896.014	458
896.117	540
896.221	153
896.324	992
896.427	329
896.531	239
896.634	247
896.737	316
896.840	-555
896.944	926
897.047	-291
897.150	609
897.253	-585
897.356	354
897.460	647
897.563	533
897.666	30
897.769	333
897.872	1015
897.975	-58
898.078	33
898.181	475
898.284	127
898.387	368
898.490	497
898.593	462
898.695	94
898.798	418
898.901	-242
899.004	125
899.107	397
899.209	117
899.312	-398
899.415	352
899.518	-194
899.620	-15
899.723	131
899.826	134
899.928	375
900.031	160
900.133	-651
900.236	708
900.338	403
900.441	-384
900.543	-54
900.646	631
900.748	-141
900.851	159
900.953	1123
901.055	261
901.158	251
901.260	-271
901.362	-588
901.465	483
901.567	788
901.669	767
901.771	-664
901.873	11
901.976	22
902.078	-42
902.180	67
902.282	43
902.384	-264
902.486	601
902.588	232
902.690	207
902.792	249
902.894	332
902.996	-26
903.098	379
903.200	-233
903.302	464
903.404	-791
903.505	-380
903.607	-146
903.709	546
903.811	178
903.913	1011
904.014	-56
904.116	621
904.218	530
904.319	148
904.421	439
904.523	337
904.624	481
904.726	692
904.827	970
904.929	1125
905.030	243
905.132	640
905.233	268
905.335	606
905.436	-192
905.537	192
905.639	1129
905.740	89
905.841	277
905.943	513
906.044	-797
906.145	465
906.247	649
906.348	347
906.449	-228
906.550	552
906.651	179
906.752	45
906.854	-4
906.955	25
907.056	-274
907.157	284
907.258	252
907.359	144
907.460	-18
907.561	221
907.662	143
907.762	246
907.863	484
907.964	335
908.065	-164
908.166	986
908.267	-13
908.367	54
908.468	521
908.569	168
908.670	-92
908.770	279
908.871	361
908.971	273
909.072	-45
909.173	556
909.273	148
909.374	216
909.474	-416
909.575	166
909.675	-613
909.776	243
909.876	762
909.977	268
910.077	848
910.177	194
910.278	-143
910.378	324
910.478	97
910.579	306
910.679	198
910.779	-751
910.879	95
910.980	-34
911.080	268
911.180	433
911.280	-157
911.380	-277
911.480	-946
911.580	213
911.680	-363
911.780	850
911.880	-444
911.980	-633
912.080	-111
912.180	165
912.280	-266
912.380	-2
912.480	14
912.580	378
912.679	352
912.779	725
912.879	-109
912.979	-90
913.078	-244
913.178	186
913.278	-52
913.377	418
913.477	114
913.577	-193
913.676	1120
913.776	626
913.875	-161
913.975	-206
914.074	164
914.174	332
914.273	-200
914.373	801
914.472	-198
914.572	-99
914.671	66
914.770	124
914.870	-905
914.969	-167
915.068	-72
915.167	74
915.267	-696
915.366	-737
915.465	-177
915.564	-90
915.663	51
915.763	413
915.862	753
915.961	380
916.060	-633
916.159	-224
916.258	-431
916.357	255
916.456	-553
916.555	81
916.654	337
916.752	217
916.851	-74
916.950	-196
917.049	-465
917.148	45
917.247	199
917.345	767
917.444	-102
917.543	-477
917.642	-520
917.740	334
917.839	645
917.937	-714
918.036	-644
918.135	11
918.233	-61
918.332	-67
918.430	-334
918.529	-286
918.627	82
918.726	482
918.824	-285
918.923	432
919.021	-888
919.119	415
919.218	-293
919.316	471
919.414	-640
919.512	-832
919.611	-280
919.709	200
919.807	-188
919.905	-388
920.003	-453
920.102	-160
920.200	-485
920.298	-874
920.396	-284
920.494	-347
920.592	78
920.690	269
920.788	-764
920.886	108
920.984	584
921.082	-258
921.180	359
921.277	-466
921.375	-122
921.473	317
921.571	-10
921.669	-1235
921.766	-84
921.864	-100
921.962	165
922.060	64
922.157	-178
922.255	-162
922.352	-768
922.450	-471
922.548	-145
922.645	-566
922.743	-715
922.840	-255
922.938	-954
923.035	406
923.133	-262
923.230	-1278
923.327	990
923.425	-244
923.522	471
923.619	-26
923.717	341
923.814	-151
923.911	-384
924.008	-202
924.106	769
924.203	-66
924.300	-729
924.397	7
924.494	59
924.591	-131
924.688	196
924.786	484
924.883	-641
924.979	-176
925.077	-735
925.173	-499
925.270	-400
925.367	-202
925.464	201
925.561	760
925.658	-376
925.755	360
925.852	-22
925.948	156
926.045	447
926.142	-21
926.239	-393
926.335	1166
926.432	264
926.529	242
926.625	1000
926.722	172
926.818	-768
926.915	-201
927.011	155
927.108	-200
927.204	-414
927.301	-150
927.397	-201
927.494	-303
927.590	265
927.687	-86
927.783	43
927.879	-291
927.976	-357
928.072	146
928.168	-550
928.264	-11
928.361	-124
928.457	315
928.553	-326
928.649	-15
928.745	-651
928.841	-44
928.937	-711
929.033	-9
929.129	-250
929.225	364
929.321	316
929.417	-147
929.513	-642
929.609	-439
929.705	50
929.801	-53
929.897	89
929.993	-324
930.089	216
930.184	-871
930.280	-406
930.376	-280
930.471	-287
930.567	61
930.663	-236
930.758	-569
930.854	-1107
930.950	-60
931.045	-65
931.141	-214
931.236	183
931.332	-879
931.427	-554
931.523	-813
931.618	-471
931.714	-167
931.809	-224
931.905	237
932.000	-1461
932.095	-634
932.191	-324
932.286	408
932.381	-829
932.476	-906
932.572	-81
932.667	-417
932.762	-311
932.857	360
932.952	-953
933.047	-216
933.142	-951
933.237	-847
933.332	-794
933.427	-32
933.522	-215
933.617	78
933.712	-225
933.807	-213
933.902	-548
933.997	-732
934.092	-435
934.187	-618
934.282	408
934.376	173
934.471	-656
934.566	-378
934.661	-456
934.755	-564
934.850	-990
934.945	-261
935.039	-103
935.134	-477
935.228	-812
935.323	-54
935.417	9
935.512	-15
935.606	-725
935.701	-242
935.795	-674
935.890	-358
935.984	-259
936.079	-887
936.173	-797
936.267	-856
936.362	-605
936.456	-434
936.550	-491
936.644	-190
936.738	-648
936.833	276
936.927	-133
937.021	-785
937.115	-334
937.209	-783
937.303	-790
937.397	-905
937.491	-41
937.585	359
937.679	-670
937.773	-599
937.867	-898
937.961	91
938.055	-904
938.149	463
938.243	-410
938.337	-75
938.430	-357
938.524	-825
938.618	150
938.712	33
938.805	-315
938.899	-321
938.993	-462
939.086	207
939.180	75
939.274	1340
939.367	-314
939.461	-49
939.554	-1127
939.648	-681
939.741	-988
939.835	-610
939.928	-906
940.022	-283
940.115	-598
940.208	-727
940.302	-424
940.395	7
940.488	-793
940.582	-185
940.675	-428
940.768	-394
940.861	-933
940.954	283
941.048	-1216
941.141	-914
941.234	-877
941.327	-668
941.420	-436
941.513	-702
941.606	-398
941.699	-29
941.792	-692
941.885	-419
941.978	-16
942.071	-383
942.164	-361
942.257	-745
942.349	-1004
942.442	-105
942.535	-679
942.628	-283
942.721	860
942.813	-393
942.906	293
942.999	-685
943.091	-81
943.184	-1679
943.277	-553
943.369	-104
943.462	-483
943.554	-317
943.647	-251
943.739	-883
943.832	-1129
943.924	-539
944.017	-724
944.109	-373
944.201	-1031
944.294	-11
944.386	-388
944.478	-286
944.571	-1461
944.663	205
944.755	-604
944.847	-420
944.940	249
945.032	-657
945.124	-503
945.216	-708
945.308	-845
945.400	-747
945.492	-891
945.584	-626
945.676	-504
945.768	-106
945.860	-987
945.952	-180
946.044	74
946.136	-978
946.228	207
946.320	-595
946.412	-828
946.503	-21
946.595	-999
946.687	-663
946.779	-879
946.870	-595
946.962	-741
947.054	-617
947.145	-714
947.237	-1157
947.329	-579
947.420	-22
947.512	-718
947.603	-593
947.695	-780
947.786	-951
947.878	-764
947.969	-346
948.061	-1423
948.152	-583
948.243	-796
948.335	-679
948.426	-361
948.517	-704
948.609	-863
948.700	-509
948.791	-119
948.882	-332
948.973	-623
949.065	-650
949.156	400
949.247	-404
949.338	-823
949.429	-782
949.520	-1104
949.611	164
949.702	-833
949.793	-553
949.884	-826
949.975	-574
950.066	-269
950.157	-863
950.247	-801
950.338	332
950.429	-591
950.520	-668
950.611	-337
950.701	-356
950.792	-490
950.883	-259
950.973	-381
951.064	-211
951.155	-457
951.245	-595
951.336	-982
951.427	-414
951.517	-747
951.608	651
951.698	-360
951.788	-463
951.879	-589
951.969	-713
952.060	-89
952.150	-1121
952.240	-644
952.331	-1679
952.421	-503
952.511	-449
952.602	-816
952.692	-897
952.782	-573
952.872	-780
952.962	-1034
953.052	-833
953.143	-135
953.233	-232
953.323	-604
953.413	-133
953.503	-411
953.593	-157
953.683	-953
953.773	-772
953.863	-1567
953.953	-649
954.042	-1035
954.132	-1440
954.222	-24
954.312	-584
954.402	-809
954.492	-1031
954.581	-526
954.671	-856
954.761	-713
954.850	-72
954.940	-198
955.030	-36
955.119	-576
955.209	-322
955.298	-790
955.388	-850
955.477	-958
955.567	-355
955.656	-881
955.746	-85
955.835	-419
955.925	-60
956.014	-176
956.103	-311
956.193	-1604
956.282	-97
956.371	-486
956.461	-659
956.550	-909
956.639	-319
956.728	-943
956.817	62
956.906	-953
956.995	-71
957.085	-831
957.174	-168
957.263	-1055
957.352	-704
957.441	-425
957.530	-1231
957.619	-624
957.708	83
957.796	-55
957.885	-507
957.974	-390
958.063	110
958.152	-1045
958.241	-759
958.329	-564
958.418	-179
958.507	-427
958.596	255
958.684	-807
958.773	127
958.861	-869
958.950	214
959.039	-144
959.127	365
959.216	111
959.304	-41
959.393	-250
959.481	290
959.570	-571
959.658	950
959.746	115
959.835	181
959.923	876
960.011	33
960.100	-755
960.188	333
960.276	-59
960.365	48
960.453	-1031
960.541	-43
960.629	-795
960.717	-484
960.805	-823
960.893	123
960.981	-278
961.069	-10
961.158	332
961.245	-491
961.333	-92
961.421	-873
961.509	-711
961.597	-714
961.685	-820
961.773	-1482
961.861	-999
961.949	20
962.036	-1001
962.124	-529
962.212	-1305
962.299	-529
962.387	-1187
962.475	-618
962.562	-664
962.650	-59
962.738	-1191
962.825	-302
962.913	-357
963.000	-189
963.088	-578
963.175	-727
963.263	-605
963.350	-185
963.438	-721
963.525	-808
963.612	-1038
963.700	-53
963.787	1558
963.874	1284
963.962	450
964.049	-612
964.136	-446
964.223	156
964.310	-1177
964.398	-743
964.485	-1322
964.572	-646
964.659	-506
964.746	-118
964.833	-331
964.920	-452
965.007	-1071
965.094	-500
965.181	-681
965.268	-1173
965.355	183
965.441	-617
965.528	-1268
965.615	-844
965.702	-1321
965.789	-524
965.875	-1244
965.962	-994
966.049	-1123
966.136	-590
966.222	-1408
966.309	-1235
966.395	-1451
966.482	-1095
966.569	-708
966.655	-786
966.742	-1126
966.828	-1280
966.915	-490
967.001	-533
967.087	-1168
967.174	-676
967.260	26
967.347	-1116
967.433	-736
967.519	483
967.605	555
967.692	-1266
967.778	-1435
967.864	-1275
967.950	-1690
968.036	78
968.123	-1049
968.209	-518
968.295	-1476
968.381	-539
968.467	-784
968.553	-751
968.639	98
968.725	-860
968.811	-531
968.897	-317
968.983	-429
969.069	-1052
969.154	-764
969.240	-550
969.326	-955
969.412	-1069
969.497	-706
969.583	-706
969.669	-1025
969.755	-468
969.840	-1151
969.926	-573
970.012	-935
970.097	-1140
970.183	-1425
970.268	-1584
970.354	-787
970.439	-291
970.525	-56
970.610	-594
970.696	-1135
970.781	-959
970.866	-1090
970.952	-381
971.037	-1110
971.122	-1415
971.208	-992
971.293	-1007
971.378	-1743
971.463	-1171
971.549	-997
971.634	-774
971.719	-1134
971.804	-556
971.889	-1266
971.974	-777
972.059	-1139
972.144	-1375
972.229	-682
972.314	-272
972.399	-1489
972.484	-493
972.569	-1129
972.654	-1689
972.739	-161
972.824	4
972.908	-604
972.993	-657
973.078	-1212
973.163	-715
973.247	-1517
973.332	-1593
973.417	-793
973.501	-1021
973.586	-804
973.671	-1041
973.755	-875
973.840	-457
973.924	-1270
974.009	-1123
974.093	-1210
974.178	-811
974.262	-717
974.346	-637
974.431	-1456
974.515	-884
974.600	-1091
974.684	-661
974.768	-580
974.852	-532
974.937	-1789
975.021	-1317
975.105	-431
975.189	-1237
975.273	-471
975.358	-644
975.442	-1154
975.526	-896
975.610	-1519
975.694	-1401
975.778	-766
975.862	-752
975.946	-2180
976.030	-533
976.114	-1503
976.198	-751
976.281	-1782
976.365	-841
976.449	-845
976.533	-1845
976.617	-1597
976.700	-761
976.784	-1451
976.868	-1431
976.951	-1410
977.035	-372
977.119	-731
977.202	-527
977.286	-468
977.369	-409
977.453	-1334
977.536	-849
977.620	-469
977.703	-247
977.787	-1298
977.870	-503
977.953	-908
978.037	-1865
978.120	-1250
978.203	-1484
978.287	-627
978.370	-867
978.453	-1693
978.536	-1466
978.620	-845
978.703	-842
978.786	-1324
978.869	-527
978.952	-1743
979.035	-1281
979.118	-711
979.201	-1314
979.284	-1318
979.367	-685
979.450	-1011
979.533	-855
979.616	-1182
979.699	-1298
979.782	-1706
979.865	-1323
979.948	-982
980.030	-986
980.113	-709
980.196	-1993
980.279	-1046
980.361	-739
980.444	-1053
980.526	-405
980.609	-1671
980.692	166
980.774	-478
980.857	-1155
980.939	-907
981.022	-601
981.104	-1230
981.187	-1308
981.269	-946
981.352	-995
981.434	-844
981.516	-1775
981.599	-306
981.681	-1265
981.763	-1905
981.846	-1068
981.928	-617
982.010	-1505
982.092	-1241
982.174	-390
982.256	-915
982.339	-695
982.421	-1885
982.503	-1129
982.585	-1838
982.667	-1048
982.749	-1348
982.831	-931
982.913	-1366
982.995	-927
983.077	-1152
983.158	-515
983.240	-1857
983.322	-1083
983.404	-746
983.486	-1789
983.568	-669
983.649	-926
983.731	-1041
983.813	-1616
983.894	-1186
983.976	-881
984.058	-1543
984.139	-604
984.221	-1248
984.302	-784
984.384	-1216
984.465	-471
984.547	-694
984.628	-1315
984.710	-955
984.791	-1723
984.872	-1494
984.954	-867
985.035	-895
985.116	-1175
985.198	-1786
985.279	-1012
985.360	-301
985.441	-1350
985.522	-1293
985.604	-1397
985.685	-2087
985.766	-788
985.847	-1428
985.928	-814
986.009	-1408
986.090	-829
986.171	-1055
986.252	-1019
986.333	-839
986.414	-1909
986.495	-1349
986.576	-1287
986.656	-1236
986.737	-1178
986.818	-763
986.899	-1461
986.980	-1720
987.060	-777
987.141	-1289
987.222	-652
987.302	-678
987.383	-62
987.464	-1556
987.544	-1429
987.625	-842
987.705	-853
987.786	-1649
987.866	-713
987.947	-606
988.027	-1197
988.108	-1485
988.188	-808
988.268	-1637
988.349	-1138
988.429	-808
988.509	-511
988.589	-825
988.670	-1775
988.750	-567
988.830	-952
988.910	-765
988.990	-948
989.070	-1004
989.151	-957
989.231	-1467
989.311	-771
989.391	-1171
989.471	-897
989.551	-2025
989.631	-899
989.711	-936
989.791	-518
989.870	-1037
989.950	-800
990.030	-1955
990.110	-1793
990.190	-1595
990.269	-962
990.349	-1124
990.429	-1261
990.509	-1635
990.588	-911
990.668	-913
990.747	-769
990.827	-1469
990.907	-402
990.986	-1826
991.066	-827
991.145	-1183
991.225	-970
991.304	-269
991.383	-1456
991.463	-876
991.542	-543
991.622	-2031
991.701	-610
991.780	-468
991.859	-704
991.939	-1378
992.018	-707
992.097	-1364
992.176	-1096
992.256	-880
992.335	-1093
992.414	-1255
992.493	-894
992.572	-1933
992.651	-269
992.730	-1178
992.809	-944
992.888	-1364
992.967	-350
993.046	-1131
993.125	-1657
993.203	-2053
993.282	-906
993.361	-404
993.440	-1618
993.519	-1708
993.597	-367
993.676	-1715
993.755	285
993.834	-1413
993.912	-1230
993.991	-842
994.069	-1665
994.148	-742
994.226	-922
994.305	-403
994.384	-1754
994.462	-773
994.540	-737
994.619	-990
994.697	-758
994.776	-1482
994.854	-59
994.932	-1660
995.011	-587
995.089	-874
995.167	-961
995.245	-933
995.324	-1093
995.402	-944
995.480	-1375
995.558	-1475
995.636	-1765
995.714	-2030
995.792	-190
995.870	-1031
995.948	-1110
996.026	-945
996.104	-1496
996.182	-1154
996.260	-500
996.338	-1039
996.416	-983
996.494	-1532
996.572	-671
996.649	-1285
996.727	-1803
996.805	-896
996.883	-735
996.960	-1069
997.038	-1367
997.116	-1324
997.193	-1664
997.271	-1061
997.348	-1529
997.426	-1466
997.504	-497
997.581	-1079
997.658	-1016
997.736	-2004
997.813	-1229
997.891	-911
997.968	-753
998.046	-1348
998.123	-1197
998.200	-1463
998.277	-1426
998.355	-1101
998.432	-1971
998.509	-1140
998.586	-520
998.663	-1141
998.741	-1323
998.818	-1248
998.895	-733
998.972	-905
999.049	-989
999.126	-1217
999.203	-496
999.280	-1285
999.357	-1200
999.434	-1826
999.511	-1174
999.587	-852
999.664	-1323
999.741	-1584
999.818	-1078
999.895	-1449
999.971	-1108
1000.048	-1021
1000.125	-1270
1000.202	-1461
1000.278	-1667
1000.355	-1383
1000.431	-757
1000.508	-1995
1000.584	-188
1000.661	-763
1000.738	-1393
1000.814	-1557
1000.890	-1073
1000.967	-1553
1001.043	-783
1001.120	-1547
1001.196	-1577
1001.272	-1765
1001.349	-743
1001.425	-737
1001.501	-1324
1001.577	-1407
1001.654	-752
1001.730	-1494
1001.806	-147
1001.882	-2308
1001.958	-512
1002.034	-1296
1002.110	-610
1002.186	-1889
1002.262	-1083
1002.338	-1635
1002.414	-924
1002.490	-1210
1002.566	-2140
1002.642	-1399
1002.718	-436
1002.794	-1699
1002.870	-768
1002.945	-1335
1003.021	-1288
1003.097	-1761
1003.173	-773
1003.248	-1969
1003.324	-1359
1003.400	-1459
1003.475	-698
1003.551	-1771
1003.626	-582
1003.702	-1358
1003.777	-896
1003.853	-1640
1003.928	-1231
1004.004	-1112
1004.079	-1197
1004.155	-1806
1004.230	-1699
1004.305	-956
1004.381	-1270
1004.456	-1328
1004.531	-1827
1004.607	-1654
1004.682	-1579
1004.757	-1348
1004.832	-790
1004.907	-1982
1004.982	-1242
1005.057	-1147
1005.133	-893
1005.208	-2263
1005.283	-703
1005.358	-1041
1005.433	-1541
1005.508	-1601
1005.583	-1891
1005.657	-1605
1005.732	-169
1005.807	-2160
1005.882	-901
1005.957	-236
1006.032	-820
1006.106	-1534
1006.181	-1891
1006.256	-1007
1006.331	-1965
1006.405	-2612
1006.480	-1092
1006.554	-1368
1006.629	-1402
1006.704	-1190
1006.778	-1517
1006.853	-1512
1006.927	-1572
1007.002	-1539
1007.076	-1108
1007.150	-1777
1007.225	-926
1007.299	-1847
1007.373	-1954
1007.448	-1224
1007.522	-1132
1007.596	-996
1007.671	-1842
1007.745	-918
1007.819	-953
1007.893	-1092
1007.967	-1339
1008.041	-2946
1008.115	-1143
1008.190	-1344
1008.264	-1136
1008.338	-1971
1008.412	-1535
1008.486	-1563
1008.560	-1590
1008.633	-1869
1008.707	-742
1008.781	-1546
1008.855	-1689
1008.929	-1876
1009.003	-1809
1009.076	-1909
1009.150	-1543
1009.224	-1455
1009.298	-1192
1009.371	-1657
1009.445	-331
1009.519	-813
1009.592	-2143
1009.666	-2030
1009.739	-1835
1009.813	-1330
1009.886	-676
1009.960	-2027
1010.033	-1125
1010.107	-2008
1010.180	-1189
1010.253	-1463
1010.327	-2553
1010.400	-1775
1010.473	-1342
1010.547	-1221
1010.620	-1643
1010.693	-1291
1010.766	-1117
1010.840	-1509
1010.913	-1163
1010.986	-989
1011.059	-1602
1011.132	-1888
1011.205	-1102
1011.278	-766
1011.351	-694
1011.424	-2482
1011.497	-2290
1011.570	-1497
1011.643	-1009
1011.716	-2153
1011.789	-1646
1011.862	-1375
1011.934	-1121
1012.007	-1987
1012.080	-983
1012.153	-1337
1012.225	-830
1012.298	-1616
1012.371	-1998
1012.443	-1327
1012.516	-2362
1012.588	-2171
1012.661	-1305
1012.733	-2148
1012.806	-1345
1012.879	-3071
1012.951	-1124
1013.023	-2203
1013.096	-1828
1013.168	-1300
1013.241	-721
1013.313	-1594
1013.385	-2053
1013.458	-1345
1013.530	-820
1013.602	-1884
1013.674	-1428
1013.746	-2131
1013.819	-1581
1013.891	-1228
1013.963	-1771
1014.035	-1876
1014.107	-1610
1014.179	-1570
1014.251	-2034
1014.323	-863
1014.395	-1584
1014.467	-1819
1014.539	-1152
1014.611	-2011
1014.683	-1593
1014.754	-1937
1014.826	-1574
1014.898	-1951
1014.970	-1277
1015.042	-1491
1015.113	-1400
1015.185	-1752
1015.257	-2049
1015.328	-1494
1015.400	-2211
1015.471	-1645
1015.543	-2474
1015.615	-2002
1015.686	-2248
1015.757	-862
1015.829	-1342
1015.901	-2164
1015.972	-2168
1016.043	-1102
1016.115	-1633
1016.186	-2482
1016.257	-1676
1016.328	-1234
1016.400	-1071
1016.471	-2343
1016.542	-2092
1016.613	-1932
1016.685	-2025
1016.756	-1254
1016.827	-378
1016.898	-2249
1016.969	-705
1017.040	-1637
1017.111	-1564
1017.182	-1528
1017.253	-747
1017.324	-1555
1017.395	-2022
1017.466	-1909
1017.537	-2232
1017.608	-1663
1017.678	-1153
1017.749	-1961
1017.820	-1806
1017.891	-1926
1017.961	-1161
1018.032	-1964
1018.103	-1198
1018.173	-2408
1018.244	-2398
1018.315	-2823
1018.385	-200
1018.456	-1689
1018.526	-1499
1018.597	-2016
1018.667	-1429
1018.738	-1374
1018.808	-1214
1018.878	-2184
1018.949	-1432
1019.019	-1641
1019.089	-1781
1019.160	-1378
1019.230	-1824
1019.300	-1324
1019.371	-2461
1019.441	-1376
1019.511	-732
1019.581	-2331
1019.651	-1320
1019.721	-1824
1019.791	-980
1019.861	-1272
1019.931	-1818
1020.001	-2570
1020.071	-1642
1020.141	-2609
1020.211	-1112
1020.281	-1862
1020.351	-1750
1020.421	-1074
1020.491	-1422
1020.560	-2354
1020.630	-1849
1020.700	-1729
1020.770	-1819
1020.839	-1874
1020.909	-1535
1020.979	-1789
1021.048	-1486
1021.118	-2209
1021.187	-1934
1021.257	-2211
1021.326	-1413
1021.396	-2057
1021.465	-2328
1021.535	-1451
1021.604	-2518
1021.674	-1328
1021.743	-1696
1021.812	-2447
1021.882	-1357
1021.951	-2371
1022.020	-1624
1022.089	-1859
1022.159	-1503
1022.228	-1708
1022.297	-1433
1022.366	-2132
1022.435	-2240
1022.504	-2093
1022.573	-1694
1022.642	-2123
1022.711	-1803
1022.781	-1390
1022.849	-2020
1022.918	-2540
1022.987	-1529
1023.056	-1661
1023.125	-1367
1023.194	-1961
1023.263	-1977
1023.331	-1354
1023.400	-1871
1023.469	-2596
1023.538	-645
1023.606	-2549
1023.675	-1214
1023.744	-2305
1023.812	-2022
1023.881	-1878
1023.949	-1754
1024.018	-1445
1024.086	-2276
1024.155	-1680
1024.223	-1614
1024.292	-1973
1024.360	-1333
1024.429	-2092
1024.497	-2347
1024.565	-2068
1024.634	-2047
1024.702	-1549
1024.770	-1088
1024.838	-1530
1024.907	-1202
1024.975	-1658
1025.043	-1319
1025.111	-2399
1025.179	-1108
1025.247	-1603
1025.315	-1747
1025.383	-2069
1025.451	-1831
1025.519	-1620
1025.587	-1570
1025.655	-2523
1025.723	-2031
1025.791	-1996
1025.859	-1481
1025.927	-1321
1025.995	-2548
1026.062	-2094
1026.130	-2041
1026.198	-2065
1026.266	-1326
1026.333	-2136
1026.401	-1431
1026.469	-2013
1026.536	-1193
1026.604	-1868
1026.671	-2880
1026.739	-1455
1026.806	-1932
1026.874	-2212
1026.941	-2106
1027.009	-1706
1027.076	-1741
1027.144	-967
1027.211	-2545
1027.278	-1475
1027.345	-1480
1027.413	-2037
1027.480	-2280
1027.547	-1886
1027.614	-1612
1027.682	-1786
1027.749	-816
1027.816	-1796
1027.883	-2254
1027.950	-2400
1028.017	-1813
1028.084	-1098
1028.151	-1809
1028.218	-2017
1028.285	-1448
1028.352	-1667
1028.419	-1383
1028.486	-1835
1028.553	-1267
1028.619	-2712
1028.686	-2015
1028.753	-2645
1028.820	-1891
1028.886	-1427
1028.953	-1929
1029.020	-1809
1029.086	-1951
1029.153	-1583
1029.220	-1492
1029.286	-1093
1029.353	-1774
1029.419	-1373
1029.486	-1591
1029.552	-1845
1029.619	-1413
1029.685	-2493
1029.751	-1646
1029.818	-1375
1029.884	-1984
1029.951	-1184
1030.017	-1034
1030.083	-2522
1030.149	-2010
1030.216	-2017
1030.282	-1341
1030.348	-2145
1030.414	-1706
1030.480	-2095
1030.546	-2210
1030.612	-2087
1030.678	-2351
1030.744	-1883
1030.810	-2189
1030.876	-2154
1030.942	-2110
1031.008	-2304
1031.074	-2182
1031.140	-2079
1031.206	-937
1031.272	-2789
1031.337	-1679
1031.403	-2091
1031.469	-1839
1031.534	-2141
1031.600	-1586
1031.666	-1846
1031.731	-2477
1031.797	-1822
1031.863	-1679
1031.928	-1821
1031.994	-1527
1032.059	-2224
1032.125	-1346
1032.190	-1808
1032.256	-1482
1032.321	-2530
1032.386	-1619
1032.452	-1890
1032.517	-2620
1032.582	-2222
1032.647	-1759
1032.713	-1980
1032.778	-1922
1032.843	-2711
1032.908	-2158
1032.974	-2159
1033.039	-1613
1033.104	-1448
1033.169	-2664
1033.234	-1597
1033.299	-1567
1033.364	-1727
1033.429	-2051
1033.494	-1688
1033.559	-2065
1033.624	-1874
1033.688	-1412
1033.753	-2889
1033.818	-2355
1033.883	-1583
1033.948	-1758
1034.013	-2654
1034.077	-2333
1034.142	-1483
1034.207	-1820
1034.271	-2471
1034.336	-1704
1034.400	-1510
1034.465	-1440
1034.530	-1895
1034.594	-1777
1034.658	-1655
1034.723	-2083
1034.787	-1876
1034.852	-1410
1034.916	-2190
1034.981	-2004
1035.045	-1598
1035.109	-1598
1035.173	-1371
1035.238	-1803
1035.302	-1788
1035.366	-1849
1035.430	-1780
1035.495	-2188
1035.559	-1694
1035.623	-2254
1035.687	-2389
1035.751	-1535
1035.815	-1995
1035.879	-2283
1035.943	-1864
1036.007	-1637
1036.071	-1594
1036.135	-2350
1036.198	-2530
1036.262	-1883
1036.326	-2038
1036.390	-2202
1036.454	-1923
1036.517	-1754
1036.581	-2286
1036.645	-2097
1036.709	-415
1036.772	-2112
1036.836	-1602
1036.900	-1734
1036.963	-1946
1037.026	-2366
1037.090	-1946
1037.154	-2287
1037.217	-1858
1037.280	-1812
1037.344	-2420
1037.407	-2414
1037.471	-1906
1037.534	-1808
1037.597	-1892
1037.661	-1525
1037.724	-2247
1037.787	-1884
1037.850	-2715
1037.913	-1956
1037.977	-2113
1038.040	-2346
1038.103	-2094
1038.166	-2392
1038.229	-2180
1038.292	-1985
1038.355	-1883
1038.418	-1522
1038.481	-1849
1038.544	-1517
1038.607	-2567
1038.670	-1440
1038.732	-1634
1038.795	-2518
1038.858	-1985
1038.921	-1724
1038.984	-777
1039.046	-2251
1039.109	-1888
1039.172	-2100
1039.234	-2617
1039.297	-2291
1039.360	-2074
1039.422	-1393
1039.485	-2209
1039.547	-2377
1039.610	-2771
1039.672	-2109
1039.734	-2056
1039.797	-1562
1039.859	-2155
1039.922	-2582
1039.984	-2646
1040.046	-1967
1040.109	-1748
1040.171	-2343
1040.233	-2862
1040.295	-1960
1040.358	-2564
1040.420	-1900
1040.482	-2257
1040.544	-2141
1040.606	-2043
1040.668	-1945
1040.730	-2527
1040.792	-1582
1040.854	-2447
1040.916	-2119
1040.978	-2391
1041.040	-1784
1041.102	-2304
1041.164	-1465
1041.225	-2685
1041.287	-1684
1041.349	-1325
1041.411	-1792
1041.472	-1777
1041.534	-1763
1041.596	-2580
1041.657	-2102
1041.719	-2060
1041.781	-2092
1041.842	-1744
1041.904	-2225
1041.965	-2536
1042.027	-2044
1042.088	-1943
1042.150	-1625
1042.211	-1569
1042.272	-1812
1042.334	-2218
1042.395	-1971
1042.456	-1756
1042.518	-1632
1042.579	-874
1042.640	-2386
1042.701	-1545
1042.763	-1733
1042.824	-1944
1042.885	-1490
1042.946	-2019
1043.007	-1179
1043.068	-2542
1043.129	-2568
1043.190	-1863
1043.251	-1439
1043.312	-1491
1043.373	-1708
1043.434	-2527
1043.495	-2325
1043.556	-1644
1043.616	-2059
1043.677	-1968
1043.738	-1290
1043.799	-1777
1043.859	-1782
1043.920	-2390
1043.981	-1650
1044.041	-1528
1044.102	-2003
1044.162	-1763
1044.223	-1187
1044.284	-1713
1044.344	-1257
1044.405	-2179
1044.465	-1543
1044.525	-2383
1044.586	-1725
1044.646	-1826
1044.707	-1725
1044.767	-2131
1044.827	-1240
1044.887	-2005
1044.948	-1028
1045.008	-1518
1045.068	-1676
1045.128	-2427
1045.188	-1702
1045.249	-1701
1045.309	-1721
1045.369	-1393
1045.429	-2297
1045.489	-1526
1045.549	-1713
1045.609	-1801
1045.669	-2348
1045.729	-1631
1045.789	-2274
1045.848	-997
1045.908	-944
1045.968	-1586
1046.028	-1130
1046.088	-1473
1046.147	-1162
1046.207	-1759
1046.267	-1311
1046.326	-1165
1046.386	-1141
1046.446	-1140
1046.505	-1432
1046.565	-1248
1046.624	-430
1046.684	-1436
1046.743	76
1046.803	-1428
1046.862	-514
1046.922	0
