'Start Wavelength	183.907
'End Wavelength	1046.922
'Gate Delay	5.000
'Gate Width (ms)	1.050
'Laser Output Level	0.000
'X Position	0.000
'Y Position	0.000
'Z Position	0.000
'Grid Point Number	1.000
'Shot Number	100.000
183.907	879.000
183.977	327.000
184.047	594
184.116	285
184.186	576
184.256	578
184.325	552
184.395	569
184.465	988
184.534	468
184.604	83
184.674	739
184.743	1237
184.813	-356
184.883	649
184.952	296
185.022	490
185.092	600
185.161	891
185.231	241
185.301	524
185.370	558
185.440	471
185.509	430
185.579	-29
185.649	767
185.718	-7
185.788	1313
185.857	17
185.927	308
185.996	442
186.066	339
186.136	584
186.205	904
186.275	585
186.344	218
186.414	672
186.483	996
186.553	1526
186.622	1074
186.692	1199
186.761	1508
186.831	366
186.900	672
186.970	1214
187.039	1399
187.109	1441
187.178	1503
187.248	353
187.317	773
187.387	240
187.456	380
187.526	405
187.595	1299
187.664	398
187.734	1397
187.803	564
187.873	551
187.942	1206
188.012	784
188.081	736
188.150	765
188.220	1211
188.289	1213
188.358	1164
188.428	556
188.497	1130
188.567	952
188.636	397
188.705	850
188.775	452
188.844	937
188.913	811
188.983	1232
189.052	624
189.121	644
189.191	688
189.260	1133
189.329	619
189.399	544
189.468	359
189.537	1025
189.606	-253
189.676	872
189.745	743
189.814	904
189.883	735
189.953	576
190.022	523
190.091	903
190.161	767
190.230	1213
190.299	822
190.368	1021
190.437	315
190.507	245
190.576	1137
190.645	1016
190.714	108
190.783	754
190.853	673
190.922	939
190.991	648
191.060	553
191.129	593
191.198	836
191.268	600
191.337	904
191.406	1239
191.475	1120
191.544	757
191.613	645
191.682	1357
191.752	731
191.821	557
191.890	745
191.959	586
192.028	874
192.097	976
192.166	626
192.235	119
192.304	132
192.373	375
192.442	1158
192.511	806
192.580	649
192.650	394
192.719	777
192.788	-103
192.857	602
192.926	849
192.995	571
193.064	323
193.133	461
193.202	1187
193.271	1077
193.340	1294
193.409	329
193.478	1219
193.547	264
193.615	1165
193.684	1825
193.753	1031
193.822	855
193.891	909
193.960	990
194.029	570
194.098	1561
194.167	258
194.236	432
194.305	542
194.374	481
194.443	764
194.512	755
194.580	1071
194.649	657
194.718	368
194.787	353
194.856	595
194.925	693
194.994	578
195.062	681
195.131	1090
195.200	1033
195.269	1143
195.338	1183
195.407	756
195.475	-4
195.544	625
195.613	483
195.682	750
195.751	159
195.819	89
195.888	820
195.957	1260
196.026	624
196.094	232
196.163	1026
196.232	189
196.301	781
196.369	622
196.438	984
196.507	299
196.576	745
196.644	279
196.713	1138
196.782	680
196.850	1060
196.919	-163
196.988	850
197.056	390
197.125	740
197.194	324
197.262	205
197.331	332
197.400	1265
197.468	943
197.537	182
197.606	276
197.674	985
197.743	91
197.812	530
197.880	978
197.949	990
198.017	812
198.086	1454
198.155	527
198.223	1154
198.292	1949
198.360	1356
198.429	849
198.497	875
198.566	1236
198.635	486
198.703	-390
198.772	886
198.840	1452
198.909	1238
198.977	862
199.046	755
199.114	345
199.183	869
199.251	347
199.320	595
199.388	315
199.457	1020
199.525	1000
199.594	533
199.662	635
199.731	825
199.799	1237
199.867	618
199.936	959
200.004	1051
200.073	830
200.141	858
200.210	1315
200.278	493
200.346	1048
200.415	1177
200.483	904
200.552	722
200.620	719
200.688	742
200.757	728
200.825	1019
200.893	968
200.962	978
201.030	1499
201.098	419
201.167	611
201.235	642
201.303	172
201.372	1404
201.440	454
201.508	297
201.577	536
201.645	846
201.713	578
201.781	982
201.850	686
201.918	1351
201.986	903
202.055	785
202.123	810
202.191	721
202.259	680
202.327	1259
202.396	534
202.464	813
202.532	618
202.600	1586
202.669	555
202.737	1030
202.805	137
202.873	408
202.941	900
203.009	568
203.078	734
203.146	709
203.214	287
203.282	-357
203.350	880
203.418	1090
203.487	871
203.555	914
203.623	29
203.691	549
203.759	145
203.827	60
203.895	781
203.963	1124
204.031	1033
204.099	531
204.168	-132
204.236	563
204.304	859
204.372	130
204.440	-54
204.508	1034
204.576	322
204.644	590
204.712	-71
204.780	1194
204.848	1083
204.916	1018
204.984	1086
205.052	921
205.120	377
205.188	695
205.256	491
205.324	464
205.392	198
205.460	1062
205.528	463
205.596	681
205.664	480
205.732	219
205.799	1020
205.867	845
205.935	821
206.003	1262
206.071	518
206.139	959
206.207	43
206.275	619
206.343	433
206.411	448
206.478	1230
206.546	1189
206.614	743
206.682	608
206.750	688
206.818	1306
206.885	1795
206.953	78
207.021	627
207.089	446
207.157	-116
207.225	-45
207.292	211
207.360	1000
207.428	272
207.496	645
207.563	-177
207.631	887
207.699	569
207.767	452
207.834	358
207.902	952
207.970	731
208.038	1301
208.105	355
208.173	1181
208.241	681
208.309	1562
208.376	743
208.444	1031
208.512	901
208.579	848
208.647	1178
208.715	2015
208.782	549
208.850	711
208.918	511
208.985	565
209.053	517
209.120	926
209.188	318
209.256	532
209.323	161
209.391	692
209.459	581
209.526	958
209.594	141
209.661	1005
209.729	758
209.796	1152
209.864	892
209.932	605
209.999	881
210.067	1912
210.134	539
210.202	1215
210.269	1327
210.337	1428
210.404	1046
210.472	653
210.539	1000
210.607	618
210.674	247
210.742	908
210.809	413
210.877	1203
210.944	739
211.012	1076
211.079	611
211.146	947
211.214	1090
211.281	2080
211.349	1259
211.416	1512
211.484	863
211.551	-517
211.618	832
211.686	863
211.753	633
211.821	992
211.888	593
211.955	1261
212.023	728
212.090	851
212.157	294
212.225	1099
212.292	597
212.359	1899
212.427	3613
212.494	1584
212.561	400
212.629	1217
212.696	84
212.763	676
212.831	662
212.898	831
212.965	643
213.032	723
213.100	-94
213.167	601
213.234	1400
213.301	985
213.369	104
213.436	579
213.503	468
213.570	1203
213.638	471
213.705	254
213.772	-214
213.839	578
213.906	54
213.973	1308
214.041	167
214.108	1373
214.175	-382
214.242	825
214.309	763
214.376	952
214.444	273
214.511	772
214.578	189
214.645	1249
214.712	1133
214.779	772
214.846	919
214.913	1276
214.980	2643
215.048	2336
215.115	2638
215.182	1973
215.249	555
215.316	1142
215.383	1004
215.450	1093
215.517	755
215.584	578
215.651	570
215.718	567
215.785	1514
215.852	667
215.919	184
215.986	282
216.053	235
216.120	1073
216.187	483
216.254	994
216.321	574
216.388	572
216.455	867
216.522	1046
216.589	1260
216.656	1405
216.722	455
216.789	1091
216.856	943
216.923	1193
216.990	1065
217.057	849
217.124	925
217.191	1473
217.258	1746
217.324	1114
217.391	1091
217.458	1025
217.525	642
217.592	782
217.659	315
217.725	440
217.792	803
217.859	1008
217.926	139
217.993	743
218.059	848
218.126	279
218.193	675
218.260	194
218.327	38
218.393	119
218.460	304
218.527	1041
218.594	610
218.660	1317
218.727	1203
218.794	182
218.860	1412
218.927	1038
218.994	-400
219.061	1118
219.127	1046
219.194	1223
219.261	499
219.327	414
219.394	731
219.461	-157
219.527	576
219.594	1459
219.661	820
219.727	659
219.794	211
219.860	527
219.927	2098
219.994	3756
220.060	4345
220.127	4332
220.193	2246
220.260	2275
220.326	1881
220.393	2442
220.460	1832
220.526	1027
220.593	784
220.659	1464
220.726	1599
220.792	2813
220.859	2492
220.925	3431
220.992	4318
221.058	3599
221.125	2301
221.191	1728
221.258	906
221.324	862
221.391	291
221.457	210
221.524	1194
221.590	1585
221.657	2516
221.723	1341
221.789	1789
221.856	697
221.922	333
221.989	625
222.055	382
222.121	573
222.188	1222
222.254	1264
222.321	288
222.387	895
222.453	401
222.520	470
222.586	132
222.652	599
222.719	123
222.785	338
222.851	81
222.918	407
222.984	-366
223.050	733
223.116	46
223.183	852
223.249	-286
223.315	344
223.382	64
223.448	367
223.514	-177
223.580	-5
223.647	663
223.713	-119
223.779	-69
223.845	-232
223.911	233
223.978	679
224.044	699
224.110	399
224.176	503
224.242	389
224.309	-208
224.375	683
224.441	260
224.507	49
224.573	253
224.639	189
224.705	-989
224.772	-261
224.838	312
224.904	446
224.970	543
225.036	756
225.102	498
225.168	587
225.234	388
225.300	1150
225.366	520
225.432	-97
225.499	77
225.565	1377
225.631	780
225.697	387
225.763	1161
225.829	1185
225.895	-191
225.961	1100
226.027	1360
226.093	682
226.159	1588
226.225	3053
226.291	5851
226.357	6798
226.423	3380
226.489	1583
226.554	1052
226.620	1703
226.686	2286
226.752	2429
226.818	5301
226.884	10772
226.950	6379
227.016	3556
227.082	2851
227.148	2055
227.214	1964
227.279	1494
227.345	2028
227.411	3000
227.477	5485
227.543	6864
227.609	7822
227.674	5450
227.740	2147
227.806	2585
227.872	1255
227.938	1949
228.003	1244
228.069	1028
228.135	751
228.201	446
228.267	526
228.332	589
228.398	164
228.464	522
228.530	-473
228.595	511
228.661	858
228.727	-22
228.792	1201
228.858	391
228.924	709
228.990	163
229.055	-322
229.121	396
229.187	717
229.252	302
229.318	689
229.384	845
229.449	651
229.515	2
229.581	-802
229.646	811
229.712	238
229.777	1393
229.843	1250
229.909	781
229.974	480
230.040	702
230.105	582
230.171	466
230.236	428
230.302	974
230.368	379
230.433	129
230.499	-267
230.564	1010
230.630	92
230.695	563
230.761	621
230.826	463
230.892	801
230.957	166
231.023	453
231.088	433
231.154	142
231.219	288
231.284	121
231.350	592
231.415	205
231.481	283
231.546	675
231.612	803
231.677	104
231.742	349
231.808	705
231.873	754
231.939	-789
232.004	1018
232.069	563
232.135	89
232.200	527
232.265	742
232.331	462
232.396	248
232.461	-74
232.527	-137
232.592	-710
232.657	762
232.723	178
232.788	287
232.853	543
232.918	151
232.984	-269
233.049	445
233.114	345
233.179	1343
233.245	796
233.310	707
233.375	-158
233.440	206
233.506	-9
233.571	75
233.636	863
233.701	-50
233.766	459
233.832	-266
233.897	160
233.962	-222
234.027	100
234.092	935
234.157	427
234.222	1440
234.288	1011
234.353	1310
234.418	64
234.483	1023
234.548	-52
234.613	639
234.678	775
234.743	-379
234.808	1755
234.873	645
234.938	828
235.004	728
235.069	65
235.134	224
235.199	-40
235.264	528
235.329	-346
235.394	-146
235.459	548
235.524	140
235.589	909
235.654	217
235.719	-104
235.784	684
235.849	1230
235.913	93
235.978	752
236.043	42
236.108	430
236.173	1040
236.238	-100
236.303	149
236.368	-337
236.433	912
236.498	448
236.563	1381
236.627	3862
236.692	14940
236.757	7144
236.822	2901
236.887	1196
236.952	1513
237.017	1237
237.081	1672
237.146	1464
237.211	5920
237.276	16463
237.341	19784
237.405	6650
237.470	3239
237.535	1767
237.600	1497
237.664	1350
237.729	1264
237.794	643
237.859	2321
237.923	1035
237.988	1121
238.053	1066
238.118	555
238.182	2581
238.247	2364
238.312	936
238.376	1256
238.441	70
238.506	1287
238.570	-303
238.635	944
238.700	543
238.764	433
238.829	856
238.893	1201
238.958	265
239.023	466
239.087	1117
239.152	1620
239.216	1134
239.281	748
239.346	865
239.410	1203
239.475	589
239.539	2577
239.604	1558
239.668	2105
239.733	4313
239.797	9870
239.862	14804
239.926	10724
239.991	4407
240.055	2785
240.120	1554
240.184	985
240.249	532
240.313	799
240.378	342
240.442	1321
240.507	1206
240.571	1310
240.635	640
240.700	940
240.764	633
240.829	600
240.893	-27
240.957	567
241.022	1401
241.086	1485
241.151	656
241.215	-235
241.279	157
241.344	546
241.408	87
241.472	202
241.537	200
241.601	801
241.665	-401
241.730	622
241.794	-441
241.858	506
241.922	-463
241.987	769
242.051	399
242.115	-307
242.179	813
242.244	-235
242.308	367
242.372	495
242.436	65
242.501	935
242.565	773
242.629	155
242.693	668
242.757	341
242.822	-606
242.886	1252
242.950	506
243.014	441
243.078	515
243.142	271
243.206	134
243.271	314
243.335	193
243.399	1595
243.463	5627
243.527	8877
243.591	996
243.655	1045
243.719	884
243.783	933
243.847	912
243.911	1613
243.975	1376
244.040	-369
244.104	647
244.168	-197
244.232	577
244.296	1323
244.360	655
244.424	248
244.488	153
244.552	810
244.615	-65
244.679	592
244.743	792
244.807	56
244.871	627
244.935	753
244.999	-815
245.063	-59
245.127	459
245.191	894
245.255	299
245.319	898
245.383	-395
245.446	1432
245.510	-474
245.574	1146
245.638	-40
245.702	425
245.766	2428
245.829	678
245.893	-156
245.957	302
246.021	343
246.085	554
246.149	960
246.212	2666
246.276	3433
246.340	1286
246.404	543
246.467	985
246.531	1012
246.595	1500
246.659	612
246.722	914
246.786	1035
246.850	1342
246.913	1422
246.977	542
247.041	60
247.104	572
247.168	688
247.232	2921
247.295	4811
247.359	2025
247.423	935
247.486	1191
247.550	552
247.614	972
247.677	287
247.741	969
247.804	995
247.868	1439
247.932	2200
247.995	4010
248.059	1101
248.122	373
248.186	741
248.249	2359
248.313	9806
248.376	7046
248.440	3750
248.503	865
248.567	1976
248.630	1968
248.694	2193
248.757	4778
248.821	8800
248.884	4205
248.948	4933
249.011	6640
249.075	10008
249.138	6800
249.202	2387
249.265	1653
249.328	2133
249.392	1270
249.455	934
249.519	1810
249.582	1791
249.645	3079
249.709	1867
249.772	1190
249.835	549
249.899	1490
249.962	1808
250.025	605
250.089	3762
250.152	3351
250.215	832
250.279	1007
250.342	857
250.405	1757
250.468	655
250.532	1484
250.595	2407
250.658	14512
250.721	13333
250.785	3474
250.848	2475
250.911	1714
250.974	1983
251.038	3204
251.101	4147
251.164	1146
251.227	2342
251.290	2260
251.354	3796
251.417	18191
251.480	9148
251.543	10480
251.606	30353
251.669	12758
251.732	5182
251.795	6986
251.859	7912
251.922	17856
251.985	5582
252.048	3052
252.111	2281
252.174	1932
252.237	5023
252.300	9176
252.363	13027
252.426	21052
252.489	5355
252.552	2646
252.615	1802
252.678	3624
252.741	7174
252.804	12532
252.867	21210
252.930	9337
252.993	4486
253.056	3925
253.119	1676
253.182	1150
253.245	2308
253.308	1951
253.371	1330
253.434	1321
253.497	2643
253.559	4941
253.622	1985
253.685	3500
253.748	1627
253.811	990
253.874	1969
253.937	1194
254.000	1246
254.062	4128
254.125	3374
254.188	4713
254.251	1498
254.314	736
254.376	2714
254.439	2850
254.502	1789
254.565	3221
254.628	3981
254.690	1722
254.753	876
254.816	584
254.878	1068
254.941	4110
255.004	2158
255.067	1594
255.129	1028
255.192	454
255.255	111
255.317	1638
255.380	1406
255.443	870
255.505	1212
255.568	262
255.631	1074
255.693	1963
255.756	457
255.819	2047
255.881	709
255.944	1150
256.006	-371
256.069	618
256.132	-279
256.194	616
256.257	1088
256.319	1465
256.382	2622
256.444	3325
256.507	2460
256.569	1163
256.632	951
256.694	1435
256.757	10290
256.819	19972
256.882	4936
256.944	2535
257.007	1392
257.069	1948
257.132	685
257.194	1622
257.257	398
257.319	1024
257.381	1030
257.444	7302
257.506	30041
257.569	17266
257.631	4948
257.693	3611
257.756	1324
257.818	2266
257.880	959
257.943	1378
258.005	720
258.067	638
258.130	1235
258.192	918
258.254	1343
258.317	602
258.379	878
258.441	3693
258.503	2560
258.566	2529
258.628	1686
258.690	778
258.753	732
258.815	2531
258.877	727
258.939	459
259.001	1192
259.064	1093
259.126	1088
259.188	1165
259.250	910
259.312	1485
259.375	1050
259.437	586
259.499	1097
259.561	755
259.623	1019
259.685	1230
259.747	1154
259.809	2871
259.872	3062
259.934	7836
259.996	4807
260.058	1407
260.120	823
260.182	1062
260.244	871
260.306	876
260.368	929
260.430	975
260.492	1661
260.554	2500
260.616	1143
260.678	4100
260.740	2503
260.802	875
260.864	878
260.926	350
260.988	903
261.050	1432
261.112	3667
261.174	6211
261.236	2652
261.298	1175
261.359	1772
261.421	2496
261.483	803
261.545	1958
261.607	1306
261.669	874
261.731	1273
261.793	3107
261.854	487
261.916	1396
261.978	1074
262.040	1080
262.102	943
262.164	999
262.225	1292
262.287	1410
262.349	2798
262.411	1575
262.472	987
262.534	1395
262.596	2194
262.658	1113
262.719	357
262.781	2215
262.843	1276
262.904	2295
262.966	1092
263.028	1400
263.090	6473
263.151	9824
263.213	2923
263.275	1778
263.336	2043
263.398	1712
263.459	139
263.521	1254
263.583	1604
263.644	1540
263.706	1045
263.767	500
263.829	1137
263.891	412
263.952	49
264.014	665
264.075	2408
264.137	3204
264.198	1305
264.260	477
264.321	923
264.383	3477
264.444	5538
264.506	2005
264.567	897
264.629	4302
264.690	5079
264.752	1716
264.813	1437
264.875	660
264.936	1390
264.998	1792
265.059	1591
265.120	1317
265.182	2461
265.243	12768
265.305	6201
265.366	2315
265.427	1704
265.489	1628
265.550	802
265.611	1930
265.673	643
265.734	1291
265.795	709
265.857	1567
265.918	1060
265.979	5859
266.040	21456
266.102	9562
266.163	2849
266.224	3232
266.286	1212
266.347	1154
266.408	1241
266.469	1750
266.530	997
266.592	1062
266.653	1650
266.714	1345
266.775	1512
266.836	518
266.898	869
266.959	1989
267.020	-177
267.081	1556
267.142	1635
267.203	1329
267.264	-83
267.326	1947
267.387	559
267.448	1089
267.509	1192
267.570	747
267.631	132
267.692	498
267.753	1179
267.814	279
267.875	2457
267.936	2200
267.997	1328
268.058	265
268.119	456
268.180	285
268.241	74
268.302	1834
268.363	187
268.424	758
268.485	784
268.546	405
268.607	-151
268.668	535
268.729	430
268.790	537
268.851	963
268.912	2239
268.972	1719
269.033	395
269.094	444
269.155	1084
269.216	511
269.277	568
269.338	227
269.398	203
269.459	6
269.520	1212
269.581	879
269.642	1011
269.702	30
269.763	587
269.824	544
269.885	1211
269.945	1939
270.006	1560
270.067	451
270.128	553
270.188	724
270.249	874
270.310	96
270.370	1157
270.431	591
270.492	424
270.553	828
270.613	1009
270.674	2467
270.734	1641
270.795	766
270.856	1996
270.916	180
270.977	1170
271.038	1292
271.098	1259
271.159	1639
271.219	890
271.280	1128
271.340	871
271.401	754
271.462	1313
271.522	1140
271.583	900
271.643	773
271.704	550
271.764	1125
271.825	2565
271.885	10579
271.946	8111
272.006	2895
272.066	7360
272.127	10319
272.187	9404
272.248	3547
272.308	3051
272.369	6552
272.429	2748
272.489	2839
272.550	1887
272.610	2779
272.671	2003
272.731	2634
272.791	2134
272.852	1847
272.912	2529
272.972	1164
273.033	935
273.093	1133
273.153	1971
273.214	1523
273.274	1527
273.334	6322
273.394	7090
273.455	2312
273.515	5248
273.575	5939
273.635	2647
273.696	5110
273.756	7170
273.816	1814
273.876	2344
273.936	3789
273.997	3081
274.057	1567
274.117	1086
274.177	3604
274.237	11900
274.297	5030
274.358	4461
274.418	6208
274.478	3888
274.538	1922
274.598	573
274.658	4213
274.718	3262
274.778	2119
274.838	1945
274.898	3157
274.958	5242
275.018	8648
275.078	3854
275.138	1841
275.198	1427
275.258	1531
275.318	1872
275.378	2445
275.438	2520
275.498	1419
275.558	4148
275.618	6970
275.678	5180
275.738	3842
275.798	2647
275.858	1495
275.918	784
275.978	1837
276.038	1977
276.098	1816
276.157	3147
276.217	5147
276.277	2420
276.337	1545
276.397	1984
276.457	1849
276.517	1416
276.576	1351
276.636	1266
276.696	1392
276.756	4372
276.815	1593
276.875	1986
276.935	1826
276.995	2514
277.055	2550
277.114	2426
277.174	1571
277.234	4047
277.293	1322
277.353	1993
277.413	994
277.472	1305
277.532	1192
277.592	2673
277.651	9810
277.711	9282
277.771	4955
277.830	15752
277.890	7335
277.950	11686
278.009	21986
278.069	6534
278.128	11241
278.188	10091
278.248	6076
278.307	15634
278.367	5988
278.426	2681
278.486	1631
278.545	1838
278.605	1428
278.664	1355
278.724	2711
278.783	5688
278.843	8473
278.902	2632
278.962	2373
279.021	2503
279.081	3018
279.140	3187
279.199	1375
279.259	2126
279.318	2266
279.378	3922
279.437	4785
279.496	16106
279.556	56968
279.615	26208
279.675	8397
279.734	5914
279.793	6725
279.853	7347
279.912	3445
279.971	2681
280.031	2603
280.090	4273
280.149	4440
280.208	9372
280.268	45119
280.327	24427
280.386	6248
280.445	6017
280.505	4148
280.564	3225
280.623	2281
280.682	3844
280.742	3081
280.801	1983
280.860	1962
280.919	1516
280.978	1359
281.037	1805
281.097	1525
281.156	1685
281.215	1089
281.274	2881
281.333	7280
281.392	3499
281.451	2155
281.510	2496
281.569	1516
281.628	1928
281.688	1138
281.747	2279
281.806	1863
281.865	910
281.924	710
281.983	2081
282.042	1648
282.101	1997
282.160	1446
282.219	1948
282.278	1644
282.337	3638
282.396	1673
282.454	1797
282.513	1622
282.572	4287
282.631	2273
282.690	1801
282.749	2026
282.808	2687
282.867	2429
282.926	1390
282.985	1736
283.043	1458
283.102	1273
283.161	2025
283.220	3831
283.279	5117
283.338	646
283.396	2354
283.455	1685
283.514	2119
283.573	2029
283.631	2007
283.690	2127
283.749	2152
283.808	2840
283.866	2513
283.925	2354
283.984	2846
284.043	1531
284.101	2471
284.160	1406
284.219	3057
284.277	2741
284.336	3310
284.395	7003
284.453	4320
284.512	2549
284.570	4247
284.629	3129
284.688	3476
284.746	3270
284.805	4312
284.863	5487
284.922	7091
284.981	8430
285.039	13342
285.098	24845
285.156	57547
285.215	73784
285.273	71953
285.332	41176
285.390	22224
285.449	14478
285.507	10369
285.566	7668
285.624	6183
285.683	4982
285.741	4042
285.799	3107
285.858	3685
285.916	2607
285.975	2824
286.033	2159
286.091	2762
286.150	1543
286.208	2496
286.267	2264
286.325	2052
286.383	3214
286.442	2432
286.500	1802
286.558	2613
286.616	1669
286.675	2073
286.733	2043
286.791	1860
286.850	2772
286.908	3512
286.966	2427
287.024	1383
287.083	1738
287.141	2154
287.199	2753
287.257	2528
287.315	2380
287.374	1850
287.432	3433
287.490	3088
287.548	2316
287.606	1774
287.664	1820
287.723	2207
287.781	1936
287.839	2780
287.897	1905
287.955	2542
288.013	2514
288.071	7354
288.129	32997
288.187	57882
288.245	17249
288.303	6116
288.361	4958
288.419	3706
288.477	3718
288.535	2479
288.593	2876
288.651	2134
288.709	1663
288.767	1655
288.825	2028
288.883	2368
288.941	1644
288.999	1444
289.057	1428
289.115	1273
289.173	1238
289.231	1999
289.289	1996
289.346	1818
289.404	1661
289.462	2083
289.520	2085
289.578	2428
289.636	1170
289.694	2064
289.751	1144
289.809	1892
289.867	1170
289.925	2025
289.983	1624
290.040	2508
290.098	2082
290.156	2192
290.214	1261
290.271	2089
290.329	2172
290.387	2340
290.444	1486
290.502	1690
290.560	1537
290.617	2103
290.675	1988
290.733	2066
290.790	1793
290.848	1932
290.906	2159
290.963	1712
291.021	1976
291.078	1265
291.136	2328
291.194	5716
291.251	5332
291.309	2693
291.366	1835
291.424	1601
291.481	1581
291.539	1650
291.596	1496
291.654	1852
291.711	1391
291.769	1991
291.826	2457
291.884	1676
291.941	1290
291.999	1688
292.056	2604
292.114	1287
292.171	2297
292.228	2918
292.286	2384
292.343	2511
292.401	2468
292.458	2615
292.515	1477
292.573	3000
292.630	1715
292.687	2256
292.745	1820
292.802	2332
292.859	5185
292.917	6338
292.974	3591
293.031	1604
293.089	2569
293.146	2376
293.203	1659
293.260	2270
293.318	3020
293.375	2376
293.432	1867
293.489	2145
293.546	2723
293.604	3063
293.661	6290
293.718	10954
293.775	4904
293.832	4177
293.889	2942
293.947	3152
294.004	1724
294.061	2310
294.118	4505
294.175	8495
294.232	9063
294.289	3704
294.346	3047
294.403	3010
294.460	2695
294.517	2748
294.574	2894
294.631	2508
294.688	2541
294.745	6360
294.802	15019
294.859	11721
294.916	4783
294.973	2246
295.030	1763
295.087	2228
295.144	1892
295.201	2839
295.258	2157
295.315	2347
295.372	7011
295.429	8170
295.486	3187
295.542	3780
295.599	9900
295.656	10208
295.713	7827
295.770	7072
295.827	4010
295.883	3448
295.940	2537
295.997	2829
296.054	2865
296.111	2129
296.167	2179
296.224	2366
296.281	1554
296.338	2048
296.394	1950
296.451	2641
296.508	5113
296.564	6944
296.621	6308
296.678	13056
296.734	11150
296.791	4908
296.848	3332
296.904	3500
296.961	6123
297.018	10703
297.074	6220
297.131	3626
297.187	2891
297.244	4880
297.301	13535
297.357	14719
297.414	5604
297.470	4152
297.527	2477
297.583	2290
297.640	3084
297.696	2776
297.753	1551
297.809	2401
297.866	1689
297.922	2234
297.979	2012
298.035	1805
298.092	2986
298.148	6359
298.204	4763
298.261	3006
298.317	6402
298.374	13314
298.430	6558
298.486	3489
298.543	3237
298.599	3857
298.656	2842
298.712	4846
298.768	6174
298.824	4427
298.881	2530
298.937	2750
298.993	2309
299.050	2778
299.106	2133
299.162	2814
299.218	2887
299.275	2465
299.331	3568
299.387	6640
299.443	17834
299.500	27377
299.556	15213
299.612	7922
299.668	9702
299.724	23712
299.780	19015
299.837	8504
299.893	9059
299.949	24482
300.005	24013
300.061	24638
300.117	28982
300.173	12259
300.229	6772
300.285	5695
300.341	5455
300.397	4334
300.453	4073
300.510	4025
300.566	5496
300.622	12896
300.678	36559
300.734	32160
300.790	17937
300.845	17003
300.901	23025
300.957	25342
301.013	11063
301.069	6653
301.125	4613
301.181	4000
301.237	3543
301.293	3066
301.349	2918
301.405	2753
301.461	2622
301.516	3028
301.572	2880
301.628	2917
301.684	3340
301.740	5321
301.796	5636
301.851	5506
301.907	6878
301.963	6847
302.019	14085
302.074	31697
302.130	23917
302.186	10354
302.242	5200
302.297	4021
302.353	3891
302.409	6390
302.464	4992
302.520	5866
302.576	11228
302.631	10427
302.687	5402
302.743	3695
302.798	3171
302.854	2864
302.910	2060
302.965	3138
303.021	3043
303.076	4169
303.132	3805
303.187	4156
303.243	2437
303.299	3126
303.354	2608
303.410	2898
303.465	2635
303.521	2495
303.576	2399
303.632	1939
303.687	5007
303.743	10640
303.798	7708
303.853	3732
303.909	2522
303.964	2944
304.020	3714
304.075	3137
304.130	3591
304.186	5464
304.241	4817
304.297	3656
304.352	3019
304.358	3018
304.407	3005
304.449	2759
304.463	2677
304.518	3024
304.539	2860
304.573	2604
304.629	2764
304.630	2800
304.684	4377
304.720	7714
304.739	9446
304.794	9856
304.811	8742
304.850	5846
304.902	3104
304.905	2934
304.960	3325
304.992	2951
305.015	2715
305.071	2712
305.083	2694
305.126	2530
305.173	2621
305.181	2654
305.236	1493
305.264	2396
305.292	3267
305.347	3369
305.354	3294
305.402	2858
305.445	2602
305.457	2532
305.512	3140
305.535	3037
305.567	2907
305.622	2972
305.626	3078
305.678	5221
305.716	9521
305.733	11227
305.788	10337
305.807	9662
305.843	8341
305.897	11279
305.898	11317
305.953	9351
305.988	6947
306.008	5458
306.063	3913
306.078	3387
306.118	2408
306.168	2944
306.173	2987
306.228	2548
306.259	2574
306.283	2652
306.338	2158
306.349	2204
306.393	2448
306.440	2610
306.448	2629
306.503	3229
306.530	3109
306.558	3261
306.613	5116
306.620	5396
306.668	7232
306.711	9571
306.723	9972
306.778	6796
306.801	5937
306.833	4636
306.888	3036
306.892	2982
306.943	3281
306.982	2685
306.997	2388
307.052	3258
307.072	3083
307.107	2832
307.162	3485
307.163	3484
307.217	3991
307.253	4756
307.272	4989
307.327	4463
307.343	4296
307.381	3813
307.434	3912
307.436	3977
307.491	6091
307.524	7761
307.546	8510
307.600	8503
307.614	7988
307.655	5309
307.704	4081
307.710	4124
307.765	3661
307.795	4313
307.819	5290
307.874	8048
307.885	8175
307.929	6945
307.975	6577
307.984	6798
308.038	8433
308.065	10397
308.093	16502
308.148	36206
308.156	40861
308.202	76925
308.246	92451
308.257	87427
308.312	44833
308.336	29811
308.366	21823
308.421	11864
308.426	11033
308.475	7931
308.517	6311
308.530	6115
308.585	5909
308.607	5716
308.639	5416
308.694	5206
308.697	5227
308.748	7262
308.787	9482
308.803	9777
308.857	7974
308.877	7693
308.912	7190
308.967	7016
308.967	7007
309.021	8975
309.058	11128
309.076	13560
309.130	22722
309.148	27231
309.185	51254
309.238	95007
309.239	95770
309.293	122147
309.328	123586
309.348	103500
309.402	47790
309.418	33696
309.457	23832
309.508	14133
309.511	13950
309.566	12217
309.598	11753
309.620	12945
309.674	16158
309.688	17109
309.729	17296
309.778	16047
309.783	15743
309.837	11618
309.868	9756
309.892	9695
309.946	9979
309.959	10308
310.001	13156
310.049	15363
310.055	14962
310.109	10297
310.139	7960
310.163	7058
310.218	5451
310.229	5167
310.272	4975
310.319	4648
310.326	4569
310.381	4010
310.409	3856
310.435	4008
310.489	4074
310.499	4110
310.543	3982
310.589	3780
310.598	3814
310.652	4045
310.679	4149
310.706	4202
310.760	4198
310.769	4202
310.814	4175
310.859	4042
310.868	4083
310.923	4415
310.948	4550
310.977	4514
311.031	4370
311.038	4348
311.085	4351
311.128	4278
311.139	4255
311.193	4181
311.218	4138
311.247	4159
311.301	4085
311.308	4089
311.356	4201
311.398	4142
311.410	4249
311.464	4723
311.488	4982
311.518	4786
311.572	4329
311.578	4280
311.626	4401
311.668	4402
311.680	4500
311.734	4899
311.758	5084
311.788	5074
311.842	5035
311.847	5018
311.896	5383
311.937	5733
311.950	5779
312.004	5888
312.027	5930
312.058	5528
312.112	4790
312.117	4706
312.165	4819
312.207	4901
312.297	5071
312.386	5659
312.476	4952
312.566	5046
312.656	4911
312.745	4470
312.835	4392
312.925	6336
313.015	5166
313.104	5662
313.194	5566
313.284	5729
313.374	6791
313.463	6357
313.553	6266
313.643	6162
313.732	7356
313.822	7713
313.912	7899
314.001	8770
314.091	8712
314.180	10094
314.270	9286
314.360	8315
314.449	8126
314.539	8421
314.628	8881
314.718	8168
314.808	9381
314.897	9413
314.987	10253
315.076	10614
315.166	10289
315.255	10817
315.345	9210
315.434	8751
315.524	8772
315.613	9705
315.703	10904
315.792	21731
315.881	75388
315.971	44738
316.060	12890
316.150	11351
316.239	10589
316.328	10229
316.418	9707
316.507	9551
316.597	11011
316.686	10454
316.775	11357
316.865	12906
316.954	8618
317.043	8993
317.133	8111
317.222	7276
317.311	6261
317.400	6306
317.490	6466
317.579	8979
317.668	8724
317.757	13581
317.847	30156
317.936	119492
318.025	58408
318.114	31677
318.203	22560
318.293	11171
318.382	14783
318.471	17754
318.560	17945
318.649	27883
318.738	13797
318.828	7907
318.917	6561
319.006	7128
319.095	10754
319.184	26328
319.273	19717
319.362	10079
319.451	6291
319.540	6074
319.629	6765
319.718	9391
319.807	8370
319.896	10948
319.985	33314
320.074	20097
320.163	8223
320.252	8295
320.341	9109
320.430	9902
320.519	8621
320.608	8660
320.697	9578
320.786	9682
320.875	12495
320.964	13857
321.053	14492
321.142	15701
321.230	18896
321.319	18825
321.408	25110
321.497	23377
321.586	18631
321.675	16764
321.764	17045
321.852	14655
321.941	16240
322.030	16417
322.119	15628
322.207	23413
322.296	25027
322.385	24937
322.474	27539
322.562	31953
322.651	26747
322.740	19033
322.829	17598
322.917	16583
323.006	14615
323.095	11514
323.183	12306
323.272	12777
323.361	12728
323.449	26697
323.538	15799
323.626	17618
323.715	17645
323.804	8794
323.892	16435
323.981	13890
324.069	8228
324.158	10897
324.246	14399
324.335	8193
324.424	7577
324.512	7246
324.601	7035
324.689	8202
324.778	9932
324.866	9478
324.954	6869
325.043	6802
325.131	6762
325.220	9978
325.308	10747
325.397	8767
325.485	7905
325.574	5934
325.662	6011
325.750	5993
325.839	5138
325.927	6429
326.015	5799
326.104	6628
326.192	6808
326.280	6085
326.369	6379
326.457	6231
326.545	7835
326.634	5803
326.722	6355
326.810	6113
326.898	6852
326.987	7226
327.075	8497
327.163	8959
327.251	7110
327.340	7819
327.428	10668
327.516	12327
327.604	8489
327.692	7342
327.781	6117
327.869	7580
327.957	6207
328.045	6238
328.133	5362
328.221	5404
328.309	5050
328.397	5827
328.485	6505
328.574	9262
328.662	16137
328.750	13330
328.838	7742
328.926	6795
329.014	5811
329.102	6655
329.190	8627
329.278	8594
329.366	6030
329.454	5815
329.542	5765
329.630	5482
329.718	5883
329.806	4783
329.893	6234
329.981	6285
330.069	5399
330.157	6167
330.245	5573
330.333	6041
330.421	5718
330.509	6334
330.597	8633
330.684	9267
330.772	6973
330.860	7720
330.948	8962
331.036	7303
331.123	5625
331.211	5977
331.299	6984
331.387	7604
331.475	11550
331.562	7580
331.650	5871
331.738	5764
331.825	6357
331.913	5908
332.001	6295
332.089	6735
332.176	7931
332.264	9958
332.352	11200
332.439	6887
332.527	6483
332.614	6585
332.702	7132
332.790	6567
332.877	7810
332.965	10792
333.052	8108
333.140	7095
333.228	10708
333.315	8203
333.403	6864
333.490	9072
333.578	9574
333.665	12292
333.753	11286
333.840	8917
333.928	9678
334.015	12442
334.103	17330
334.190	41117
334.278	30494
334.365	28952
334.452	32072
334.540	22073
334.627	21054
334.715	24894
334.802	34356
334.889	62122
334.977	94798
335.064	56549
335.151	29415
335.239	20111
335.326	18346
335.413	25022
335.501	41672
335.588	18628
335.675	18757
335.762	21729
335.850	30525
335.937	39246
336.024	61316
336.111	108061
336.199	108357
336.286	53280
336.373	29166
336.460	19163
336.547	16057
336.635	13346
336.722	12432
336.809	10734
336.896	11207
336.983	13325
337.070	27202
337.157	43915
337.245	25698
337.332	24029
337.419	11116
337.506	9882
337.593	9464
337.680	12061
337.767	29214
337.854	14211
337.941	12898
338.028	11826
338.115	8846
338.202	9034
338.289	10090
338.376	20250
338.463	12966
338.550	15618
338.637	23876
338.724	8645
338.811	11340
338.898	8243
338.984	6899
339.071	7908
339.158	6548
339.245	9403
339.332	9414
339.419	7812
339.506	9568
339.593	6235
339.679	6175
339.766	7035
339.853	7130
339.940	7708
340.027	6528
340.113	6630
340.200	6397
340.287	6612
340.374	6057
340.460	7220
340.547	6323
340.634	6821
340.720	9517
340.807	10105
340.894	6679
340.980	6938
341.067	7116
341.154	7040
341.240	6865
341.327	8782
341.414	6800
341.500	8187
341.587	7908
341.674	6437
341.760	6748
341.847	7893
341.933	6236
342.020	6284
342.106	6218
342.193	6230
342.279	6470
342.366	6759
342.452	7056
342.539	6262
342.625	6702
342.712	10880
342.798	7879
342.885	6977
342.971	5948
343.058	6473
343.144	5512
343.230	6156
343.317	6689
343.403	6398
343.490	6433
343.576	6665
343.662	5884
343.749	7085
343.835	6708
343.921	8120
344.008	17650
344.094	51420
344.180	19717
344.267	8229
344.353	12261
344.439	17822
344.525	8750
344.612	8430
344.698	7960
344.784	7383
344.870	5613
344.957	6332
345.043	6776
345.129	6334
345.215	7537
345.301	6370
345.387	6908
345.474	6728
345.560	6003
345.646	7030
345.732	5160
345.818	6010
345.904	6222
345.990	6708
346.076	6944
346.162	6769
346.249	7158
346.335	6253
346.421	6744
346.507	7875
346.593	19627
346.679	10769
346.765	8000
346.851	11130
346.937	11508
347.023	8013
347.108	6688
347.194	7064
347.280	6773
347.366	8831
347.452	17888
347.538	40318
347.624	24891
347.710	17427
347.796	8463
347.882	7924
347.967	7455
348.053	7943
348.139	7245
348.225	7389
348.311	6758
348.397	6845
348.482	6973
348.568	7715
348.654	10076
348.740	23471
348.825	36362
348.911	16361
348.997	13627
349.083	24440
349.168	10831
349.254	7491
349.340	6871
349.425	7857
349.511	7671
349.597	7419
349.682	8466
349.768	13363
349.854	11511
349.939	7892
350.025	6648
350.110	7134
350.196	6948
350.282	6898
350.367	6529
350.453	6779
350.538	7198
350.624	7350
350.709	7246
350.795	6647
350.880	6997
350.966	7606
351.051	6945
351.137	7056
351.222	6348
351.308	8168
351.393	11641
351.479	8326
351.564	6892
351.649	6764
351.735	7623
351.820	6684
351.906	6474
351.991	7691
352.076	8929
352.162	12182
352.247	7744
352.332	6609
352.418	7797
352.503	8317
352.588	11908
352.673	13835
352.759	7520
352.844	6744
352.929	6183
353.014	6689
353.100	6369
353.185	6359
353.270	6668
353.355	7488
353.441	6437
353.526	7317
353.611	7248
353.696	7532
353.781	7893
353.866	6082
353.952	5702
354.037	7010
354.122	8082
354.207	7846
354.292	6938
354.377	6251
354.462	6000
354.547	6002
354.632	6196
354.717	7046
354.802	7009
354.887	6035
354.972	6640
355.057	6076
355.142	6724
355.227	6885
355.312	6609
355.397	8259
355.482	10317
355.567	9115
355.652	7705
355.737	7920
355.822	12289
355.907	16063
355.991	7563
356.076	6888
356.161	6459
356.246	6855
356.331	6717
356.416	8224
356.501	20932
356.585	34054
356.670	10468
356.755	8181
356.840	8191
356.924	12799
357.009	49420
357.094	31921
357.179	9222
357.263	8315
357.348	8489
357.433	8068
357.517	8581
357.602	8749
357.687	7893
357.771	7572
357.856	14694
357.941	14379
358.025	12541
358.110	52554
358.195	40854
358.279	10427
358.364	8048
358.448	10273
358.533	20493
358.617	19867
358.702	17420
358.787	12875
358.871	8508
358.956	8526
359.040	7484
359.125	7773
359.209	7125
359.294	10756
359.378	18663
359.462	14834
359.547	8338
359.631	7813
359.716	6932
359.800	7500
359.885	8804
359.969	7594
360.053	6708
360.138	7686
360.222	7085
360.306	7229
360.391	7801
360.475	9989
360.559	15908
360.644	11978
360.728	11896
360.812	12504
360.896	37662
360.981	21935
361.065	13144
361.149	8574
361.233	8465
361.318	8333
361.402	8485
361.486	8794
361.570	8929
361.654	10116
361.739	11728
361.823	21912
361.907	46235
361.991	19172
362.075	15098
362.159	20933
362.243	30290
362.327	61824
362.411	114738
362.495	61251
362.580	26060
362.664	22692
362.748	24485
362.832	34167
362.916	60787
363.000	148046
363.084	263775
363.168	160695
363.252	52104
363.336	26325
363.420	20885
363.503	30853
363.587	47959
363.671	20019
363.755	16296
363.839	18162
363.923	19705
364.007	21966
364.091	29397
364.175	43300
364.258	100632
364.342	188013
364.426	337205
364.510	244644
364.594	83135
364.677	40021
364.761	42250
364.845	41943
364.929	17935
365.013	14732
365.096	13025
365.180	13310
365.264	14053
365.347	43929
365.431	32713
365.515	12668
365.598	8668
365.682	9605
365.766	10265
365.849	12940
365.933	9814
366.017	10575
366.100	11447
366.184	9724
366.267	9676
366.351	8884
366.435	8949
366.518	8538
366.602	8505
366.685	7788
366.769	9357
366.852	9686
366.936	12023
367.019	10075
367.103	8882
367.186	12882
367.270	9718
367.353	8529
367.436	10174
367.520	9938
367.603	9514
367.687	10108
367.770	10930
367.853	10716
367.937	12550
368.020	20266
368.104	11524
368.187	9165
368.270	9998
368.353	9520
368.437	9418
368.520	15031
368.603	13262
368.687	10661
368.770	21156
368.853	10872
368.936	9701
369.020	10875
369.103	8022
369.186	7621
369.269	7405
369.352	7946
369.436	8304
369.519	7880
369.602	6579
369.685	7724
369.768	7241
369.851	7798
369.934	6097
370.018	7689
370.101	7495
370.184	8936
370.267	8052
370.350	8433
370.433	9301
370.516	19041
370.599	54292
370.682	33832
370.765	14367
370.848	14745
370.931	23885
371.014	17228
371.097	8253
371.180	7058
371.263	6594
371.346	6629
371.429	7032
371.511	7194
371.594	7196
371.677	8501
371.760	11130
371.843	9186
371.926	15940
372.009	51519
372.091	25450
372.174	11612
372.257	25118
372.340	17959
372.423	11110
372.505	14687
372.588	9599
372.671	10015
372.754	20910
372.836	18761
372.919	12381
373.002	27111
373.085	14119
373.167	9750
373.250	10849
373.332	22710
373.415	26672
373.498	67599
373.580	38993
373.663	57266
373.746	106164
373.828	26723
373.911	12791
373.993	10838
374.076	21686
374.159	30293
374.241	12303
374.324	18773
374.406	19827
374.489	17163
374.571	52264
374.654	33392
374.736	14567
374.819	31833
374.901	44429
374.983	61133
375.066	21371
375.148	12745
375.231	19263
375.313	44180
375.395	25284
375.478	13818
375.560	11320
375.643	11724
375.725	13406
375.807	37570
375.890	42630
375.972	18968
376.054	12140
376.136	15825
376.219	11613
376.301	12366
376.383	33344
376.465	22843
376.548	10565
376.630	11245
376.712	25280
376.794	20892
376.877	7849
376.959	6806
377.041	6603
377.123	8483
377.205	11050
377.287	7233
377.369	7455
377.452	7726
377.534	7661
377.616	8016
377.698	7319
377.780	7154
377.862	7957
377.944	7943
378.026	7578
378.108	7614
378.190	7318
378.272	7178
378.354	6882
378.436	6513
378.518	7266
378.600	11709
378.682	11015
378.764	12078
378.846	14808
378.928	7800
379.010	8723
379.091	8810
379.173	7139
379.255	7052
379.337	7261
379.419	8813
379.501	18208
379.583	13789
379.664	7358
379.746	8406
379.828	13375
379.910	16547
379.991	18624
380.073	9210
380.155	7383
380.237	7039
380.318	7401
380.400	6553
380.482	6925
380.564	7834
380.645	7674
380.727	7327
380.809	7592
380.890	6446
380.972	6238
381.053	7035
381.135	6608
381.217	7818
381.298	12913
381.380	11268
381.461	8502
381.543	20752
381.624	38149
381.706	13963
381.787	8499
381.869	8353
381.951	11863
382.032	44523
382.113	44000
382.195	12264
382.276	9585
382.358	9759
382.439	23582
382.521	28612
382.602	49327
382.684	28882
382.765	28208
382.846	38627
382.928	62053
383.009	51018
383.090	26191
383.172	68850
383.253	153209
383.334	65067
383.416	42344
383.497	32649
383.578	17244
383.659	23676
383.741	58145
383.822	195734
383.903	149198
383.984	38613
384.066	43491
384.147	35907
384.228	17047
384.309	14629
384.390	15103
384.471	14330
384.553	12989
384.634	11978
384.715	12076
384.796	10010
384.877	10281
384.958	13601
385.039	20178
385.120	13076
385.201	10171
385.282	11142
385.363	12480
385.444	13776
385.525	13607
385.606	23268
385.687	28467
385.768	14920
385.849	14412
385.930	22467
386.011	49463
386.092	25918
386.173	14125
386.254	12859
386.335	12241
386.416	12293
386.496	14521
386.577	20217
386.658	15742
386.739	13089
386.820	13983
386.901	13621
386.981	14873
387.062	15866
387.143	17945
387.224	22475
387.304	29116
387.385	23130
387.466	21046
387.547	23479
387.627	23157
387.708	24108
387.789	32270
387.869	42136
387.950	26131
388.031	16922
388.111	14606
388.192	18642
388.273	20261
388.353	18582
388.434	12764
388.514	12266
388.595	24431
388.676	37757
388.756	21559
388.837	15913
388.917	15683
388.998	10402
389.078	9993
389.159	10457
389.239	9540
389.320	10085
389.400	10356
389.480	12134
389.561	18058
389.641	16203
389.722	10966
389.802	10358
389.883	12123
389.963	20315
390.043	20336
390.124	12672
390.204	10585
390.284	16515
390.365	16392
390.445	15465
390.525	26340
390.605	24432
390.686	14769
390.766	10749
390.846	10371
390.927	10626
391.007	10947
391.087	11226
391.167	10860
391.247	9774
391.328	12100
391.408	14081
391.488	15339
391.568	11590
391.648	12351
391.728	14021
391.808	15401
391.888	15097
391.969	16501
392.049	23633
392.129	20989
392.209	19984
392.289	27876
392.369	27708
392.449	27931
392.529	27217
392.609	27668
392.689	31911
392.769	40867
392.849	52549
392.929	54381
393.009	80715
393.089	108019
393.169	162023
393.248	324898
393.328	646630
393.408	754917
393.488	514244
393.568	238882
393.648	125102
393.728	79241
393.807	53754
393.887	43379
393.967	35729
394.047	29950
394.127	27177
394.206	26288
394.286	34995
394.366	121039
394.446	212914
394.525	71903
394.605	25711
394.685	20411
394.764	24414
394.844	39491
394.924	59252
395.003	29752
395.083	16475
395.163	15673
395.242	14808
395.322	14089
395.402	13769
395.481	15248
395.561	18430
395.640	47322
395.720	97552
395.799	81665
395.879	49248
395.958	27714
396.038	41403
396.117	154561
396.197	271778
396.276	106203
396.356	46440
396.435	44008
396.515	48491
396.594	66079
396.673	115989
396.753	268881
396.832	595506
396.912	616176
396.991	288424
397.070	116403
397.150	65264
397.229	48343
397.308	59709
397.388	136838
397.467	97060
397.546	33078
397.625	21608
397.705	20279
397.784	17098
397.863	16054
397.942	14676
398.022	14049
398.101	15313
398.180	30721
398.259	26566
398.338	14062
398.417	10797
398.497	11551
398.576	10495
398.655	10064
398.734	9617
398.813	9226
398.892	11238
398.971	28350
399.050	25966
399.129	9235
399.208	8901
399.287	7656
399.366	8168
399.445	7598
399.524	7972
399.603	6975
399.682	7517
399.761	9460
399.840	26399
399.919	35490
399.998	11151
400.077	6576
400.156	6278
400.235	8018
400.313	6343
400.392	5224
400.471	8488
400.550	12718
400.629	8804
400.708	6734
400.786	5916
400.865	8086
400.944	10453
401.023	8647
401.102	4905
401.180	5324
401.259	5526
401.338	5440
401.416	6065
401.495	5273
401.574	5594
401.652	5680
401.731	5471
401.810	5832
401.888	5180
401.967	4346
402.046	4607
402.124	5803
402.203	6132
402.281	5624
402.360	4528
402.438	8765
402.517	9392
402.596	4813
402.674	5533
402.753	5874
402.831	5451
402.910	5042
402.988	6113
403.066	6602
403.145	6925
403.223	5576
403.302	6432
403.380	7088
403.459	6778
403.537	6685
403.615	6546
403.694	6030
403.772	6119
403.850	5888
403.929	5148
404.007	5382
404.085	6211
404.164	5342
404.242	5436
404.320	7016
404.398	15826
404.477	20149
404.555	27260
404.633	38772
404.711	17981
404.789	14332
404.868	6875
404.946	4888
405.024	5142
405.102	4998
405.180	4106
405.258	4148
405.336	4374
405.415	3995
405.493	6098
405.571	5571
405.649	4390
405.727	4130
405.805	6519
405.883	6115
405.961	5884
406.039	7196
406.117	4712
406.195	4724
406.273	6124
406.351	20225
406.429	22368
406.507	7199
406.585	4889
406.663	4106
406.740	5118
406.818	4858
406.896	4008
406.974	3965
407.052	4388
407.130	10404
407.208	23228
407.285	10292
407.363	3631
407.441	4083
407.519	4610
407.596	4772
407.674	7330
407.752	31866
407.830	45607
407.907	13617
407.985	4376
408.063	4942
408.141	4476
408.218	4980
408.296	5488
408.373	5037
408.451	6181
408.529	6368
408.606	6452
408.684	6578
408.762	6278
408.839	7073
408.917	7149
408.994	8623
409.072	8277
409.149	10558
409.227	14960
409.304	24096
409.382	28271
409.459	29869
409.537	39007
409.614	39952
409.692	31892
409.769	27508
409.846	36247
409.924	50137
410.001	40696
410.079	30278
410.156	21327
410.233	17053
410.311	12795
410.388	11858
410.465	10696
410.543	10868
410.620	9859
410.697	9944
410.775	9936
410.852	9144
410.929	11181
411.006	11308
411.083	10619
411.161	9308
411.238	10017
411.315	9570
411.392	7949
411.469	8248
411.547	7019
411.624	6292
411.701	5962
411.778	6458
411.855	6762
411.932	6652
412.009	5639
412.086	5770
412.163	6279
412.240	5080
412.317	5449
412.394	5369
412.471	6592
412.548	4662
412.625	5087
412.702	5467
412.779	5645
412.856	6098
412.933	4531
413.010	4684
413.087	5427
413.164	6048
413.241	10379
413.318	6448
413.395	4880
413.471	3944
413.548	5216
413.625	4455
413.702	3379
413.779	4847
413.855	4305
413.932	4118
414.009	3293
414.086	3827
414.162	3980
414.239	4174
414.316	5782
414.393	10798
414.469	8301
414.546	3992
414.623	3718
414.699	3752
414.776	3903
414.853	3466
414.929	4249
415.006	3782
415.082	2908
415.159	4098
415.236	3222
415.312	3698
415.389	4133
415.465	3450
415.542	4132
415.618	2364
415.695	4014
415.771	2939
415.848	2700
415.924	2724
416.000	4357
416.077	4245
416.153	2773
416.230	2725
416.306	2998
416.383	3002
416.459	4117
416.535	2525
416.612	3027
416.688	3264
416.764	2926
416.841	3108
416.917	3162
416.993	3381
417.069	3373
417.146	3357
417.222	4488
417.298	3456
417.374	3500
417.451	3320
417.527	3354
417.603	3451
417.679	4132
417.755	3412
417.831	2261
417.908	3867
417.984	3339
418.060	2718
418.136	3248
418.212	3416
418.288	4069
418.364	3022
418.440	3185
418.516	3756
418.592	4074
418.668	4912
418.744	5171
418.820	5072
418.896	3755
418.972	3276
419.048	3723
419.124	4513
419.200	4512
419.276	4688
419.352	3620
419.428	3827
419.504	3982
419.579	4540
419.655	5047
419.731	4754
419.807	5673
419.883	6924
419.959	7345
420.034	6261
420.110	6423
420.186	9360
420.262	11434
420.337	7528
420.413	7669
420.489	7673
420.565	8713
420.640	8152
420.716	9367
420.792	8821
420.867	10752
420.943	10352
421.019	10883
421.094	11534
421.170	12244
421.245	12863
421.321	14842
421.397	15183
421.472	18925
421.548	33438
421.623	38267
421.699	25523
421.774	27133
421.850	28700
421.925	34395
422.001	40166
422.076	48565
422.152	58274
422.227	76137
422.302	99940
422.378	135710
422.453	194627
422.529	270896
422.604	305954
422.679	206068
422.755	225715
422.830	308166
422.905	257195
422.981	189606
423.056	138230
423.131	105184
423.207	78915
423.282	63678
423.357	52405
423.432	45117
423.508	38604
423.583	33304
423.658	30686
423.733	26739
423.808	23476
423.883	22495
423.959	23930
424.034	26656
424.109	26919
424.184	20680
424.259	16535
424.334	14811
424.409	12658
424.484	12754
424.559	11054
424.634	10519
424.709	9743
424.784	9647
424.859	9040
424.934	8248
425.009	9502
425.084	12408
425.159	9855
425.234	7847
425.309	6728
425.384	7009
425.459	10207
425.534	8145
425.609	6740
425.683	6056
425.758	5199
425.833	5910
425.908	5768
425.983	5596
426.058	10215
426.132	8819
426.207	5956
426.282	7083
426.357	6550
426.431	4717
426.506	4890
426.581	5495
426.655	4840
426.730	4690
426.805	4374
426.879	5025
426.954	4585
427.029	3966
427.103	6675
427.178	17499
427.253	16490
427.327	6471
427.402	4821
427.476	7360
427.551	7753
427.625	4919
427.700	4442
427.774	4657
427.849	4459
427.923	5370
427.998	5018
428.072	6057
428.147	10268
428.221	26273
428.296	118190
428.370	130600
428.444	29420
428.519	9751
428.593	9146
428.667	10634
428.742	10979
428.816	14980
428.890	53913
428.965	150618
429.039	73853
429.113	17626
429.188	9051
429.262	5760
429.336	4969
429.410	6810
429.485	7307
429.559	8736
429.633	8944
429.707	7988
429.781	12133
429.855	51541
429.930	141124
430.004	69770
430.078	35516
430.152	53089
430.226	137813
430.300	230698
430.374	88651
430.448	24066
430.522	13706
430.596	26759
430.670	32532
430.744	74275
430.818	158304
430.892	55085
430.966	10302
431.040	6375
431.114	4166
431.188	3863
431.262	3811
431.336	3211
431.410	4486
431.484	7113
431.557	8479
431.631	4613
431.705	7444
431.779	20125
431.853	101764
431.927	140210
432.000	34719
432.074	8519
432.148	4233
432.222	3432
432.295	2831
432.369	1867
432.443	2536
432.516	4729
432.590	17426
432.664	13643
432.737	2604
432.811	1563
432.885	877
432.958	2121
433.032	1230
433.106	1578
433.179	1739
433.253	1729
433.326	866
433.400	1534
433.473	1784
433.547	1672
433.620	1611
433.694	1813
433.767	2288
433.841	1257
433.914	2301
433.988	2378
434.061	1659
434.134	2576
434.208	2252
434.281	1321
434.355	1242
434.428	2323
434.501	1717
434.575	1415
434.648	1660
434.721	1275
434.795	1617
434.868	2009
434.941	1681
435.014	2195
435.088	2572
435.161	2878
435.234	3840
435.307	5553
435.381	6447
435.454	9178
435.527	15839
435.600	22088
435.673	20411
435.746	14885
435.819	11613
435.892	8748
435.966	7351
436.039	5581
436.112	4991
436.185	3633
436.258	3264
436.331	2454
436.404	2649
436.477	2723
436.550	2663
436.623	2428
436.696	1920
436.769	2419
436.842	2002
436.915	2565
436.987	1688
437.060	2352
437.133	1757
437.206	905
437.279	2252
437.352	1640
437.425	1150
437.498	1369
437.570	1785
437.643	2262
437.716	1320
437.789	1570
437.861	1698
437.934	2589
438.007	2313
438.080	1575
438.152	1864
438.225	2441
438.298	4656
438.370	25850
438.443	22933
438.516	5055
438.588	1760
438.661	2384
438.734	2037
438.806	2369
438.879	2873
438.951	2191
439.024	2316
439.096	1749
439.169	1604
439.241	2146
439.314	1650
439.386	2081
439.459	2585
439.531	2091
439.604	2680
439.676	2281
439.749	1964
439.821	1212
439.893	1494
439.966	2764
440.038	1725
440.110	2585
440.183	1725
440.255	1767
440.327	3081
440.400	2843
440.472	12216
440.544	17538
440.617	4932
440.689	3432
440.761	2522
440.833	3012
440.905	3492
440.978	2757
441.050	2278
441.122	2343
441.194	1406
441.266	2402
441.338	3146
441.411	3768
441.483	4968
441.555	9374
441.627	5802
441.699	3443
441.771	3686
441.843	3636
441.915	4065
441.987	4456
442.059	4484
442.131	4547
442.203	6174
442.275	7880
442.347	12513
442.419	20298
442.491	65185
442.563	217329
442.635	175769
442.706	48637
442.778	21668
442.850	12194
442.922	9272
442.994	8632
443.066	9687
443.137	11062
443.209	14233
443.281	20213
443.353	33739
443.425	84986
443.496	257011
443.568	379404
443.640	254121
443.711	82468
443.783	29409
443.855	16650
443.926	11577
443.998	9632
444.070	8458
444.141	7526
444.213	6996
444.285	6826
444.356	5910
444.428	7261
444.499	6328
444.571	6220
444.642	6012
444.714	5866
444.785	7478
444.857	8616
444.928	10274
445.000	11503
445.071	12029
445.143	16303
445.214	20126
445.285	31483
445.357	63004
445.428	165051
445.500	357296
445.571	360541
445.642	301505
445.714	150847
445.785	58063
445.856	25646
445.928	15887
445.999	12083
446.070	9927
446.141	8140
446.213	7380
446.284	6052
446.355	5653
446.426	5182
446.497	4415
446.569	4195
446.640	4612
446.711	4323
446.782	3674
446.853	2628
446.924	3870
446.995	3155
447.066	2320
447.138	3023
447.209	3515
447.280	1979
447.351	2501
447.422	1785
447.493	2387
447.564	1866
447.635	2752
447.706	1867
447.777	2308
447.847	2069
447.918	818
447.989	1490
448.060	2416
448.131	4180
448.202	4331
448.273	3072
448.344	2144
448.414	2104
448.485	1548
448.556	1731
448.627	2017
448.698	2285
448.768	1277
448.839	1615
448.910	2271
448.981	2836
449.051	1921
449.122	1435
449.193	1008
449.263	1022
449.334	817
449.405	1729
449.475	2054
449.546	2036
449.616	2516
449.687	4498
449.758	2284
449.828	2024
449.899	1431
449.969	1871
450.040	1771
450.110	1879
450.181	1452
450.251	1547
450.322	1857
450.392	1536
450.463	1027
450.533	2015
450.604	1551
450.674	1664
450.744	2355
450.815	3335
450.885	3539
450.955	3521
451.026	3745
451.096	3197
451.166	3208
451.237	4714
451.307	8067
451.377	7110
451.447	3900
451.518	2667
451.588	2730
451.658	2394
451.728	2458
451.799	4252
451.869	8147
451.939	4518
452.009	2789
452.079	2004
452.149	2114
452.219	3323
452.289	5295
452.360	8696
452.430	4642
452.500	3558
452.570	6159
452.640	12050
452.710	31510
452.780	57049
452.850	40579
452.920	21036
452.990	11497
453.060	6976
453.129	4795
453.199	4620
453.269	5990
453.339	17945
453.409	29946
453.479	17746
453.549	28226
453.619	32113
453.688	22241
453.758	6694
453.828	2168
453.898	2498
453.968	2208
454.037	2141
454.087	2036
454.107	1985
454.168	2445
454.177	2496
454.247	2188
454.249	2184
454.316	1675
454.330	1827
454.386	2398
454.411	2638
454.456	2907
454.492	4492
454.525	5856
454.574	4934
454.595	4553
454.655	2493
454.665	2149
454.734	3120
454.736	3136
454.804	2703
454.817	3172
454.873	4901
454.898	5975
454.943	7779
454.979	6185
455.013	4779
455.060	3322
455.082	2671
455.141	3255
455.152	3363
455.221	4300
455.222	4380
455.291	8140
455.303	8004
455.360	7331
455.384	8511
455.430	10039
455.465	10393
455.499	10812
455.546	8090
455.569	6708
455.627	6182
455.638	6119
455.707	3103
455.708	3122
455.777	3527
455.789	3301
455.846	2221
455.869	2392
455.916	2516
455.950	2888
455.985	3311
456.031	3006
456.054	2799
456.112	3017
456.124	3071
456.193	2948
456.193	2927
456.262	3002
456.274	3147
456.332	3876
456.355	3938
456.401	3790
456.436	3498
456.470	3308
456.516	3452
456.540	3481
456.597	3241
456.609	3166
456.678	3335
456.678	3314
456.747	4053
456.759	3965
456.817	3545
456.840	3541
456.886	3428
456.920	4039
456.955	4642
457.001	4325
457.024	4137
457.082	4980
457.093	5110
457.162	4965
457.163	4988
457.232	5348
457.243	5327
457.301	5072
457.324	5184
457.370	5354
457.405	5942
457.439	6729
457.485	7556
457.508	7969
457.566	8770
457.577	9137
457.646	12706
457.647	12791
457.715	25960
457.727	28780
457.784	56033
457.808	71577
457.853	91453
457.889	121439
457.922	123543
457.969	94524
457.991	98316
458.050	94649
458.060	97808
458.129	153762
458.130	156280
458.198	178337
458.211	173111
458.267	125906
458.292	89278
458.336	56896
458.372	45442
458.405	48243
458.453	62794
458.474	82723
458.533	150379
458.543	157457
458.611	249946
458.614	254020
458.680	205020
458.694	174487
458.749	101183
458.775	69867
458.818	39331
458.855	28087
458.887	21142
458.936	16612
458.955	15214
459.016	12214
459.024	11872
459.093	10408
459.097	10378
459.162	9623
459.177	9351
459.230	8243
459.257	8095
459.299	8203
459.338	7918
459.368	7676
459.418	7654
459.437	7530
459.499	7039
459.505	6981
459.574	7114
459.579	7096
459.643	7146
459.659	7107
459.711	6780
459.740	6963
459.780	7094
459.820	7128
459.849	7259
459.900	6815
459.917	6659
459.981	6899
459.986	6872
460.054	6623
460.061	6566
460.123	6377
460.141	6447
460.191	6717
460.222	6703
460.260	6724
460.302	7141
460.328	7275
460.382	7299
460.397	7410
460.462	7722
460.465	7838
460.534	11814
460.543	12113
460.602	27626
460.623	33849
460.671	59817
460.703	80344
460.739	73926
460.783	71015
460.808	62977
460.864	21533
460.876	18982
460.944	8421
460.945	8302
461.013	6801
461.024	6664
461.081	6394
461.104	6430
461.150	6608
461.184	6690
461.218	6857
461.264	6787
461.286	6453
461.345	6307
461.355	6371
461.423	6260
461.425	6260
461.491	6026
461.505	6052
461.559	6955
461.585	7235
461.628	8402
461.665	9695
461.696	10192
461.745	11736
461.764	11190
461.825	8511
461.832	8544
461.901	6976
461.905	6933
461.969	5740
461.985	5779
462.037	6627
462.065	6598
462.105	6453
462.145	6514
462.173	6766
462.225	7488
462.241	8042
462.305	10105
462.310	10012
462.378	9080
462.385	8828
462.446	8144
462.465	8059
462.514	7390
462.545	7028
462.582	6713
462.625	6303
462.650	6309
462.705	6532
462.718	6576
462.785	6470
462.786	6476
462.854	6899
462.865	6947
462.922	7420
462.945	7784
462.990	7645
463.025	7183
463.058	7017
463.104	6818
463.126	6856
463.184	7045
463.194	7011
463.262	6469
463.264	6465
463.330	6499
463.344	6427
463.398	7066
463.424	7369
463.466	6919
463.504	6578
463.533	6664
463.583	6706
463.601	6817
463.663	7358
463.669	7374
463.737	7128
463.743	7140
463.805	8305
463.823	8606
463.873	10271
463.903	11278
463.940	11428
463.982	11857
464.008	11119
464.062	9069
464.076	8787
464.142	7190
464.144	7201
464.211	7156
464.221	7229
464.279	7004
464.301	6825
464.347	7096
464.381	7450
464.414	7793
464.461	8143
464.482	8037
464.540	7698
464.550	7620
464.617	7163
464.620	7131
464.685	7452
464.699	7497
464.753	7801
464.779	8003
464.820	8310
464.859	8643
464.888	8598
464.938	8492
464.956	8558
465.018	8583
465.023	8515
465.091	7532
465.098	7419
465.158	7798
465.177	7940
465.226	8098
465.257	8144
465.293	8125
465.336	8019
465.361	8143
465.416	8525
465.428	8694
465.495	9432
465.496	9458
465.563	11457
465.575	11799
465.631	13847
465.654	14823
465.698	12220
465.734	9776
465.765	9343
465.813	8616
465.833	8565
465.893	8414
465.900	8400
465.968	8291
465.972	8265
466.035	8020
466.052	7963
466.102	7844
466.131	7759
466.170	7951
466.210	8104
466.237	8169
466.290	8231
466.304	8311
466.369	8576
466.372	8609
466.439	9233
466.449	9292
466.506	8761
466.528	8557
466.573	9151
466.607	9574
466.641	11278
466.687	13569
466.708	15011
466.766	18998
466.775	18151
466.842	11652
466.845	11318
466.909	10067
466.925	9761
466.977	9020
467.004	8655
467.044	9492
467.083	10307
467.111	10553
467.163	10947
467.178	10935
467.242	10790
467.245	10845
467.312	11631
467.321	11716
467.379	11764
467.400	11746
467.446	11495
467.480	11276
467.559	11363
467.638	10701
467.717	11895
467.796	12173
467.875	14049
467.955	13457
468.034	15606
468.113	23768
468.192	33276
468.271	29001
468.350	36340
468.429	48712
468.508	53422
468.588	37447
468.667	23749
468.746	18610
468.825	15782
468.904	13839
468.983	13465
469.062	13358
469.141	15334
469.220	11355
469.299	11086
469.378	11700
469.456	11675
469.535	11100
469.614	10512
469.693	11308
469.772	11377
469.851	13071
469.930	11909
470.009	10135
470.088	11112
470.166	11308
470.245	12793
470.324	13151
470.403	13299
470.482	12130
470.560	10795
470.639	10736
470.718	10815
470.797	10600
470.875	9857
470.954	11684
471.033	12386
471.111	9882
471.190	9754
471.269	9846
471.347	9940
471.426	9029
471.505	10679
471.583	10791
471.662	11051
471.740	9566
471.819	10227
471.898	10071
471.976	10632
472.055	10255
472.133	11623
472.212	12993
472.290	11392
472.369	9997
472.447	9353
472.526	9809
472.604	11539
472.683	10275
472.761	10438
472.839	10181
472.918	10336
472.996	10432
473.075	11088
473.153	11291
473.231	10885
473.310	11463
473.388	12186
473.466	10827
473.545	11802
473.623	11970
473.701	11864
473.780	11672
473.858	11288
473.936	11491
474.014	10953
474.093	12098
474.171	14768
474.249	14079
474.327	12124
474.405	10008
474.484	11683
474.562	10708
474.640	10843
474.718	10756
474.796	11219
474.874	10411
474.952	9841
475.030	9301
475.108	10543
475.187	10010
475.265	9615
475.343	9644
475.421	11057
475.499	10098
475.577	10504
475.655	11089
475.733	12761
475.811	16932
475.889	16729
475.966	14148
476.044	10224
476.122	9368
476.200	9660
476.278	10046
476.356	10401
476.434	9337
476.512	10771
476.590	10186
476.667	10477
476.745	9580
476.823	9656
476.901	9835
476.979	10464
477.056	9683
477.134	11097
477.212	9587
477.290	9650
477.367	9696
477.445	10099
477.523	9596
477.601	9546
477.678	9333
477.756	10428
477.834	10405
477.911	9338
477.989	10532
478.066	9939
478.144	10223
478.222	10703
478.299	10279
478.377	12038
478.454	11533
478.532	9968
478.609	9430
478.687	10530
478.764	9445
478.842	9542
478.919	9981
478.997	9319
479.074	9537
479.152	9824
479.229	11094
479.307	9966
479.384	9262
479.461	9376
479.539	9517
479.616	10733
479.694	9766
479.771	9648
479.848	9707
479.926	10217
480.003	11678
480.080	10227
480.157	9602
480.235	10769
480.312	9260
480.389	10967
480.467	11563
480.544	12844
480.621	12475
480.698	13466
480.775	12775
480.853	12899
480.930	11641
481.007	11657
481.084	13176
481.161	18184
481.238	14815
481.315	11143
481.392	10848
481.470	11523
481.547	12492
481.624	11081
481.701	12450
481.778	12614
481.855	12503
481.932	14677
482.009	17165
482.086	17397
482.163	17432
482.240	18974
482.317	19638
482.393	17119
482.470	17023
482.547	16860
482.624	15171
482.701	14018
482.778	14541
482.855	13887
482.932	14746
483.009	15123
483.085	18978
483.162	21968
483.239	23151
483.316	20645
483.393	20273
483.469	18646
483.546	16242
483.623	15307
483.699	13153
483.776	13350
483.853	12683
483.930	13489
484.006	17687
484.083	25665
484.160	19427
484.236	20986
484.313	20486
484.389	19237
484.466	20563
484.543	25212
484.619	29258
484.696	32034
484.772	25355
484.849	19810
484.925	17100
485.002	16587
485.078	15727
485.155	14891
485.231	13751
485.308	14388
485.384	13979
485.461	15380
485.537	17516
485.614	19810
485.690	13593
485.766	13558
485.843	12510
485.919	13707
485.995	14351
486.072	12848
486.148	12335
486.224	12868
486.301	13559
486.377	13607
486.453	13867
486.530	13064
486.606	15628
486.682	17298
486.758	17147
486.835	20783
486.911	17688
486.987	21841
487.063	21416
487.139	24043
487.215	27264
487.292	26795
487.368	28163
487.444	37022
487.520	51018
487.596	82516
487.672	158397
487.748	472354
487.824	930056
487.900	448981
487.976	120619
488.052	60120
488.128	40457
488.204	30019
488.280	24021
488.356	21431
488.432	23929
488.508	29567
488.584	18992
488.660	16020
488.736	15139
488.812	13627
488.888	14719
488.964	15127
489.039	17792
489.115	22134
489.191	19709
489.267	14111
489.343	13283
489.418	11872
489.494	11574
489.570	12274
489.646	12719
489.722	11998
489.797	12896
489.873	15036
489.949	19841
490.024	20426
490.100	14000
490.176	12738
490.251	12765
490.327	13547
490.403	12414
490.478	12215
490.554	10973
490.629	12478
490.705	12123
490.781	12691
490.856	11240
490.932	12023
491.007	11745
491.083	12157
491.158	11005
491.234	11177
491.309	15799
491.385	17164
491.460	10768
491.536	11003
491.611	9971
491.686	10780
491.762	11032
491.837	11819
491.913	15197
491.988	17973
492.063	20874
492.139	14476
492.214	11734
492.289	9920
492.365	9506
492.440	10088
492.515	9234
492.590	9670
492.666	9038
492.741	10643
492.816	12284
492.891	11858
492.967	9760
493.042	9815
493.117	9439
493.192	10546
493.267	11395
493.342	20098
493.418	29201
493.493	12652
493.568	9561
493.643	9435
493.718	8565
493.793	10795
493.868	11001
493.943	9650
494.018	8520
494.093	8874
494.168	7824
494.243	9058
494.318	8320
494.393	9253
494.468	7816
494.543	9636
494.618	8571
494.693	8777
494.768	9231
494.842	9572
494.917	8622
494.992	8335
495.067	8459
495.142	9137
495.217	8619
495.292	8040
495.366	7893
495.441	9964
495.516	9714
495.591	10677
495.665	14817
495.740	29405
495.815	20022
495.890	10052
495.964	8390
496.039	10401
496.114	10148
496.188	14350
496.263	14210
496.338	9603
496.412	8727
496.487	9773
496.561	9421
496.636	9570
496.710	9593
496.785	10827
496.860	9974
496.934	8589
497.009	8340
497.083	8707
497.158	9046
497.232	9376
497.307	9253
497.381	8993
497.455	8381
497.530	10849
497.604	9595
497.679	10575
497.753	10668
497.827	12782
497.902	11251
497.976	12163
498.050	20319
498.125	76395
498.199	110846
498.273	18789
498.348	10598
498.422	10280
498.496	9922
498.570	9968
498.645	8739
498.719	9937
498.793	10199
498.867	13042
498.941	15890
499.016	29869
499.090	97663
499.164	55290
499.238	10804
499.312	9894
499.386	10037
499.460	10829
499.534	10126
499.609	11111
499.683	12843
499.757	13546
499.831	16747
499.905	53884
499.979	74613
500.053	16460
500.127	13591
500.201	10794
500.275	10357
500.349	9857
500.422	10011
500.496	11591
500.570	14197
500.644	29866
500.718	68513
500.792	27950
500.866	11081
500.940	11947
501.013	11839
501.087	11021
501.161	12256
501.235	14130
501.309	20656
501.382	49804
501.456	61692
501.530	17035
501.603	21799
501.677	15341
501.751	9473
501.825	11767
501.898	11649
501.972	24916
502.046	22031
502.119	10988
502.193	12656
502.266	25861
502.340	19812
502.413	14699
502.487	24969
502.561	19142
502.634	11503
502.708	10006
502.781	9525
502.855	10127
502.928	8597
503.002	9108
503.075	9240
503.149	9181
503.222	9463
503.295	10437
503.369	11790
503.442	13036
503.516	21060
503.589	44665
503.662	40844
503.736	25827
503.809	38600
503.882	49798
503.956	69508
504.029	120253
504.102	268650
504.175	492890
504.249	256114
504.322	90965
504.395	47849
504.468	30690
504.542	21571
504.615	18185
504.688	14481
504.761	12784
504.834	12057
504.907	11985
504.980	11343
505.053	10281
505.127	9509
505.200	10923
505.273	10336
505.346	9383
505.419	8983
505.492	8690
505.565	8537
505.638	8021
505.711	7746
505.784	8140
505.857	7089
505.930	7325
506.003	6547
506.076	8518
506.149	7398
506.221	9104
506.294	8621
506.367	9815
506.440	27308
506.513	23566
506.586	8407
506.659	7218
506.731	7238
506.804	7408
506.877	6545
506.950	7950
507.022	5740
507.095	6930
507.168	8152
507.241	7474
507.313	6430
507.386	6779
507.459	7670
507.531	7959
507.604	7035
507.677	6687
507.749	5737
507.822	7343
507.894	7789
507.967	9669
508.040	7088
508.112	7763
508.185	7332
508.257	6802
508.330	8596
508.402	7533
508.475	7351
508.547	7538
508.620	7516
508.692	8619
508.765	7602
508.837	7252
508.909	6918
508.982	7051
509.054	6212
509.127	8005
509.199	6584
509.271	7041
509.344	6080
509.416	7334
509.488	6738
509.560	7162
509.633	6005
509.705	6884
509.777	7427
509.849	7394
509.922	6179
509.994	7723
510.066	7123
510.138	6736
510.210	8781
510.283	8876
510.355	7744
510.427	7248
510.499	6961
510.571	7021
510.643	7120
510.715	7757
510.787	7275
510.859	7457
510.931	7425
511.003	8146
511.076	8363
511.148	7568
511.219	7055
511.291	9326
511.363	9271
511.435	7651
511.507	5581
511.579	7292
511.651	7187
511.723	6923
511.795	7172
511.867	7425
511.939	6976
512.010	8711
512.082	9453
512.154	7397
512.226	7180
512.298	8472
512.369	8962
512.441	8385
512.513	7458
512.585	8393
512.656	7744
512.728	7999
512.800	7845
512.871	7539
512.943	7097
513.015	7430
513.086	6379
513.158	6999
513.230	6784
513.301	7794
513.373	7948
513.444	7576
513.516	7355
513.588	7747
513.659	6922
513.731	6729
513.802	6539
513.874	9073
513.945	9815
514.016	8167
514.088	7038
514.159	7357
514.231	7875
514.302	8655
514.374	8360
514.445	7241
514.516	10380
514.588	9743
514.659	7564
514.730	9090
514.802	8610
514.873	7303
514.944	7747
515.016	7824
515.087	6851
515.158	8641
515.229	10194
515.301	7388
515.372	7590
515.443	7149
515.514	7146
515.585	7202
515.656	8567
515.728	8194
515.799	7388
515.870	8099
515.941	7617
516.012	7748
516.083	7741
516.154	9561
516.225	9677
516.296	10024
516.367	8905
516.438	9781
516.509	10965
516.580	13302
516.651	22366
516.722	77694
516.793	57512
516.864	14299
516.935	13819
517.006	14685
517.077	17192
517.148	28168
517.219	80974
517.289	205782
517.360	63002
517.431	26992
517.502	11239
517.573	11762
517.643	10524
517.714	11766
517.785	12231
517.856	13143
517.926	14508
517.997	16998
518.068	18859
518.138	23783
518.209	30261
518.280	66585
518.350	266620
518.421	191759
518.492	48085
518.562	49623
518.633	70077
518.703	105675
518.774	203941
518.845	498652
518.915	619574
518.986	219136
519.056	84357
519.127	50592
519.197	38860
519.268	44923
519.338	43029
519.408	19393
519.479	17448
519.549	14243
519.620	13050
519.690	12073
519.760	11143
519.831	11514
519.901	10313
519.971	10582
520.042	9416
520.112	10089
520.182	9922
520.253	9558
520.323	9250
520.393	9351
520.463	12499
520.534	8537
520.604	13535
520.674	11088
520.744	9702
520.814	12406
520.885	14635
520.955	13069
521.025	35699
521.095	27044
521.165	9719
521.235	8521
521.305	8420
521.375	8720
521.445	7934
521.515	8755
521.585	8596
521.655	9122
521.725	8452
521.795	8944
521.865	8227
521.935	9141
522.005	9433
522.075	8577
522.145	8302
522.215	8389
522.285	10167
522.355	10877
522.424	13177
522.494	15025
522.564	10077
522.634	10349
522.704	16726
522.774	13204
522.843	8954
522.913	9159
522.983	9065
523.053	7985
523.122	9332
523.192	8612
523.262	10781
523.331	13784
523.401	8859
523.471	9119
523.540	8969
523.610	8500
523.680	9561
523.749	9586
523.819	10338
523.888	11023
523.958	9244
524.027	9276
524.097	8692
524.166	9086
524.236	8889
524.305	10169
524.375	9113
524.444	8513
524.514	10747
524.583	10277
524.653	10105
524.722	11393
524.791	10242
524.861	11216
524.930	10561
524.999	10470
525.069	11371
525.138	11721
525.207	12526
525.277	12541
525.346	12930
525.415	13588
525.484	14362
525.554	18152
525.623	20929
525.692	25288
525.761	31971
525.830	39761
525.900	55535
525.969	86850
526.038	176246
526.107	288906
526.176	884892
526.245	957672
526.314	298803
526.383	406373
526.452	757454
526.522	729520
526.591	1013047
526.660	221118
526.729	100480
526.797	104338
526.867	138689
526.935	306998
527.004	1017315
527.073	1081380
527.142	196831
527.211	70214
527.280	42261
527.349	30382
527.418	23573
527.487	19879
527.555	16993
527.624	15503
527.693	14228
527.762	14576
527.831	12897
527.899	12763
527.968	11842
528.037	10545
528.106	11366
528.174	12352
528.243	12006
528.312	11625
528.380	12685
528.449	10544
528.518	10691
528.586	9227
528.655	9623
528.723	9441
528.792	9505
528.861	10551
528.929	8625
528.998	10496
529.066	9527
529.135	12964
529.203	12901
529.272	13859
529.340	16858
529.409	17045
529.477	14054
529.545	13980
529.614	16741
529.682	17764
529.751	19295
529.819	20861
529.887	21099
529.956	20704
530.024	19162
530.092	18348
530.161	17873
530.229	18878
530.297	19254
530.365	19810
530.434	19088
530.502	21185
530.570	19082
530.638	16389
530.707	16697
530.775	17642
530.843	15856
530.911	18794
530.979	17455
531.047	19016
531.115	19188
531.183	18104
531.252	17055
531.320	17264
531.388	16347
531.456	18591
531.524	18953
531.592	19945
531.660	22451
531.728	21182
531.796	19412
531.864	18515
531.932	19522
532.000	18801
532.067	20104
532.135	21565
532.203	21280
532.271	24202
532.339	24475
532.407	26021
532.475	25089
532.542	23186
532.610	23210
532.678	22703
532.746	28859
532.814	45366
532.881	32131
532.949	24326
533.017	22393
533.084	22908
533.152	20626
533.220	21089
533.287	20811
533.355	21594
533.423	21850
533.490	22745
533.558	21831
533.625	21891
533.693	20717
533.761	20682
533.828	20722
533.896	20773
533.963	22415
534.031	24533
534.098	26285
534.166	30088
534.233	26775
534.300	28238
534.368	28528
534.435	27483
534.503	29769
534.570	33529
534.637	38582
534.705	46150
534.772	57299
534.840	89030
534.907	300671
534.974	630216
535.041	120905
535.109	41949
535.176	29802
535.243	27407
535.310	25949
535.378	25410
535.445	24687
535.512	24663
535.579	23252
535.646	23327
535.714	22886
535.781	25155
535.848	25388
535.915	24284
535.982	23581
536.049	23699
536.116	23721
536.183	23395
536.250	21444
536.317	22544
536.384	23939
536.451	23637
536.518	24703
536.585	22890
536.652	24224
536.719	25188
536.786	22734
536.853	21782
536.920	22762
536.987	25014
537.053	23524
537.120	28526
537.187	34057
537.254	25017
537.321	24249
537.388	25550
537.454	22986
537.521	22571
537.588	22563
537.654	23616
537.721	24333
537.788	25999
537.855	22868
537.921	23617
537.988	22431
538.055	23015
538.121	20813
538.188	20997
538.254	20164
538.321	21956
538.388	23256
538.454	24310
538.521	25316
538.587	25218
538.654	24039
538.720	22957
538.787	23373
538.853	23893
538.920	22855
538.986	21654
539.053	20361
539.119	20820
539.185	21450
539.252	23146
539.318	23382
539.385	25684
539.451	24444
539.517	23825
539.583	22914
539.650	24172
539.716	29791
539.782	23741
539.849	21071
539.915	22068
539.981	21676
540.047	22786
540.114	21561
540.180	22519
540.246	23159
540.312	24140
540.378	25018
540.444	25855
540.510	23806
540.576	31509
540.643	25604
540.709	22165
540.775	21424
540.841	21826
540.907	21608
540.973	23585
541.039	22748
541.105	23380
541.171	22344
541.237	24857
541.303	24507
541.369	24971
541.435	24173
541.500	24431
541.566	22193
541.632	21341
541.698	20001
541.764	23311
541.830	22497
541.896	21886
541.961	21258
542.027	22009
542.093	23443
542.159	24783
542.224	22027
542.290	23206
542.356	23251
542.421	23589
542.487	22066
542.553	20272
542.618	21527
542.684	22635
542.750	21481
542.815	22891
542.881	23334
542.947	28166
543.012	29856
543.078	22096
543.143	21234
543.209	22156
543.274	20912
543.340	22107
543.405	22447
543.471	26350
543.536	23455
543.602	23651
543.667	21812
543.732	23535
543.798	22226
543.863	22974
543.928	22828
543.994	22257
544.059	22034
544.124	24087
544.190	23725
544.255	25128
544.320	23893
544.386	24351
544.451	25051
544.516	25892
544.581	24710
544.646	26874
544.712	33256
544.777	27475
544.842	25989
544.907	25804
544.972	25910
545.037	26668
545.102	27576
545.168	27820
545.233	28799
545.298	29176
545.363	28681
545.428	30095
545.493	31242
545.558	33171
545.623	31252
545.688	30018
545.753	31034
545.818	32210
545.883	34387
545.947	34807
546.012	36191
546.077	36901
546.142	38448
546.207	40005
546.272	41053
546.337	44088
546.401	43273
546.466	46813
546.531	46982
546.596	50438
546.661	53331
546.725	54924
546.790	57483
546.855	62774
546.919	69082
546.984	76364
547.049	81729
547.113	93326
547.178	103079
547.243	116530
547.307	132009
547.372	150209
547.436	154219
547.501	158594
547.565	170161
547.630	163950
547.695	151812
547.759	153790
547.823	154904
547.888	158560
547.952	161772
548.017	167557
548.081	173206
548.146	173312
548.210	173043
548.274	186337
548.339	189300
548.403	171151
548.468	160249
548.532	157872
548.596	159847
548.660	161747
548.725	171639
548.789	188256
548.853	188981
548.917	177509
548.982	172222
549.046	159483
549.110	145688
549.174	142387
549.238	162740
549.303	183742
549.367	189674
549.431	185049
549.495	172576
549.559	171288
549.623	185862
549.687	216529
549.751	206760
549.815	237094
549.879	256954
549.943	245094
550.007	250022
550.071	253832
550.135	234709
550.199	215777
550.263	215892
550.327	203476
550.391	204532
550.455	224432
550.519	239735
550.582	250825
550.646	277679
550.710	293506
550.774	288485
550.838	291315
550.901	299920
550.965	316520
551.029	334117
551.093	355695
551.156	385932
551.220	431088
551.284	482225
551.347	407948
551.411	333120
551.475	315546
551.538	311213
551.602	302741
551.666	277986
551.729	266515
551.793	255109
551.856	252088
551.920	246519
551.983	245753
552.047	244023
552.110	243781
552.174	245616
552.237	252934
552.301	240584
552.364	226217
552.428	221928
552.491	223591
552.554	231584
552.618	227025
552.681	233076
552.745	226556
552.808	228468
552.871	241683
552.934	238917
552.998	231647
553.061	225114
553.124	221280
553.187	215442
553.251	223708
553.314	224708
553.377	224634
553.440	235569
553.503	250108
553.567	263305
553.630	246403
553.693	239729
553.756	241137
553.819	238268
553.882	231771
553.945	229727
554.008	231937
554.071	231625
554.134	237730
554.197	225771
554.260	217819
554.323	219553
554.386	223175
554.449	228873
554.512	235085
554.575	224647
554.638	220500
554.701	221464
554.764	221254
554.827	211611
554.889	205720
554.952	195809
555.015	188126
555.078	192633
555.141	195730
555.203	192521
555.266	191942
555.329	189884
555.391	184887
555.454	181216
555.517	176835
555.580	170828
555.642	163558
555.705	161297
555.768	159608
555.830	156898
555.893	149442
555.955	143812
556.018	141475
556.080	140303
556.143	145621
556.206	145069
556.268	140594
556.330	136563
556.393	133767
556.455	129125
556.518	129061
556.580	125751
556.643	119667
556.705	116134
556.767	114160
556.830	114158
556.892	112047
556.955	110945
557.017	107478
557.079	106528
557.142	102366
557.204	102208
557.266	103139
557.328	97752
557.391	89805
557.453	88647
557.515	87517
557.577	87414
557.639	89601
557.701	88468
557.764	90032
557.826	90017
557.888	95048
557.950	101730
558.012	109470
558.074	131913
558.136	210865
558.198	573421
558.260	370611
558.322	112047
558.384	100160
558.446	103447
558.508	111491
558.570	128346
558.632	151581
558.694	191614
558.756	277351
558.818	553182
558.880	1317219
558.942	911727
559.003	631782
559.065	485665
559.127	161010
559.189	138882
559.251	148302
559.312	190564
559.374	327987
559.436	912309
559.498	865591
559.559	219615
559.621	145882
559.683	153564
559.744	205143
559.806	454832
559.868	964540
559.929	386644
559.991	164414
560.052	200409
560.114	501951
560.176	535733
560.237	283255
560.299	586728
560.360	238608
560.422	68124
560.483	55067
560.545	47888
560.606	46497
560.667	42978
560.729	41089
560.790	40381
560.852	38935
560.913	36474
560.974	36145
561.036	34103
561.097	36298
561.158	34792
561.220	34736
561.281	33005
561.342	32680
561.403	32485
561.465	31865
561.526	32429
561.587	35068
561.648	30243
561.709	30755
561.771	28471
561.832	29147
561.893	28314
561.954	28849
562.015	27423
562.076	27199
562.137	28010
562.198	27739
562.259	26549
562.320	26300
562.381	27332
562.442	27558
562.503	27267
562.564	26753
562.625	24699
562.686	24384
562.747	24249
562.808	25166
562.869	24487
562.930	26215
562.991	25206
563.051	23214
563.112	24987
563.173	24366
563.234	22979
563.294	22228
563.355	22066
563.416	23761
563.477	22317
563.537	22784
563.598	22016
563.659	22466
563.720	21665
563.780	22089
563.841	20909
563.901	22653
563.962	22213
564.023	21595
564.083	22616
564.144	21787
564.204	21005
564.265	21622
564.325	21166
564.386	22887
564.446	22696
564.507	21382
564.567	20577
564.628	21159
564.688	20186
564.749	19766
564.809	20731
564.869	21146
564.930	20775
564.990	21431
565.050	19405
565.111	19915
565.171	18815
565.231	19502
565.292	19916
565.352	19280
565.412	20155
565.472	20636
565.532	19960
565.593	19258
565.653	19705
565.713	20224
565.773	19554
565.833	20270
565.893	21304
565.953	20589
566.013	17986
566.074	18719
566.134	18588
566.194	19070
566.254	20769
566.314	19760
566.374	18403
566.434	18968
566.494	18512
566.554	18527
566.614	19181
566.673	19673
566.733	19877
566.793	19946
566.853	19646
566.913	20765
566.973	20057
567.033	19786
567.092	19394
567.152	19663
567.212	19150
567.272	20045
567.331	20360
567.391	20025
567.451	20427
567.511	22416
567.570	22440
567.630	21024
567.690	20359
567.749	19767
567.809	20386
567.868	18912
567.928	20153
567.988	19355
568.047	19512
568.107	20963
568.166	20875
568.226	19810
568.285	18807
568.345	20042
568.404	21049
568.464	19706
568.523	19594
568.582	20397
568.642	19391
568.701	20045
568.761	18554
568.820	19016
568.879	18723
568.939	21055
568.998	21093
569.057	20469
569.116	19424
569.176	19037
569.235	18990
569.294	19539
569.353	18522
569.413	18992
569.472	18952
569.531	19202
569.590	18898
569.649	19905
569.708	17825
569.767	18411
569.827	19320
569.886	19142
569.945	18095
570.004	19033
570.063	18759
570.122	19917
570.181	19606
570.240	18779
570.299	20993
570.358	21420
570.417	20177
570.475	21190
570.534	21707
570.593	21453
570.652	19941
570.711	21278
570.770	20095
570.829	20222
570.887	19612
570.946	21831
571.005	20931
571.064	20623
571.122	20445
571.181	21047
571.240	19990
571.299	19825
571.357	18943
571.416	20292
571.475	19443
571.533	21408
571.592	21618
571.650	22616
571.709	22532
571.768	25595
571.826	25565
571.885	25146
571.943	22451
572.002	21011
572.060	20316
572.119	20271
572.177	19952
572.236	20524
572.294	20199
572.352	20837
572.411	22560
572.469	21038
572.528	18937
572.586	19378
572.644	19218
572.703	19780
572.761	18834
572.819	18871
572.877	18566
572.936	17899
572.994	17598
573.052	18543
573.110	18779
573.169	19524
573.227	21180
573.285	18916
573.343	18416
573.401	19634
573.459	18523
573.517	19228
573.576	21466
573.634	21371
573.692	20052
573.750	20163
573.808	19684
573.866	19388
573.924	19314
573.982	19183
574.040	19702
574.098	19395
574.155	18196
574.213	18847
574.271	18203
574.329	20819
574.387	20366
574.445	18656
574.503	17303
574.560	18283
574.618	17434
574.676	17978
574.734	17637
574.792	16974
574.849	16464
574.907	15926
574.965	14996
575.022	14839
575.080	14401
575.138	15320
575.195	14307
575.253	14349
575.311	13840
575.368	15191
575.426	14165
575.483	13645
575.541	14472
575.598	15815
575.656	14971
575.713	15045
575.771	16904
575.828	16537
575.886	15112
575.943	15181
576.001	13934
576.058	13778
576.115	13614
576.173	15011
576.230	14800
576.287	16661
576.345	14297
576.402	15388
576.459	16234
576.517	14738
576.574	14694
576.631	14508
576.688	13280
576.746	13109
576.803	14057
576.860	13274
576.917	14018
576.974	14099
577.031	13427
577.089	14042
577.146	13767
577.203	13497
577.260	13103
577.317	13732
577.374	12603
577.431	13437
577.488	13386
577.545	13331
577.602	14028
577.659	13466
577.716	13807
577.773	14385
577.830	13164
577.886	13642
577.943	12186
578.000	12843
578.057	12893
578.114	13624
578.171	13585
578.227	15518
578.284	13779
578.341	13816
578.398	12980
578.454	13738
578.511	13025
578.568	13413
578.625	13808
578.681	13950
578.738	12476
578.794	13480
578.851	13693
578.908	12604
578.964	13202
579.021	13719
579.077	13600
579.134	14101
579.190	13195
579.247	14093
579.303	13189
579.360	13188
579.416	12750
579.473	13525
579.529	13025
579.586	13489
579.642	13038
579.698	13863
579.755	14617
579.811	14401
579.867	15040
579.924	13903
579.980	14081
580.036	15694
580.093	15127
580.149	16812
580.205	17672
580.261	17338
580.317	16332
580.374	16717
580.430	16352
580.486	16317
580.542	15308
580.598	16081
580.619	15918
580.654	15643
580.692	16145
580.710	16405
580.765	15930
580.767	15921
580.823	16086
580.838	16367
580.879	17128
580.911	17444
580.935	17690
580.984	17181
580.991	17115
581.047	17335
581.057	17288
581.103	17078
581.130	16675
581.159	16304
581.203	16821
581.215	16946
581.270	16945
581.276	16897
581.326	16453
581.349	16469
581.382	16505
581.422	16989
581.438	17173
581.494	16765
581.494	16757
581.550	16024
581.567	16193
581.606	16608
581.640	16408
581.661	16245
581.713	17642
581.717	17755
581.773	16789
581.786	16736
581.829	16545
581.859	17368
581.885	18067
581.932	17309
581.940	17167
581.996	18094
582.004	18221
582.052	18959
582.077	18808
582.107	18560
582.150	18224
582.163	18138
582.219	18111
582.223	18186
582.274	19024
582.296	18697
582.330	18196
582.368	19243
582.386	19717
582.441	19629
582.441	19625
582.497	19268
582.514	19139
582.552	18979
582.587	19747
582.608	20123
582.659	20522
582.663	20550
582.719	21061
582.732	20998
582.774	20969
582.805	21229
582.830	21423
582.877	21681
582.885	21738
582.941	23629
582.950	23658
582.996	23819
583.023	24633
583.052	25717
583.095	27016
583.107	27217
583.162	27065
583.168	26996
583.218	25978
583.240	25484
583.273	24764
583.313	24112
583.328	23836
583.384	23055
583.385	23022
583.439	22633
583.458	22648
583.494	22558
583.531	22362
583.549	22309
583.603	23416
583.605	23451
583.660	23331
583.676	23268
583.715	23127
583.748	23037
583.770	23071
583.820	24061
583.825	24156
583.881	23971
583.893	24003
583.936	24077
583.965	23950
583.991	23795
584.038	24183
584.046	24311
584.101	24495
584.110	24682
584.156	25574
584.183	25516
584.211	25547
584.255	25686
584.266	25644
584.321	25999
584.328	26060
584.376	27281
584.400	27227
584.431	26852
584.472	27686
584.486	28065
584.541	29053
584.545	29037
584.596	29221
584.617	29428
584.651	29633
584.689	29985
584.706	30309
584.761	31689
584.762	31683
584.816	33008
584.834	32962
584.871	32841
584.906	33957
584.926	34865
584.978	36322
584.980	36392
585.035	38363
585.051	39060
585.090	41072
585.123	43121
585.145	45078
585.195	49651
585.200	50087
585.254	56399
585.267	58372
585.309	66495
585.340	73031
585.364	78502
585.412	91217
585.419	93314
585.473	112780
585.484	117697
585.528	142630
585.556	165592
585.583	202322
585.628	289468
585.637	324208
585.692	602353
585.700	663809
585.747	1052362
585.772	1106283
585.801	937461
585.845	541738
585.856	451632
585.910	193300
585.917	169070
585.965	116488
585.989	96218
586.019	84551
586.061	72333
586.074	69823
586.128	62585
586.133	61947
586.183	57930
586.205	56563
586.237	55004
586.277	52553
586.292	52112
586.346	50792
586.349	50706
586.401	50443
586.421	49971
586.455	49302
586.493	48753
586.509	48938
586.564	49677
586.565	49656
586.618	53894
586.637	55465
586.672	58761
586.709	61116
586.727	63157
586.781	72506
586.781	72612
586.835	68197
586.853	66541
586.889	59335
586.925	52808
586.944	51316
586.996	49068
586.998	49122
587.052	48317
587.068	48080
587.106	48469
587.140	48389
587.161	48364
587.212	48631
587.215	48726
587.269	48439
587.284	48401
587.323	49200
587.356	49754
587.377	50526
587.427	52258
587.431	52454
587.485	52997
587.499	53246
587.539	53938
587.571	54304
587.593	55212
587.643	57652
587.648	58026
587.702	59427
587.715	59868
587.755	60504
587.786	60516
587.810	60646
587.858	60659
587.864	60902
587.917	61797
587.930	62024
587.971	62111
588.001	61706
588.025	61938
588.073	61946
588.079	62096
588.133	61821
588.145	61824
588.187	61698
588.217	61266
588.241	61701
588.288	62228
588.295	62533
588.348	63622
588.360	63943
588.402	65434
588.431	65612
588.456	65649
588.503	65866
588.510	66330
588.564	69318
588.575	69763
588.617	72771
588.646	74929
588.671	76386
588.718	78598
588.725	79306
588.778	84037
588.789	85139
588.832	97513
588.861	107467
588.886	138943
588.932	204564
588.939	223500
588.993	386750
589.004	407817
589.047	296086
589.075	214281
589.100	162200
589.147	86662
589.154	85545
589.207	77550
589.218	75943
589.261	76870
589.290	77151
589.314	77892
589.361	79416
589.368	80403
589.421	87571
589.433	89348
589.475	115113
589.504	134597
589.528	181572
589.576	283958
589.582	286716
589.635	280623
589.647	274339
589.689	161623
589.718	91393
589.742	85870
589.790	76415
589.795	76478
589.849	74957
589.861	74564
589.902	76075
589.932	76763
589.955	76758
590.004	75833
590.009	75835
590.062	73588
590.075	72869
590.115	73010
590.146	72822
590.168	72837
590.218	72387
590.222	72711
590.275	74459
590.289	74679
590.328	77053
590.360	78427
590.381	78589
590.431	78445
590.435	78748
590.488	80100
590.503	80281
590.541	81400
590.574	81872
590.594	82654
590.645	83914
590.647	84270
590.700	87297
590.716	87998
590.753	89806
590.787	90989
590.806	92726
590.859	96534
590.859	96837
590.912	97885
590.930	98096
590.965	99008
591.001	99060
591.018	99649
591.071	100653
591.072	100362
591.124	98086
591.143	96877
591.177	97650
591.214	97950
591.230	99155
591.283	102466
591.285	102277
591.336	102381
591.356	101971
591.389	101574
591.427	100404
591.442	100551
591.495	99902
591.498	99554
591.547	100299
591.569	100277
591.600	101983
591.640	103412
591.653	104077
591.706	105592
591.711	105414
591.759	107384
591.782	108026
591.811	111106
591.853	114656
591.864	115176
591.917	115923
591.924	115667
591.969	116173
591.995	115865
592.022	115971
592.066	115229
592.075	116247
592.127	120339
592.137	120693
592.180	123785
592.208	125243
592.233	126401
592.279	127293
592.285	127941
592.338	130062
592.350	130117
592.390	132200
592.421	133022
592.443	133632
592.491	133590
592.495	134323
592.548	138347
592.562	139006
592.600	139386
592.633	138850
592.653	138994
592.704	137415
592.705	138257
592.775	140735
592.846	145585
592.916	149497
592.987	147170
593.058	149709
593.128	151514
593.199	153225
593.270	153843
593.341	155066
593.411	158625
593.482	165202
593.553	169875
593.623	170352
593.694	175714
593.764	183415
593.835	180610
593.906	182184
593.976	184316
594.047	188955
594.117	195846
594.188	203569
594.258	206240
594.329	201621
594.399	206793
594.470	211678
594.540	218357
594.611	226756
594.681	226963
594.751	225719
594.822	230264
594.892	240566
594.963	246010
595.033	251593
595.103	260195
595.174	263503
595.244	269878
595.314	280206
595.384	284726
595.455	288300
595.525	300111
595.595	307529
595.665	319614
595.736	306745
595.806	308441
595.876	317769
595.946	316410
596.016	325276
596.087	342430
596.157	345053
596.227	341905
596.297	353780
596.367	377126
596.437	400867
596.507	406473
596.577	401231
596.647	409653
596.717	427773
596.787	443901
596.857	440555
596.927	443313
596.997	443514
597.067	449429
597.137	457901
597.207	459828
597.277	464040
597.347	453484
597.417	438829
597.487	433109
597.557	440329
597.626	452153
597.696	462023
597.766	461873
597.836	450478
597.906	423181
597.975	409700
598.045	412599
598.115	421853
598.185	446358
598.254	487160
598.324	534110
598.394	556640
598.464	550866
598.533	541297
598.603	518432
598.672	491120
598.742	496064
598.812	499427
598.881	511269
598.951	515073
599.020	517463
599.090	531399
599.159	546340
599.229	535744
599.299	518892
599.368	526525
599.437	535524
599.507	510639
599.576	480493
599.646	477634
599.715	471856
599.785	472789
599.854	464277
599.924	455998
599.993	450916
600.062	458619
600.132	469392
600.201	482832
600.270	535693
600.340	590301
600.409	589609
600.478	583293
600.547	586088
600.617	592222
600.686	490535
600.755	442239
600.824	417399
600.894	407397
600.963	408288
601.032	412549
601.101	408518
601.170	392600
601.239	387637
601.308	382854
601.378	388635
601.447	390210
601.516	397309
601.585	400970
601.654	407704
601.723	411146
601.792	418228
601.861	433949
601.930	444315
601.999	459956
602.068	457903
602.137	462421
602.206	465976
602.275	473773
602.343	476357
602.412	480406
602.481	485835
602.550	486912
602.619	496337
602.688	505452
602.756	506994
602.825	512046
602.894	517395
602.963	526941
603.032	529695
603.100	541009
603.169	531370
603.238	540369
603.307	544868
603.375	532713
603.444	550853
603.513	552358
603.581	548016
603.650	568878
603.719	549514
603.787	528282
603.856	543022
603.924	552890
603.993	568444
604.061	581697
604.130	604957
604.198	621327
604.267	629156
604.335	641941
604.404	644673
604.472	661385
604.541	662001
604.609	670230
604.678	681277
604.746	680776
604.815	697177
604.883	708115
604.951	699530
605.020	706746
605.088	717289
605.156	705559
605.225	716468
605.293	719884
605.361	713806
605.429	719126
605.498	722738
605.566	741083
605.634	756667
605.702	787621
605.771	799215
605.839	818432
605.907	806462
605.975	788987
606.043	779748
606.111	759107
606.180	768854
606.248	772741
606.316	742751
606.384	759958
606.452	753614
606.520	714983
606.588	737792
606.656	744123
606.724	747544
606.792	719685
606.860	671011
606.928	610872
606.996	579266
607.064	560769
607.132	567705
607.200	585729
607.267	619748
607.335	622053
607.403	647945
607.471	640854
607.539	605102
607.607	620313
607.674	567909
607.742	540625
607.810	541656
607.878	535600
607.946	541053
608.013	561772
608.081	581300
608.149	582995
608.216	592257
608.284	620455
608.352	618542
608.419	625894
608.487	608333
608.555	597542
608.622	604497
608.690	621785
608.757	674345
608.825	714102
608.893	703618
608.960	681068
609.028	640799
609.095	632442
609.163	637387
609.230	607545
609.298	536231
609.365	538271
609.432	578742
609.500	612884
609.567	681616
609.635	766844
609.702	842317
609.769	830411
609.837	736497
609.904	578843
609.971	568542
610.039	591894
610.106	646745
610.173	834470
610.241	1383693
610.308	1701275
610.375	893049
610.442	657713
610.509	602847
610.577	588574
610.644	592917
610.711	606480
610.778	623543
610.845	636490
610.912	673191
610.980	700565
611.047	714493
611.114	704666
611.181	685135
611.248	675093
611.315	696321
611.382	721598
611.449	743797
611.516	758841
611.583	756812
611.650	754868
611.717	760099
611.784	766056
611.851	778609
611.918	803760
611.984	843618
612.051	963713
612.118	1224268
612.185	1887191
612.252	2291925
612.319	1394941
612.386	1016499
612.452	928454
612.519	866769
612.586	838815
612.653	835888
612.719	859426
612.786	861757
612.853	819651
612.919	778164
612.986	793984
613.053	769936
613.120	733023
613.186	694636
613.253	689386
613.319	687587
613.386	695391
613.453	702276
613.519	712170
613.586	700460
613.652	704147
613.719	698454
613.785	699667
613.852	715040
613.918	715765
613.985	709068
614.051	733194
614.118	742550
614.184	731681
614.250	703794
614.317	723713
614.383	713242
614.449	727517
614.516	727935
614.582	729989
614.648	725200
614.715	714058
614.781	710942
614.847	694307
614.914	706164
614.980	688201
615.046	679575
615.112	688839
615.179	703312
615.245	709007
615.311	709073
615.377	702155
615.443	721057
615.509	716080
615.575	736149
615.642	744121
615.708	742374
615.774	767783
615.840	794501
615.906	816853
615.972	864212
616.038	999857
616.104	1363959
616.170	2071459
616.236	2514243
616.302	1761447
616.368	1256136
616.434	1055691
616.500	888246
616.565	875119
616.631	1001357
616.697	1039016
616.763	930876
616.829	1033243
616.895	1487606
616.961	1897403
617.026	1389602
617.092	898614
617.158	785530
617.224	755458
617.289	718648
617.355	676785
617.421	662961
617.487	662910
617.552	644068
617.618	623245
617.684	626678
617.749	626604
617.815	613661
617.880	597102
617.946	594017
618.012	595491
618.077	612910
618.143	603958
618.208	587063
618.274	616442
618.339	649700
618.405	586995
618.470	536667
618.536	549754
618.601	538757
618.667	521864
618.732	485078
618.798	478033
618.863	475425
618.928	468946
618.994	469377
619.059	469612
619.124	473012
619.190	471852
619.255	472752
619.320	465078
619.386	474239
619.451	471080
619.516	465000
619.581	459681
619.647	474016
619.712	486074
619.777	469394
619.842	456484
619.907	467429
619.972	471412
620.038	483166
620.103	465557
620.168	463386
620.233	469562
620.298	471897
620.363	475646
620.428	485220
620.493	492551
620.558	503486
620.623	503049
620.688	515914
620.753	505638
620.818	512767
620.883	517776
620.948	517990
621.013	514942
621.078	507660
621.143	506132
621.207	515515
621.272	512768
621.337	501329
621.402	490504
621.467	490070
621.532	484684
621.596	490486
621.661	484240
621.726	471072
621.791	478956
621.855	479084
621.920	474566
621.985	478324
622.049	485659
622.114	489971
622.179	494014
622.243	497888
622.308	511756
622.373	523652
622.437	536471
622.502	511212
622.566	500030
622.631	496879
622.695	503610
622.760	503887
622.824	500319
622.889	503280
622.953	502163
623.018	514074
623.082	536154
623.147	528716
623.211	520842
623.276	517000
623.340	512808
623.404	496028
623.469	491619
623.533	492457
623.597	497244
623.662	483671
623.726	472471
623.790	442402
623.854	425247
623.919	424918
623.983	432590
624.047	439786
624.111	438966
624.176	449251
624.240	449096
624.304	462522
624.368	455948
624.432	448873
624.496	451806
624.560	466815
624.625	484096
624.689	474264
624.753	485190
624.817	493164
624.881	466523
624.945	452849
625.009	416432
625.073	420078
625.137	426162
625.201	445344
625.265	452316
625.329	441749
625.393	434630
625.456	439827
625.520	443098
625.584	455873
625.648	462088
625.712	472354
625.776	482595
625.839	476853
625.903	431136
625.967	371765
626.031	373643
626.095	417338
626.158	453817
626.222	377844
626.286	330399
626.349	317309
626.413	303602
626.477	291557
626.540	291531
626.604	295336
626.668	288944
626.731	284543
626.795	282768
626.858	284143
626.922	281637
626.986	278457
627.049	274451
627.113	282904
627.176	284160
627.240	274161
627.303	269570
627.366	269636
627.430	268786
627.493	270644
627.557	266230
627.620	262673
627.684	269761
627.747	277252
627.810	268788
627.874	242404
627.937	226510
628.000	226852
628.064	228143
628.127	213950
628.190	203360
628.253	196765
628.317	195562
628.380	184683
628.443	178256
628.506	175697
628.569	173907
628.632	164434
628.696	161534
628.759	160798
628.822	158353
628.885	152520
628.948	150392
629.011	148085
629.074	143977
629.137	141828
629.200	137767
629.263	135539
629.326	132540
629.389	133452
629.452	132643
629.515	130332
629.578	127754
629.641	128686
629.704	131270
629.767	130137
629.830	125239
629.892	122799
629.955	121066
630.018	123450
630.081	123379
630.144	121667
630.207	120803
630.269	118422
630.332	118000
630.395	115012
630.458	114063
630.520	110932
630.583	109674
630.646	110932
630.708	112330
630.771	113385
630.834	117902
630.896	118758
630.959	116876
631.021	113693
631.084	114464
631.146	114395
631.209	114817
631.272	113603
631.334	114661
631.397	117553
631.459	117408
631.522	118381
631.584	121277
631.646	125733
631.709	129599
631.771	131417
631.834	127573
631.896	124398
631.958	119146
632.021	116553
632.083	112228
632.145	110807
632.208	109422
632.270	108436
632.332	107145
632.395	108305
632.457	108936
632.519	107755
632.581	105810
632.643	104507
632.706	105810
632.768	102400
632.830	103161
632.892	105672
632.954	108030
633.016	109327
633.078	106414
633.141	107640
633.203	106740
633.265	106823
633.327	102575
633.389	105138
633.451	107100
633.513	106245
633.575	107895
633.637	107452
633.698	107166
633.760	111217
633.822	116452
633.884	119402
633.946	119961
634.008	123233
634.070	125031
634.132	127468
634.193	133482
634.255	142824
634.317	148724
634.379	149674
634.441	140014
634.502	132098
634.564	121527
634.626	114729
634.687	108829
634.749	105054
634.811	103551
634.873	102066
634.934	102407
634.996	101992
635.057	101729
635.119	104078
635.181	105844
635.242	105040
635.304	105398
635.365	105987
635.427	105811
635.488	105867
635.550	103791
635.611	105255
635.673	103606
635.734	109546
635.796	113282
635.857	119470
635.918	126525
635.980	134525
636.041	143247
636.102	148777
636.164	154118
636.225	151239
636.286	140943
636.348	127937
636.409	117439
636.470	111161
636.531	106842
636.593	104105
636.654	102806
636.715	97221
636.776	96497
636.838	95167
636.899	93546
636.960	92054
637.021	92809
637.082	91633
637.143	89197
637.204	88210
637.265	87117
637.326	88429
637.387	88919
637.448	89472
637.509	89327
637.570	88900
637.631	87182
637.692	85693
637.753	85146
637.814	83710
637.875	83047
637.936	82860
637.997	84531
638.058	83309
638.119	82552
638.179	82801
638.240	83871
638.301	84127
638.362	82882
638.423	80871
638.483	78853
638.544	77659
638.605	77258
638.666	77078
638.726	78457
638.787	78627
638.848	78008
638.908	78545
638.969	76842
639.030	74008
639.090	75278
639.151	75426
639.211	76264
639.272	76666
639.332	77787
639.393	76978
639.453	79064
639.514	84006
639.574	77950
639.635	73293
639.695	71979
639.756	71520
639.816	70944
639.877	69221
639.937	71287
639.997	71637
640.058	69892
640.118	69893
640.178	70192
640.239	69724
640.299	69569
640.359	71726
640.420	72849
640.480	76272
640.540	82304
640.600	89822
640.661	86675
640.721	80328
640.781	81674
640.841	78297
640.901	74792
640.961	71417
641.021	72941
641.082	77664
641.142	76381
641.202	70852
641.262	67923
641.322	68795
641.382	67297
641.442	66482
641.502	65877
641.562	66208
641.622	68730
641.682	69924
641.742	77259
641.802	80325
641.861	70504
641.921	66789
641.981	63317
642.041	63318
642.101	62360
642.161	60628
642.221	62052
642.280	62535
642.340	63268
642.400	64078
642.460	64186
642.519	66119
642.579	65577
642.639	64550
642.698	65175
642.758	67645
642.818	66442
642.877	65595
642.937	66578
642.997	64227
643.056	65341
643.116	64595
643.175	66858
643.235	66580
643.294	66084
643.354	69238
643.414	71167
643.473	74733
643.532	82530
643.592	96151
643.651	120840
643.711	169638
643.770	272707
643.830	495513
643.889	1051665
643.948	959842
644.008	282716
644.067	134218
644.126	98462
644.186	82652
644.245	75513
644.304	69025
644.363	66804
644.423	64513
644.482	64071
644.541	65223
644.600	68059
644.659	72924
644.719	81223
644.778	100817
644.837	140102
644.896	226254
644.955	473775
645.014	530558
645.073	138800
645.132	83987
645.191	74587
645.250	69011
645.309	69005
645.368	73171
645.427	82322
645.486	106664
645.545	204717
645.604	170441
645.663	68898
645.722	63390
645.781	64480
645.840	68611
645.898	72376
645.957	85295
646.016	106332
646.075	157984
646.134	251914
646.192	473367
646.251	987830
646.310	647014
646.369	180554
646.427	107864
646.486	96573
646.545	73515
646.603	65654
646.662	61108
646.721	57563
646.779	57371
646.838	56296
646.896	60883
646.955	71928
647.014	93771
647.072	144177
647.131	295729
647.189	460124
647.248	119603
647.306	59593
647.365	53490
647.423	48747
647.481	49327
647.540	47296
647.598	47624
647.657	47459
647.715	46698
647.773	45469
647.832	45523
647.890	42170
647.948	43273
648.007	41622
648.065	42641
648.123	40890
648.181	41652
648.240	39645
648.298	40683
648.356	39362
648.414	40607
648.472	39385
648.531	38602
648.589	37748
648.647	36368
648.705	37648
648.763	37066
648.821	38334
648.879	38189
648.937	40124
648.995	42742
649.053	48203
649.111	58244
649.169	79208
649.227	123102
649.285	210169
649.343	475547
649.401	714225
649.459	197684
649.516	72598
649.574	54063
649.632	49852
649.690	52776
649.748	57558
649.806	68800
649.863	106819
649.921	204813
649.979	395296
650.037	118684
650.094	44060
650.152	37223
650.210	33592
650.268	33252
650.325	31940
650.383	32186
650.440	30764
650.498	28541
650.556	28213
650.613	28599
650.671	28029
650.728	27497
650.786	30759
650.843	32952
650.901	39178
650.958	28218
651.016	26407
651.073	25654
651.131	25997
651.188	24277
651.246	23980
651.303	24705
651.360	24703
651.418	23759
651.475	24026
651.532	22614
651.590	25523
651.647	23612
651.704	23830
651.762	24315
651.819	23107
651.876	22347
651.933	23012
651.990	22196
652.048	21998
652.105	21805
652.162	22091
652.219	21779
652.276	20591
652.333	21816
652.390	21083
652.448	21252
652.505	21154
652.562	20882
652.619	21388
652.676	20653
652.733	22397
652.790	20859
652.847	18988
652.904	20508
652.961	19390
653.017	18512
653.074	20369
653.131	19537
653.188	19149
653.245	19065
653.302	19345
653.359	19109
653.415	19191
653.472	20127
653.529	19282
653.586	18281
653.642	18764
653.699	19831
653.756	18724
653.813	17941
653.869	19572
653.926	19573
653.983	19283
654.039	19343
654.096	19661
654.152	18801
654.209	17907
654.266	18684
654.322	17773
654.379	17905
654.435	18069
654.492	19374
654.548	18252
654.605	18356
654.661	19004
654.717	17952
654.774	18417
654.830	17959
654.887	17545
654.943	18385
655.000	18445
655.056	19397
655.112	17643
655.168	17395
655.225	18266
655.281	18255
655.337	18452
655.394	19756
655.450	18134
655.506	17783
655.562	17166
655.618	18620
655.675	17729
655.731	17567
655.787	17137
655.843	17747
655.899	16582
655.955	18410
656.011	17661
656.067	17462
656.123	18641
656.179	17008
656.235	17323
656.291	16840
656.347	17882
656.403	17124
656.459	17277
656.515	17462
656.571	17977
656.627	17436
656.683	15971
656.739	17603
656.795	16912
656.850	17342
656.906	16930
656.962	17699
657.018	17289
657.074	20294
657.129	23343
657.185	31553
657.241	51038
657.297	80610
657.352	28837
657.408	17221
657.464	17431
657.519	15883
657.575	15022
657.630	15031
657.686	16205
657.742	15398
657.797	15853
657.853	16321
657.908	17237
657.964	15684
658.019	15314
658.075	15613
658.130	15113
658.186	15519
658.241	15523
658.297	14396
658.352	14112
658.407	15480
658.463	14628
658.518	14279
658.573	15130
658.629	14525
658.684	14923
658.739	14262
658.795	14431
658.850	14304
658.905	14334
658.960	15344
659.016	13240
659.071	13764
659.126	14989
659.181	13927
659.236	14523
659.291	15332
659.346	14573
659.401	14569
659.457	15332
659.512	14907
659.567	15171
659.622	14397
659.677	13368
659.732	13767
659.787	13892
659.842	13569
659.897	14460
659.952	15058
660.007	14242
660.061	13677
660.116	13746
660.171	14037
660.226	14530
660.281	14038
660.336	13427
660.391	13643
660.445	13705
660.500	13215
660.555	12216
660.610	13214
660.664	13758
660.719	12920
660.774	13184
660.828	13087
660.883	13837
660.938	13102
660.992	12585
661.047	13093
661.101	13005
661.156	12840
661.211	13387
661.265	12869
661.320	13004
661.374	13861
661.429	12799
661.483	13538
661.538	13462
661.592	13731
661.647	13361
661.701	14342
661.755	14495
661.810	13239
661.864	13201
661.919	12096
661.973	13128
662.027	13093
662.081	13461
662.136	12528
662.190	12724
662.244	13550
662.299	11909
662.353	13051
662.407	12458
662.461	11936
662.515	12844
662.569	11986
662.624	11622
662.678	12608
662.732	13255
662.786	12726
662.840	13981
662.894	12646
662.948	11794
663.002	12298
663.056	12079
663.110	11483
663.164	12071
663.218	12854
663.272	12577
663.326	12084
663.380	12823
663.434	12713
663.488	11929
663.542	13151
663.595	12818
663.649	12139
663.703	13359
663.757	11658
663.811	13140
663.864	11836
663.918	13235
663.972	11480
664.026	12649
664.079	12791
664.133	12758
664.187	13263
664.240	12807
664.294	12995
664.348	12741
664.401	12871
664.455	13068
664.508	11143
664.562	12015
664.615	13090
664.669	11547
664.722	13224
664.776	11381
664.829	12004
664.883	12746
664.936	12376
664.990	12701
665.043	12359
665.097	12221
665.150	13634
665.203	12863
665.257	12414
665.310	12510
665.363	13438
665.417	13020
665.470	13543
665.523	13116
665.576	13808
665.630	12801
665.683	12684
665.736	13050
665.789	13034
665.842	12086
665.895	12277
665.949	12807
666.002	12145
666.055	13620
666.108	12537
666.161	13483
666.214	13261
666.267	13381
666.320	13383
666.373	13288
666.426	13983
666.479	12800
666.532	14297
666.585	13442
666.638	15557
666.691	14262
666.744	13860
666.796	14310
666.849	14178
666.902	13696
666.955	13291
667.008	13478
667.060	12433
667.113	13547
667.166	13973
667.219	14431
667.271	15050
667.324	14626
667.377	13665
667.430	13744
667.482	13156
667.535	15089
667.587	13814
667.640	14313
667.693	13447
667.745	13665
667.798	14345
667.850	13845
667.903	13640
667.955	14169
668.008	14168
668.060	14970
668.113	14229
668.165	13148
668.218	13481
668.270	12916
668.322	12809
668.375	14012
668.427	13939
668.479	12387
668.532	13242
668.584	13444
668.636	12502
668.689	12160
668.741	12512
668.793	12867
668.845	13320
668.898	12969
668.950	12238
669.002	13206
669.054	12941
669.106	12678
669.158	13697
669.211	12574
669.263	12780
669.315	13306
669.367	13405
669.419	12469
669.471	13675
669.523	12089
669.575	13279
669.627	13636
669.679	12128
669.731	13117
669.783	12975
669.835	12294
669.886	11686
669.938	13157
669.990	12558
670.042	11943
670.094	12873
670.146	12040
670.197	13408
670.249	13844
670.301	12965
670.353	15477
670.404	17738
670.456	19059
670.508	24197
670.560	34109
670.611	51205
670.663	81918
670.715	139798
670.766	318107
670.818	308833
670.869	72506
670.921	26913
670.972	21334
671.024	18453
671.075	16004
671.127	14184
671.178	14503
671.230	14902
671.281	15986
671.333	16181
671.384	16923
671.436	19463
671.487	26053
671.538	32928
671.590	45718
671.641	71266
671.692	112975
671.744	202342
671.795	296715
671.846	175557
671.897	76310
671.949	43545
672.000	31816
672.051	24184
672.102	19489
672.153	16647
672.204	15167
672.256	14414
672.307	13840
672.358	12556
672.409	12622
672.460	11722
672.511	11491
672.562	11797
672.613	10638
672.664	9891
672.715	10617
672.766	10743
672.817	9559
672.868	9994
672.919	9229
672.970	8848
673.021	9736
673.071	9564
673.122	9523
673.173	8668
673.224	9262
673.275	9983
673.326	8949
673.376	9033
673.427	8205
673.478	9421
673.528	10206
673.579	9696
673.630	9567
673.680	9277
673.731	10286
673.782	9452
673.832	8940
673.883	10003
673.934	8988
673.984	9417
674.035	9892
674.085	9669
674.136	9632
674.186	9053
674.237	9663
674.287	9938
674.338	10080
674.388	9384
674.438	10123
674.489	11133
674.539	10156
674.589	11670
674.640	10923
674.690	10395
674.740	11110
674.791	10839
674.841	9656
674.891	9343
674.942	7649
674.992	7539
675.042	7696
675.092	8035
675.142	8079
675.193	7635
675.243	8055
675.293	8549
675.343	9024
675.393	8898
675.443	9215
675.493	9141
675.543	7965
675.593	8975
675.643	8160
675.693	9311
675.743	7662
675.793	7709
675.843	6862
675.893	7704
675.943	7757
675.993	7305
676.043	7528
676.093	7509
676.142	7589
676.192	8226
676.242	8364
676.292	7515
676.341	7034
676.391	7990
676.441	7099
676.491	8009
676.540	6222
676.590	7609
676.640	7167
676.689	7018
676.739	7357
676.789	5918
676.838	6405
676.888	6817
676.937	6385
676.987	7386
677.037	6544
677.086	7367
677.136	6134
677.185	6874
677.235	7440
677.284	6522
677.333	6855
677.383	6830
677.432	5978
677.482	6634
677.531	6498
677.580	6419
677.630	5716
677.679	6204
677.728	6290
677.778	5716
677.827	6124
677.876	5749
677.925	6083
677.975	6608
678.024	7513
678.073	7803
678.122	7227
678.171	7742
678.220	7488
678.269	8520
678.319	9123
678.368	9808
678.417	9057
678.466	8236
678.515	7744
678.564	6511
678.613	6350
678.662	6291
678.711	6866
678.760	7064
678.809	6983
678.857	6548
678.906	7206
678.955	6181
679.004	5911
679.053	5322
679.102	5622
679.151	6116
679.199	7251
679.248	6371
679.297	6201
679.346	6045
679.394	5627
679.443	5488
679.492	5957
679.540	5619
679.589	5934
679.638	6746
679.686	6478
679.735	7061
679.784	7471
679.832	7676
679.881	8716
679.929	7278
679.978	6342
680.026	6094
680.075	6469
680.123	6066
680.172	5633
680.220	5129
680.268	6239
680.317	5665
680.365	5081
680.414	5164
680.462	5020
680.510	5449
680.559	5702
680.607	5610
680.655	5022
680.703	5445
680.752	5949
680.800	6111
680.848	5355
680.896	5872
680.945	5033
680.993	5721
681.041	5332
681.089	5216
681.137	5309
681.185	5024
681.233	6147
681.258	5934
681.281	5675
681.329	4869
681.377	4726
681.380	4841
681.425	5815
681.473	6054
681.502	6482
681.521	6682
681.569	7385
681.617	6486
681.624	6644
681.665	7210
681.713	7143
681.745	6993
681.761	6819
681.809	6338
681.857	7257
681.867	7490
681.904	8076
681.952	7190
681.989	6943
682.000	6783
682.048	7745
682.096	7250
682.111	7133
682.143	6684
682.191	7217
682.233	8523
682.239	8666
682.286	8054
682.334	8342
682.354	8416
682.382	8381
682.430	8740
682.476	8999
682.477	8948
682.525	8875
682.572	8234
682.598	8280
682.620	8256
682.667	9022
682.715	9091
682.720	9189
682.763	9499
682.810	9074
682.841	9687
682.857	9959
682.905	9103
682.952	10226
682.963	10219
683.000	9850
683.047	9844
683.085	10358
683.095	10471
683.142	10593
683.190	11082
683.206	10778
683.237	10047
683.284	10385
683.328	9916
683.332	9823
683.379	10716
683.426	10105
683.449	10487
683.473	10833
683.521	10634
683.568	11393
683.571	11438
683.615	11495
683.662	11953
683.693	11941
683.709	11827
683.757	11581
683.804	11849
683.814	11761
683.851	11208
683.898	11701
683.936	11522
683.945	11462
683.992	11634
684.039	12497
684.057	12267
684.086	11841
684.133	12378
684.179	12703
684.180	12667
684.227	12278
684.274	12680
684.300	12513
684.321	12429
684.368	12915
684.415	12787
684.422	12855
684.462	13071
684.509	13426
684.543	13256
684.556	13137
684.603	13861
684.649	13571
684.665	13854
684.696	14275
684.743	13722
684.786	14279
684.790	14297
684.837	14112
684.883	14600
684.908	14443
684.930	14287
684.977	14544
685.023	14836
685.029	14864
685.070	14980
685.117	15889
685.150	15639
685.164	15398
685.210	16055
685.257	15709
685.272	15659
685.303	15609
685.350	16044
685.393	16765
685.396	16789
685.443	15753
685.490	15612
685.514	15664
685.536	15657
685.583	15640
685.629	15394
685.636	15414
685.675	15490
685.722	16367
685.757	16054
685.768	15960
685.815	16136
685.861	16096
685.878	16281
685.908	16490
685.954	16390
686.000	17026
686.000	17028
686.047	17206
686.093	17579
686.121	17973
686.139	18177
686.185	18390
686.232	18481
686.242	18483
686.278	18139
686.324	18147
686.363	17879
686.370	17818
686.416	17946
686.463	18188
686.484	18159
686.509	18270
686.555	17436
686.601	17611
686.606	17765
686.647	18960
686.693	18903
686.727	18209
686.739	17894
686.785	18426
686.831	17983
686.848	17839
686.877	17690
686.923	18525
686.969	18193
686.969	18189
687.015	18512
687.061	18893
687.090	19611
687.107	20034
687.153	20606
687.199	20352
687.211	20391
687.245	20116
687.291	20189
687.332	20190
687.336	20218
687.382	20171
687.428	19868
687.453	20200
687.474	20443
687.520	20454
687.565	20793
687.574	20711
687.611	20516
687.657	21496
687.695	21654
687.702	21795
687.748	22662
687.794	24231
687.816	24610
687.839	24925
687.885	25274
687.931	25591
687.937	25735
687.976	24700
688.022	23784
688.058	22141
688.067	22055
688.113	22269
688.158	21473
688.179	21829
688.204	22216
688.249	22145
688.295	21523
688.300	21586
688.340	22290
688.386	22640
688.421	22565
688.431	22564
688.477	22251
688.522	22396
688.542	22569
688.567	22850
688.613	23193
688.658	23770
688.663	23769
688.703	23985
688.749	24050
688.784	24294
688.794	24269
688.839	23764
688.884	24180
688.905	24009
688.930	24144
688.975	24360
689.020	23980
689.026	24062
689.065	24210
689.110	23723
689.146	23418
689.155	23528
689.201	24395
689.246	24670
689.267	24896
689.291	24959
689.336	24868
689.381	24827
689.388	24735
689.426	24142
689.471	24476
689.509	24036
689.516	24065
689.561	24260
689.606	24791
689.630	24759
689.651	24625
689.696	24491
689.741	24623
689.750	24523
689.785	24463
689.830	24640
689.871	24717
689.875	24758
689.920	24857
689.965	25044
689.992	24846
690.010	24695
690.054	25062
690.099	24979
690.112	24979
690.144	25035
690.189	24763
690.233	24624
690.233	24655
690.278	25127
690.323	24668
690.354	25086
690.367	25337
690.412	25762
690.457	25678
690.474	25789
690.501	25909
690.546	26012
690.590	25604
690.595	25587
690.635	25599
690.680	25419
690.716	25423
690.724	25587
690.769	25503
690.813	26517
690.836	26486
690.857	26819
690.902	28147
690.946	29607
690.957	29853
690.991	32900
691.035	36900
691.077	41549
691.080	41975
691.124	47867
691.168	53068
691.198	56348
691.213	53962
691.257	47892
691.301	41057
691.318	38395
691.346	36457
691.390	33025
691.434	30317
691.439	29874
691.478	28817
691.522	28339
691.559	27504
691.567	27592
691.611	28241
691.655	28363
691.680	28634
691.699	28794
691.743	28648
691.787	28941
691.800	28896
691.831	28848
691.875	28748
691.919	28678
691.921	28631
691.964	28647
692.008	28641
692.041	28510
692.052	28570
692.096	28508
692.139	28452
692.162	28430
692.183	28318
692.227	27912
692.271	27603
692.282	27422
692.315	27229
692.359	27388
692.402	26962
692.403	27013
692.447	27766
692.490	28274
692.523	28544
692.534	28490
692.578	28360
692.622	28302
692.643	28085
692.666	27959
692.709	27773
692.753	27590
692.763	27499
692.797	27979
692.840	28390
692.884	28920
692.884	28972
692.928	28606
692.971	28268
693.004	27749
693.015	27781
693.059	27979
693.102	28506
693.124	28334
693.146	28239
693.189	28346
693.233	28527
693.245	28487
693.276	28724
693.320	28843
693.363	29145
693.365	29102
693.407	30005
693.450	30943
693.485	31345
693.493	31507
693.537	32067
693.580	33004
693.605	33376
693.624	34280
693.667	36302
693.710	38603
693.725	39228
693.753	44470
693.797	52852
693.840	61906
693.845	62877
693.883	75965
693.926	88851
693.966	100912
693.970	99466
694.013	82691
694.056	66012
694.086	54377
694.099	52422
694.142	45755
694.185	39238
694.206	36074
694.229	35430
694.272	33850
694.315	32671
694.326	32166
694.358	32066
694.401	32288
694.444	32241
694.446	32174
694.487	32116
694.530	32042
694.566	31763
694.573	31774
694.616	31316
694.659	31237
694.686	31075
694.702	31308
694.745	31674
694.787	31969
694.806	32042
694.830	31988
694.873	31843
694.916	31547
694.926	31435
694.959	31381
695.002	31112
695.044	30951
695.046	30882
695.087	32386
695.130	33645
695.166	34738
695.172	34787
695.215	34330
695.258	34160
695.286	33988
695.301	34230
695.343	34656
695.386	35007
695.406	35101
695.428	35526
695.471	36281
695.514	36935
695.526	37074
695.556	39815
695.599	43927
695.641	47554
695.646	47862
695.684	48471
695.726	48842
695.766	49264
695.769	49217
695.811	46892
695.854	44326
695.886	42631
695.896	42688
695.938	42162
695.981	41704
696.005	41384
696.023	42061
696.065	43555
696.108	44895
696.125	45404
696.150	47006
696.192	49611
696.235	52012
696.245	52485
696.277	52409
696.319	52305
696.361	52190
696.365	52049
696.404	52589
696.446	53120
696.485	53428
696.488	53455
696.530	52166
696.572	50902
696.604	49877
696.614	50038
696.656	50183
696.698	50313
696.724	50234
696.740	50163
696.783	49718
696.825	49283
696.844	48948
696.867	49703
696.909	51018
696.951	52152
696.964	52432
696.992	52484
697.034	52216
697.076	52056
697.083	51896
697.118	53063
697.160	54441
697.202	55732
697.203	55635
697.244	56262
697.286	56775
697.323	57035
697.327	57125
697.369	56698
697.411	56325
697.442	55899
697.453	56000
697.494	55796
697.536	55690
697.562	55453
697.578	55481
697.620	55242
697.661	54894
697.682	54635
697.703	55273
697.744	56265
697.786	57273
697.801	57480
697.828	58690
697.869	60328
697.911	62036
697.921	62305
697.952	61731
697.994	60704
698.035	59780
698.040	59507
698.077	59338
698.118	59053
698.160	58735
698.160	58587
698.201	59733
698.243	60788
698.279	61589
698.284	61916
698.325	63508
698.367	65114
698.399	66194
698.408	66413
698.449	66666
698.491	66898
698.518	66896
698.532	67355
698.573	68276
698.614	69171
698.638	69504
698.656	69805
698.697	70108
698.738	70400
698.757	70365
698.779	70239
698.820	69658
698.862	69071
698.877	68679
698.903	68880
698.944	68922
698.985	68967
698.996	68806
699.026	68915
699.067	68823
699.116	68539
699.235	68909
699.354	69274
699.474	66191
699.593	62432
699.713	64516
699.832	64074
699.951	64972
700.070	69275
700.190	64073
700.309	61974
700.428	58197
700.547	60769
700.667	56578
700.786	58621
700.905	56831
701.024	54863
701.143	58690
701.262	55263
701.381	61225
701.500	59448
701.619	60393
701.738	57170
701.857	58461
701.976	58049
702.095	53069
702.214	58476
702.333	57999
702.452	57808
702.571	57733
702.690	59590
702.809	57428
702.928	56571
703.047	53941
703.165	52349
703.284	54063
703.403	51577
703.522	53221
703.640	50356
703.759	50276
703.878	49889
703.997	49477
704.115	50509
704.234	51195
704.353	50648
704.471	50822
704.590	45895
704.708	47398
704.827	45510
704.946	46133
705.064	46300
705.183	47024
705.301	45884
705.420	49237
705.538	46135
705.656	46836
705.775	42490
705.893	44821
706.012	52545
706.130	47757
706.249	43960
706.367	43520
706.485	42313
706.604	43624
706.722	41932
706.840	42775
706.958	48644
707.077	54994
707.195	42015
707.313	40873
707.431	38859
707.549	38623
707.668	36865
707.786	39215
707.904	40742
708.022	37708
708.140	42006
708.258	37083
708.376	37946
708.494	38831
708.612	38038
708.730	42518
708.848	40988
708.966	39924
709.084	40631
709.202	40421
709.320	37579
709.438	36361
709.556	38433
709.674	36441
709.791	34451
709.909	34626
710.027	34848
710.145	35179
710.263	33593
710.380	34383
710.498	35034
710.616	33160
710.733	33928
710.851	32464
710.969	33223
711.086	33288
711.204	31408
711.322	32387
711.439	33040
711.557	31877
711.674	30850
711.792	31254
711.909	32112
712.027	30619
712.144	31013
712.262	30227
712.379	32465
712.497	32012
712.614	33608
712.732	32769
712.849	31576
712.966	29708
713.084	33156
713.201	32146
713.318	30222
713.436	34171
713.553	34234
713.670	32337
713.787	36401
713.905	34631
714.022	34037
714.139	35912
714.256	39502
714.373	48215
714.490	73320
714.608	137758
714.725	401448
714.842	1196754
714.959	527883
715.076	98550
715.193	54514
715.310	44031
715.427	37311
715.544	32049
715.661	32946
715.778	30825
715.895	29297
716.011	30616
716.128	30497
716.245	28646
716.362	29803
716.479	25588
716.596	26553
716.713	26516
716.829	26206
716.946	24479
717.063	25153
717.180	23547
717.296	24092
717.413	24107
717.530	24062
717.646	23159
717.763	23181
717.880	23477
717.996	23192
718.113	21688
718.229	23372
718.346	22151
718.462	21655
718.579	21703
718.695	23793
718.812	23524
718.928	22180
719.045	23096
719.161	21006
719.277	22244
719.394	23459
719.510	24571
719.626	23626
719.743	28168
719.859	36210
719.975	58779
720.092	141622
720.208	549594
720.324	535491
720.440	67514
720.557	33758
720.673	27956
720.789	26148
720.905	26158
721.021	29226
721.137	21586
721.253	20129
721.369	20014
721.486	21424
721.602	20924
721.718	20239
721.834	18779
721.950	19808
722.066	19140
722.181	18637
722.297	17852
722.413	19000
722.529	17900
722.645	18745
722.761	18185
722.877	18465
722.993	19599
723.108	23517
723.224	29020
723.340	21315
723.456	19145
723.571	17235
723.687	17383
723.803	16356
723.918	17953
724.034	17847
724.150	16854
724.265	17362
724.381	17260
724.497	19265
724.612	17606
724.728	16931
724.843	16009
724.959	16635
725.074	16566
725.190	19310
725.305	17914
725.421	16246
725.536	16521
725.651	16919
725.767	16558
725.882	16157
725.997	16469
726.113	16204
726.228	16889
726.343	16010
726.459	14071
726.574	15623
726.689	15775
726.804	16018
726.920	15150
727.035	15042
727.150	16291
727.265	15374
727.380	15083
727.495	16018
727.610	14868
727.725	14862
727.841	14764
727.956	16049
728.071	19412
728.186	16058
728.301	13587
728.416	15977
728.531	16151
728.645	14759
728.760	14141
728.875	15304
728.990	15218
729.105	15021
729.220	15062
729.335	14494
729.449	14982
729.564	15266
729.679	14680
729.794	15227
729.908	15020
730.023	14734
730.138	15075
730.253	15366
730.367	14617
730.482	16070
730.596	15541
730.711	16323
730.826	20359
730.940	25328
731.055	23208
731.169	19923
731.284	20539
731.398	20418
731.513	21836
731.627	22303
731.742	25749
731.856	35763
731.970	39982
732.085	43141
732.199	57409
732.313	87850
732.428	165929
732.542	443095
732.656	841281
732.771	296381
732.885	93476
732.999	60438
733.113	54278
733.227	52523
733.342	49334
733.456	46020
733.570	44358
733.684	42083
733.798	40082
733.912	39153
734.026	40134
734.140	38515
734.254	38844
734.368	35420
734.482	39058
734.596	38023
734.710	36299
734.824	35447
734.938	34487
735.052	35757
735.166	34866
735.280	34179
735.393	33844
735.507	33920
735.621	34392
735.735	33452
735.849	33599
735.962	33707
736.076	30670
736.190	32960
736.303	31599
736.417	33238
736.531	31804
736.644	30612
736.758	30870
736.872	30849
736.985	28736
737.099	31938
737.212	28038
737.326	30060
737.439	27867
737.553	31661
737.666	27852
737.780	28387
737.893	28586
738.007	28835
738.120	28952
738.233	27653
738.347	27452
738.460	26536
738.573	27335
738.687	28918
738.800	27371
738.913	27279
739.026	29355
739.140	26212
739.253	26439
739.366	27276
739.479	25791
739.592	26605
739.705	24418
739.818	24149
739.932	28126
740.045	24382
740.158	26945
740.271	23905
740.384	26886
740.497	23748
740.610	24398
740.723	24912
740.836	23200
740.949	24233
741.062	24639
741.174	26653
741.287	22698
741.400	24593
741.513	23540
741.626	22510
741.739	24713
741.851	22244
741.964	23370
742.077	24441
742.189	21359
742.302	21005
742.415	23322
742.527	22129
742.640	23025
742.753	21106
742.865	19071
742.978	23306
743.090	19942
743.203	20423
743.316	21737
743.428	18656
743.541	21594
743.653	19750
743.766	18912
743.878	20941
743.990	20856
744.103	19889
744.215	21173
744.327	19299
744.440	20053
744.552	22959
744.664	17486
744.777	20088
744.889	22184
745.001	18291
745.113	17653
745.226	21351
745.338	18679
745.450	18696
745.562	21087
745.674	17393
745.786	18010
745.898	21159
746.010	18580
746.122	18140
746.234	19129
746.347	18496
746.459	19363
746.570	17552
746.682	16179
746.794	20912
746.906	19103
747.018	17355
747.130	19436
747.242	18822
747.354	16112
747.466	18188
747.577	17538
747.689	17432
747.801	18693
747.913	17738
748.024	16191
748.136	16035
748.248	16807
748.359	15399
748.471	15252
748.583	17549
748.694	13507
748.806	16627
748.918	16868
749.029	15852
749.141	16538
749.252	17326
749.364	15864
749.475	14663
749.587	15829
749.698	14804
749.809	15146
749.921	15143
750.032	15631
750.144	14587
750.255	14268
750.366	13297
750.478	15162
750.589	14263
750.700	14814
750.811	14127
750.923	14838
751.034	12877
751.145	14825
751.256	15374
751.367	13846
751.479	13292
751.590	13882
751.701	14245
751.812	13439
751.923	12918
752.034	14034
752.145	16381
752.256	14678
752.367	14337
752.478	13168
752.589	14328
752.700	14396
752.811	13697
752.922	13310
753.032	14438
753.143	15156
753.254	14052
753.365	13568
753.476	16072
753.586	15139
753.697	13383
753.808	13600
753.919	13052
754.029	13013
754.140	13548
754.251	11938
754.361	12569
754.472	13806
754.582	14289
754.693	12367
754.804	14188
754.914	14472
755.025	11795
755.135	11032
755.246	13692
755.356	13483
755.466	12847
755.577	11178
755.687	12741
755.798	12257
755.908	11633
756.018	11664
756.129	12980
756.239	12675
756.349	13390
756.460	13611
756.570	14943
756.680	13995
756.790	12529
756.900	14025
757.011	13108
757.121	11813
757.231	11377
757.341	12612
757.451	11653
757.561	11035
757.671	11031
757.781	13477
757.891	13364
758.001	11483
758.111	11963
758.221	12897
758.331	14286
758.441	14160
758.551	12684
758.661	14393
758.771	14553
758.880	15100
758.990	14753
759.100	12952
759.210	13523
759.320	14495
759.429	14696
759.539	15553
759.649	16005
759.758	17017
759.868	19643
759.978	18615
760.087	20290
760.197	19961
760.307	21316
760.416	19961
760.526	18561
760.635	18036
760.745	19138
760.854	19864
760.964	22666
761.073	25088
761.182	23678
761.292	23113
761.401	19497
761.511	17630
761.620	16942
761.729	14849
761.839	14553
761.948	14651
762.057	13789
762.166	13826
762.276	14895
762.385	14281
762.494	14794
762.603	14929
762.712	14082
762.822	15942
762.931	14781
763.040	13873
763.149	14160
763.258	15436
763.367	15263
763.476	15265
763.585	15263
763.694	15944
763.803	16536
763.912	15889
764.021	16722
764.130	17427
764.238	18582
764.347	20310
764.456	21143
764.565	22370
764.674	22117
764.783	23007
764.891	23975
765.000	25875
765.109	28610
765.217	31527
765.326	35125
765.435	39274
765.543	47075
765.652	55710
765.761	69677
765.869	87660
765.978	121214
766.086	174020
766.195	267086
766.303	440521
766.412	662699
766.520	607522
766.629	592002
766.737	459891
766.846	288311
766.954	191387
767.062	134688
767.171	102341
767.279	79538
767.387	63367
767.496	52718
767.604	44981
767.712	39981
767.820	36603
767.928	33467
768.037	30826
768.145	29150
768.253	28064
768.361	26781
768.469	26902
768.577	25903
768.685	25884
768.793	28742
768.901	29423
769.009	32292
769.117	36407
769.225	43008
769.333	55608
769.441	77712
769.549	116663
769.657	198924
769.765	377662
769.873	603926
769.981	527814
770.088	408819
770.196	222616
770.304	133057
770.412	91176
770.519	68582
770.627	54902
770.735	46188
770.842	38185
770.950	35416
771.058	32066
771.165	30183
771.273	31069
771.380	29867
771.488	28710
771.595	36216
771.703	35027
771.810	32034
771.918	28184
772.025	30991
772.133	35311
772.240	37250
772.348	35647
772.455	38160
772.562	34563
772.670	33804
772.777	31602
772.884	32865
772.991	32056
773.099	30185
773.206	31144
773.313	30767
773.420	30667
773.528	29949
773.635	30208
773.742	29476
773.849	29670
773.956	27196
774.063	28287
774.170	27169
774.277	28477
774.384	26823
774.491	26450
774.598	26383
774.705	27267
774.812	25820
774.919	26298
775.026	26988
775.133	25033
775.239	27445
775.346	24459
775.453	24800
775.560	25514
775.667	23874
775.773	25649
775.880	23152
775.987	24250
776.093	22752
776.200	25846
776.307	24947
776.413	20558
776.520	21944
776.627	27940
776.733	20855
776.840	20572
776.946	22261
777.053	25685
777.159	21189
777.266	21184
777.372	21092
777.478	20610
777.585	23784
777.691	20604
777.798	18718
777.904	23968
778.010	18620
778.117	20126
778.223	21139
778.329	19663
778.435	19528
778.542	17857
778.648	21142
778.754	18561
778.860	18285
778.966	19790
779.072	18422
779.178	18419
779.284	18220
779.391	15035
779.497	19678
779.603	21432
779.708	19658
779.815	20438
779.920	27851
780.026	72543
780.132	69147
780.238	22075
780.344	17565
780.450	17217
780.556	20966
780.661	13684
780.767	18085
780.873	17947
780.979	11872
781.085	15616
781.190	18599
781.296	15513
781.402	15830
781.507	17695
781.613	15991
781.719	12556
781.824	18056
781.930	17303
782.035	14312
782.141	17457
782.246	17052
782.352	12534
782.457	13998
782.563	15235
782.668	15457
782.773	15653
782.879	13498
782.984	13554
783.090	15407
783.195	13650
783.300	16131
783.405	15994
783.511	12535
783.616	13850
783.721	13605
783.826	15265
783.932	12569
784.037	13013
784.142	13906
784.247	13619
784.352	12903
784.457	13118
784.562	10656
784.667	14761
784.772	14164
784.877	11000
784.982	11830
785.087	14896
785.192	13402
785.297	11218
785.402	12727
785.507	14031
785.611	12746
785.716	12286
785.821	10970
785.926	12110
786.031	12296
786.135	11621
786.240	12202
786.345	11111
786.450	10654
786.554	11739
786.659	12553
786.763	11809
786.868	12652
786.973	12299
787.077	12225
787.182	10315
787.286	10652
787.391	12735
787.495	12667
787.600	9047
787.704	8608
787.809	11712
787.913	11583
788.017	10628
788.122	11624
788.226	11719
788.330	9743
788.435	7742
788.539	11603
788.643	11892
788.747	9174
788.852	8886
788.956	10881
789.060	10232
789.164	10900
789.268	10205
789.372	10889
789.476	10506
789.580	10384
789.684	7367
789.788	10429
789.892	10876
789.996	10526
790.100	7462
790.204	8091
790.308	10441
790.412	12173
790.516	7771
790.620	6554
790.724	9903
790.828	12457
790.931	8198
791.035	7105
791.139	8730
791.242	8796
791.346	9853
791.450	8655
791.554	10221
791.657	7846
791.761	7421
791.864	8656
791.968	9005
792.072	10228
792.175	8621
792.279	7296
792.382	7792
792.486	8002
792.589	7186
792.693	9300
792.796	7837
792.899	7922
793.003	8917
793.106	8413
793.209	8891
793.313	8603
793.416	6208
793.519	6361
793.623	8081
793.726	9792
793.829	9278
793.932	7588
794.035	5203
794.138	7114
794.242	10198
794.345	9938
794.448	7552
794.551	8702
794.654	14151
794.757	35706
794.860	38805
794.963	8989
795.066	8224
795.169	8013
795.272	7770
795.375	7435
795.477	8654
795.580	5627
795.683	6150
795.786	6853
795.889	7429
795.991	8083
796.094	6692
796.197	7584
796.300	7826
796.402	8609
796.505	8339
796.608	7446
796.710	5415
796.813	6463
796.915	8354
797.018	8897
797.120	7882
797.223	7403
797.326	8313
797.428	7763
797.530	7170
797.633	6052
797.735	7160
797.838	8262
797.940	8692
798.042	8592
798.145	7131
798.247	6820
798.349	4936
798.452	5880
798.554	7640
798.656	7514
798.758	8296
798.860	8319
798.962	7403
799.065	6717
799.167	6217
799.269	6601
799.371	6118
799.473	8916
799.575	10481
799.677	8820
799.779	7452
799.881	6150
799.983	8050
800.085	7333
800.187	5987
800.289	5647
800.390	6024
800.492	6451
800.594	8433
800.696	6260
800.798	5179
800.899	5717
801.001	5419
801.103	7704
801.205	6216
801.306	6872
801.408	6409
801.509	6329
801.611	6258
801.713	6422
801.814	5963
801.916	4303
802.017	4671
802.119	4350
802.220	4549
802.322	5754
802.423	6754
802.525	5076
802.626	4826
802.727	5393
802.829	5959
802.930	5007
803.031	4937
803.133	5127
803.234	6032
803.335	6234
803.436	5752
803.538	4442
803.639	4656
803.740	4924
803.841	5163
803.942	5814
804.043	6191
804.144	4988
804.245	4940
804.346	5652
804.447	5229
804.548	4814
804.649	6081
804.750	4988
804.851	4593
804.952	4556
805.053	4980
805.154	4678
805.255	5389
805.355	4431
805.456	4742
805.557	4788
805.658	4086
805.758	4911
805.859	4651
805.960	4581
806.061	5478
806.161	4475
806.262	5186
806.362	3960
806.463	3717
806.564	5424
806.664	5850
806.765	4311
806.865	4720
806.966	4608
807.066	3444
807.166	4760
807.267	5605
807.367	5492
807.468	4446
807.568	4334
807.668	3957
807.769	4732
807.869	4886
807.969	5120
808.069	4848
808.170	3930
808.270	3870
808.370	4821
808.470	4304
808.570	4923
808.670	4987
808.770	5357
808.870	3755
808.970	4579
809.070	4441
809.170	3321
809.271	4352
809.370	4743
809.470	4650
809.570	3865
809.670	3541
809.770	3836
809.870	3856
809.970	4687
810.070	3847
810.169	4948
810.269	3635
810.369	4569
810.469	3853
810.568	4942
810.668	4673
810.768	3782
810.867	3531
810.967	4574
811.066	3367
811.166	3973
811.265	4399
811.365	3957
811.464	4390
811.564	4763
811.663	4374
811.763	4486
811.862	4239
811.962	4773
812.061	4300
812.160	4129
812.260	4728
812.359	3855
812.458	3793
812.557	5043
812.657	7446
812.756	7248
812.855	5325
812.954	4662
813.053	4176
813.153	3948
813.252	4016
813.351	4405
813.450	4886
813.549	3615
813.648	4430
813.747	4337
813.846	4424
813.945	5361
814.044	5553
814.143	4998
814.242	5039
814.341	4591
814.439	5332
814.538	4954
814.637	5663
814.736	5426
814.835	6042
814.933	5654
815.032	6067
815.131	8191
815.229	11277
815.328	20974
815.427	24889
815.525	18294
815.624	15419
815.722	15724
815.821	17370
815.919	16944
816.018	17546
816.116	17230
816.215	17149
816.313	16699
816.412	17921
816.510	22199
816.609	21651
816.707	21714
816.805	24037
816.904	21191
817.002	22977
817.100	22284
817.198	21832
817.296	23332
817.395	20436
817.493	22220
817.591	19551
817.689	20494
817.787	18564
817.885	21642
817.983	19571
818.081	17908
818.179	18067
818.277	18871
818.375	23854
818.473	19262
818.571	17536
818.669	15945
818.767	21421
818.865	19722
818.963	17671
819.061	14927
819.158	18176
819.256	19030
819.354	19508
819.452	18958
819.549	22721
819.647	20725
819.745	18464
819.842	14727
819.940	16255
820.038	17566
820.135	17480
820.233	15437
820.330	16610
820.428	15587
820.525	16657
820.623	17306
820.720	14640
820.818	15694
820.915	15880
821.012	16311
821.110	14855
821.207	15117
821.304	14883
821.402	14456
821.499	17708
821.596	14841
821.693	11550
821.791	15362
821.888	13967
821.985	14595
822.082	16153
822.179	13029
822.276	14844
822.373	16659
822.470	11465
822.567	14258
822.664	13997
822.761	12945
822.858	13394
822.955	15240
823.052	12231
823.149	12136
823.246	13938
823.343	14308
823.440	11033
823.536	10558
823.633	15414
823.730	13441
823.827	11377
823.923	13203
824.020	12385
824.117	11464
824.213	15006
824.310	14539
824.407	11630
824.503	11433
824.600	13945
824.696	10875
824.793	11871
824.889	13375
824.986	14539
825.082	10316
825.179	9599
825.275	11213
825.371	14541
825.468	15004
825.564	9026
825.660	8689
825.757	13355
825.853	14851
825.949	9558
826.045	9768
826.142	9681
826.238	12484
826.334	11824
826.430	11915
826.526	11049
826.622	6604
826.718	9035
826.814	13334
826.910	14637
827.006	8745
827.102	7073
827.198	9094
827.294	10753
827.390	12711
827.486	11604
827.582	7590
827.678	7002
827.774	10003
827.869	12746
827.965	8018
828.061	7668
828.157	8928
828.252	11921
828.348	11595
828.444	9229
828.539	7227
828.635	9638
828.731	9619
828.826	9425
828.922	9484
829.017	10230
829.113	12713
829.208	11598
829.304	7786
829.399	11443
829.495	12827
829.590	10881
829.685	7872
829.781	10098
829.876	11268
829.971	10843
830.066	5899
830.162	5366
830.257	10411
830.352	13728
830.447	8776
830.543	6262
830.638	7507
830.733	11974
830.828	10871
830.923	8961
831.018	8549
831.113	9456
831.208	10873
831.303	6203
831.398	6281
831.493	5809
831.588	9564
831.683	12066
831.778	7482
831.873	5548
831.967	7518
832.062	9104
832.157	10118
832.252	8617
832.346	7163
832.441	7828
832.536	10593
832.631	8568
832.725	8236
832.820	6419
832.914	8328
833.009	7997
833.104	6928
833.198	5396
833.293	5807
833.387	8795
833.482	9318
833.576	7885
833.670	9268
833.765	7688
833.859	8786
833.954	10807
834.048	8599
834.142	7621
834.237	6351
834.331	6460
834.425	7088
834.519	8319
834.613	6835
834.708	5580
834.802	6327
834.896	6111
834.990	7913
835.084	7118
835.178	5834
835.272	5125
835.366	7213
835.460	9532
835.554	8573
835.648	6267
835.742	4776
835.836	4383
835.930	4612
836.024	7104
836.117	7482
836.211	6458
836.305	6379
836.399	5460
836.493	5432
836.586	7039
836.680	6210
836.774	6945
836.867	6185
836.961	3891
837.055	5498
837.148	5512
837.242	5708
837.335	6375
837.429	5720
837.522	4847
837.616	5165
837.709	5389
837.803	5445
837.896	6403
837.989	7564
838.083	7125
838.176	3908
838.269	4427
838.363	5148
838.456	4349
838.549	5845
838.642	6151
838.735	5931
838.829	4238
838.922	5115
839.015	4936
839.108	5320
839.201	5030
839.294	5840
839.387	5646
839.480	3789
839.573	4314
839.666	4779
839.759	4468
839.852	4173
839.945	4473
840.038	5652
840.131	3973
840.223	3716
840.316	4378
840.409	5482
840.502	6170
840.594	8011
840.687	5238
840.780	3077
840.873	2138
840.965	4109
841.058	4024
841.150	5751
841.243	6536
841.336	3841
841.428	4119
841.521	3768
841.613	3783
841.706	5336
841.798	4144
841.890	4182
841.983	4383
842.075	3245
842.167	3515
842.260	4224
842.352	5579
842.444	6458
842.537	5289
842.629	3684
842.721	4021
842.813	4180
842.905	4384
842.997	4282
843.090	4700
843.182	5220
843.274	3576
843.366	4968
843.458	5311
843.550	8543
843.642	6611
843.734	4336
843.826	4251
843.918	3348
844.009	3340
844.101	4060
844.193	4618
844.285	4650
844.377	5747
844.469	6138
844.560	3582
844.652	2342
844.744	2880
844.835	3534
844.927	4131
845.019	5386
845.110	4277
845.202	3919
845.293	4305
845.385	2753
845.476	3350
845.568	4516
845.659	3962
845.751	3476
845.842	3053
845.934	3540
846.025	3955
846.116	3910
846.208	3157
846.299	3115
846.390	3928
846.482	3223
846.573	3441
846.664	4286
846.755	3477
846.846	4455
846.937	3476
847.029	3135
847.120	3478
847.211	2831
847.302	4852
847.393	3687
847.484	4636
847.575	3220
847.666	2218
847.757	3585
847.847	2842
847.938	4807
848.029	3866
848.120	4082
848.211	3414
848.302	3533
848.392	2769
848.483	2697
848.574	3103
848.664	4277
848.755	4477
848.846	4067
848.936	3777
849.027	3693
849.118	4052
849.208	4140
849.299	4278
849.389	6050
849.480	11248
849.570	19985
849.661	36366
849.751	67788
849.841	88959
849.932	29688
850.022	8074
850.112	6267
850.203	4744
850.293	5050
850.383	3804
850.474	3300
850.564	3075
850.654	3273
850.744	2593
850.834	3885
850.924	3493
851.014	4135
851.104	5204
851.194	4730
851.284	3878
851.374	2977
851.464	3757
851.554	3380
851.644	3321
851.734	3983
851.824	4415
851.914	4519
852.004	4667
852.094	4857
852.183	4117
852.273	3237
852.363	3288
852.452	3261
852.542	4258
852.632	3274
852.721	3384
852.811	3495
852.901	3907
852.990	5399
853.080	5248
853.169	5402
853.259	4660
853.348	5558
853.438	6490
853.527	7447
853.617	9733
853.706	14079
853.795	23438
853.885	40099
853.974	72469
854.063	121511
854.152	200879
854.242	220417
854.331	101858
854.420	37253
854.509	19458
854.598	14147
854.687	11228
854.777	9386
854.866	7326
854.955	6526
855.044	4662
855.133	5218
855.222	4650
855.311	4343
855.400	4901
855.488	3478
855.577	3222
855.666	3830
855.755	3310
855.844	3469
855.933	3467
856.021	4896
856.110	3923
856.199	3541
856.288	3080
856.376	2917
856.465	2882
856.554	2916
856.642	3262
856.731	4849
856.819	3550
856.908	3303
856.996	3895
857.085	2347
857.173	2583
857.262	2840
857.350	2546
857.438	2333
857.527	2618
857.615	2930
857.703	3567
857.792	2868
857.880	3640
857.968	2311
858.056	2945
858.145	3507
858.233	2705
858.321	3227
858.409	3446
858.497	2645
858.585	2964
858.673	2942
858.761	2673
858.849	2224
858.937	2589
859.025	2690
859.113	2405
859.201	2948
859.289	4460
859.377	3813
859.465	3363
859.552	2377
859.640	2409
859.728	2419
859.816	3539
859.903	3073
859.991	1846
860.079	2910
860.166	3483
860.254	2763
860.342	2616
860.429	2771
860.517	3374
860.604	2971
860.692	2781
860.779	1363
860.867	1900
860.954	3590
861.042	3602
861.129	3692
861.216	3957
861.304	3901
861.391	4098
861.478	3394
861.565	3217
861.653	3625
861.740	1751
861.827	2309
861.914	2966
862.001	2402
862.089	3245
862.176	3654
862.263	2999
862.350	2857
862.437	2916
862.524	2700
862.611	3475
862.698	3678
862.785	3712
862.871	4668
862.958	4800
863.045	4913
863.132	4384
863.219	3116
863.306	3325
863.392	3592
863.479	3331
863.566	4092
863.652	3988
863.739	4255
863.826	4076
863.912	4150
863.999	3873
864.086	4383
864.172	4978
864.259	4577
864.345	5833
864.432	5314
864.518	5647
864.604	5449
864.691	5699
864.777	5768
864.863	6573
864.950	8266
865.036	10999
865.122	15769
865.209	24559
865.295	25345
865.381	22500
865.467	21546
865.553	21031
865.639	23009
865.726	26739
865.812	35029
865.898	54501
865.984	79356
866.070	110717
866.156	172159
866.242	150391
866.328	64199
866.414	33723
866.499	24547
866.585	21856
866.671	20016
866.757	19637
866.843	19512
866.928	18172
867.014	18367
867.100	17370
867.186	17103
867.271	17578
867.357	16498
867.442	16881
867.528	17198
867.614	16282
867.699	16327
867.785	16813
867.870	15478
867.956	16013
868.041	15995
868.127	15424
868.212	14809
868.297	15669
868.383	15629
868.468	15422
868.553	14874
868.639	15913
868.724	14159
868.809	15381
868.894	15593
868.979	13627
869.065	14588
869.150	14836
869.235	13387
869.320	13785
869.405	15651
869.490	12605
869.575	15969
869.660	14264
869.745	12763
869.830	15483
869.915	16655
870.000	12433
870.085	12965
870.169	11457
870.254	16766
870.339	15100
870.424	10804
870.509	11239
870.593	13156
870.678	15728
870.763	14491
870.847	13163
870.932	11212
871.016	14108
871.101	12771
871.186	10086
871.270	14098
871.355	14497
871.439	10903
871.523	11944
871.608	14201
871.692	9623
871.777	11624
871.861	13835
871.945	13199
872.030	11297
872.114	11910
872.198	11302
872.282	10130
872.367	11228
872.451	10913
872.535	11231
872.619	11245
872.703	10986
872.787	10927
872.871	13050
872.955	12649
873.039	8883
873.123	8829
873.207	12419
873.291	11958
873.375	7869
873.459	10833
873.543	12177
873.627	11157
873.711	9995
873.794	9519
873.878	11826
873.962	9750
874.045	9030
874.129	9802
874.137	9875
874.213	10600
874.245	10792
874.296	11121
874.352	10067
874.380	9554
874.460	8666
874.464	8633
874.547	9478
874.568	9445
874.631	9351
874.676	9617
874.714	9835
874.784	10328
874.798	10428
874.881	10691
874.892	10222
874.965	7024
874.999	7403
875.048	7933
875.107	9431
875.131	10022
875.215	9581
875.215	9578
875.298	6977
875.323	6794
875.381	6496
875.430	8641
875.465	10095
875.538	10904
875.548	11014
875.631	9225
875.646	8816
875.714	6817
875.753	6448
875.798	6106
875.861	7913
875.881	8462
875.964	9427
875.968	9329
876.047	7543
876.076	7465
876.130	7410
876.183	7912
876.213	8198
876.291	8853
876.296	8886
876.379	8198
876.398	8061
876.462	7568
876.506	6810
876.545	6173
876.613	6504
876.628	6590
876.711	6506
876.721	6626
876.794	7642
876.828	8153
876.877	8655
876.935	8329
876.960	8182
877.043	5633
877.043	5638
877.125	6700
877.150	7013
877.208	7642
877.258	8470
877.291	8945
877.365	6330
877.374	6024
877.456	5902
877.472	5889
877.539	6068
877.579	5889
877.622	5640
877.687	8450
877.704	9166
877.787	7589
877.794	7562
877.869	7428
877.901	7625
877.952	7896
878.008	6972
878.034	6375
878.115	4936
878.117	4917
878.199	5435
878.222	5550
878.282	5818
878.329	6666
878.364	7287
878.437	7806
878.447	7830
878.529	6418
878.544	6223
878.611	5211
878.651	4578
878.694	4246
878.758	6184
878.776	6683
878.858	6674
878.865	6713
878.941	6605
878.972	6124
879.023	5588
879.078	5302
879.105	5219
879.185	6465
879.187	6490
879.269	7296
879.292	7159
879.351	6473
879.399	6381
879.433	6326
879.506	5177
879.516	5050
879.598	5586
879.613	5523
879.680	5150
879.720	5256
879.762	5388
879.827	5795
879.844	5877
879.926	5187
879.933	5183
880.007	5417
880.040	5776
880.089	5972
880.147	4793
880.171	4503
880.253	6372
880.254	6375
880.335	5679
880.360	5684
880.417	5997
880.467	6742
880.499	7304
880.574	7621
880.580	7607
880.662	7528
880.680	7424
880.744	6752
880.787	5468
880.825	4348
880.893	4604
880.907	4771
880.989	5069
881.000	5050
881.070	4601
881.106	4979
881.152	5450
881.213	5316
881.233	5161
881.315	3867
881.319	3908
881.396	5376
881.426	5237
881.478	4583
881.532	4887
881.559	5195
881.639	6349
881.641	6354
881.722	5023
881.745	4767
881.803	4603
881.852	5178
881.885	5348
881.958	4946
881.966	4906
882.047	3600
882.064	3774
882.129	4521
882.171	4355
882.210	4047
882.277	3272
882.291	3155
882.372	3613
882.383	3752
882.454	5169
882.489	5562
882.535	5904
882.596	5703
882.616	5589
882.697	6053
882.702	6010
882.778	4515
882.808	4167
882.859	4012
882.914	4133
882.940	4052
883.020	3992
883.021	3994
883.102	4435
883.127	4711
883.183	5403
883.233	6173
883.264	6300
883.339	4891
883.345	4751
883.426	3300
883.445	3137
883.507	2763
883.551	2655
883.587	3012
883.657	4000
883.668	4177
883.749	5046
883.763	5121
883.830	4373
883.869	3744
883.910	3099
883.975	2728
883.991	2860
884.072	3963
884.081	4031
884.152	4317
884.187	4603
884.233	5108
884.292	5797
884.314	5782
884.394	4313
884.398	4263
884.475	2513
884.504	2128
884.555	2361
884.610	2531
884.636	2618
884.716	3037
884.716	3042
884.797	4704
884.821	5147
884.877	5665
884.927	5401
884.958	4741
885.033	3481
885.038	3454
885.118	3241
885.139	3217
885.199	2851
885.244	2670
885.279	2838
885.350	3170
885.359	3288
885.439	4898
885.456	5039
885.520	4963
885.561	4942
885.600	4326
885.667	3008
885.680	2884
885.760	3272
885.773	3241
885.840	3400
885.878	3345
885.920	2968
885.984	2622
886.000	2732
886.080	3619
886.089	3701
886.160	3584
886.195	3520
886.240	3922
886.300	4304
886.320	4153
886.400	3647
886.406	3604
886.480	3379
886.511	3310
886.560	3122
886.616	3180
886.640	3261
886.720	3350
886.722	3351
886.800	2613
886.827	2416
886.879	2935
886.932	3459
886.959	3646
887.038	4386
887.039	4383
887.119	4115
887.143	4027
887.198	3728
887.248	3582
887.278	3515
887.354	3249
887.358	3235
887.437	2876
887.459	2858
887.517	3344
887.564	3794
887.596	3796
887.669	3469
887.676	3371
887.755	2271
887.774	2029
887.835	1791
887.880	1765
887.914	2280
887.985	3188
887.994	3271
888.073	3999
888.090	4223
888.153	5253
888.195	5667
888.232	5029
888.300	3854
888.311	3674
888.391	2615
888.405	2434
888.470	2477
888.510	2436
888.549	2717
888.615	3329
888.628	3302
888.708	3182
888.720	3159
888.787	3779
888.825	4075
888.866	3324
888.930	2180
888.945	2220
889.024	2544
889.035	2600
889.103	3092
889.140	3301
889.182	3266
889.245	3230
889.261	3073
889.340	2413
889.349	2337
889.419	2951
889.454	3276
889.498	2672
889.559	1836
889.577	2042
889.656	3008
889.664	3110
889.735	3718
889.768	4004
889.814	3661
889.873	3202
889.978	2913
890.083	3139
890.187	2723
890.292	3714
890.397	2625
890.501	3537
890.606	1704
890.710	2598
890.815	2936
890.919	4115
891.024	2014
891.128	2871
891.233	2462
891.337	3011
891.442	3428
891.546	2937
891.650	2664
891.755	2317
891.859	2639
891.963	3902
892.068	3134
892.172	3612
892.276	1274
892.380	2092
892.484	3246
892.589	4329
892.693	3289
892.797	2778
892.901	1965
893.005	1689
893.109	2260
893.213	4697
893.317	3403
893.421	1655
893.525	1232
893.629	1785
893.733	2528
893.837	3447
893.941	1778
894.045	3115
894.148	1671
894.252	1810
894.356	2664
894.460	4531
894.564	2965
894.667	2066
894.771	2059
894.875	1297
894.978	1778
895.082	3086
895.186	3251
895.289	3100
895.393	2533
895.496	2210
895.600	3769
895.703	2665
895.807	1710
895.910	2690
896.014	2220
896.117	2301
896.221	2280
896.324	3341
896.427	1613
896.531	2218
896.634	1814
896.737	3366
896.840	1918
896.944	2874
897.047	3283
897.150	2556
897.253	2357
897.356	1435
897.460	1255
897.563	2004
897.666	2048
897.769	4025
897.872	1750
897.975	1810
898.078	2189
898.181	1865
898.284	1640
898.387	2369
898.490	3719
898.593	2345
898.695	1375
898.798	2216
898.901	1516
899.004	1759
899.107	2047
899.209	2136
899.312	3160
899.415	3522
899.518	1394
899.620	750
899.723	1404
899.826	1119
899.928	1208
900.031	1822
900.133	2281
900.236	2960
900.338	2419
900.441	1237
900.543	1509
900.646	2222
900.748	1823
900.851	2867
900.953	2417
901.055	1895
901.158	1160
901.260	1840
901.362	932
901.465	2312
901.567	2388
901.669	2803
901.771	2105
901.873	2084
901.976	1527
902.078	2137
902.180	1531
902.282	1504
902.384	1133
902.486	2748
902.588	3108
902.690	2242
902.792	1580
902.894	1387
902.996	2297
903.098	3084
903.200	1846
903.302	1028
903.404	1144
903.505	1413
903.607	1160
903.709	2336
903.811	3307
903.913	2553
904.014	1708
904.116	810
904.218	913
904.319	2084
904.421	2448
904.523	3269
904.624	1983
904.726	1579
904.827	747
904.929	1311
905.030	1983
905.132	1929
905.233	3150
905.335	2372
905.436	794
905.537	1733
905.639	989
905.740	1933
905.841	2287
905.943	2250
906.044	281
906.145	2245
906.247	855
906.348	1483
906.449	1783
906.550	2414
906.651	2021
906.752	1474
906.854	1004
906.955	1959
907.056	1835
907.157	2818
907.258	2607
907.359	1800
907.460	1070
907.561	1037
907.662	978
907.762	1095
907.863	1904
907.964	2405
908.065	1931
908.166	1367
908.267	1247
908.367	2394
908.468	1806
908.569	1536
908.670	1991
908.770	2043
908.871	1801
908.971	2967
909.072	2179
909.173	2116
909.273	1304
909.374	1564
909.474	2197
909.575	1365
909.675	1279
909.776	1938
909.876	1497
909.977	1529
910.077	1314
910.177	2449
910.278	2353
910.378	2787
910.478	1439
910.579	2051
910.679	1696
910.779	2457
910.879	2072
910.980	1921
911.080	862
911.180	2104
911.280	821
911.380	1355
911.480	1066
911.580	1645
911.680	1344
911.780	2061
911.880	1804
911.980	1127
912.080	1709
912.180	2096
912.280	1273
912.380	2178
912.480	1467
912.580	1341
912.679	1013
912.779	2310
912.879	2558
912.979	2934
913.078	1074
913.178	2097
913.278	1338
913.377	1242
913.477	1401
913.577	2187
913.676	2285
913.776	2510
913.875	2198
913.975	1655
914.074	2006
914.174	2443
914.273	1227
914.373	1874
914.472	1339
914.572	1657
914.671	934
914.770	1112
914.870	1404
914.969	1617
915.068	1540
915.167	2493
915.267	1539
915.366	2393
915.465	1727
915.564	2340
915.663	1729
915.763	2237
915.862	2406
915.961	2411
916.060	1592
916.159	1234
916.258	1091
916.357	1611
916.456	1841
916.555	2534
916.654	2109
916.752	1492
916.851	2461
916.950	1961
917.049	1526
917.148	1435
917.247	1223
917.345	1453
917.444	1497
917.543	1969
917.642	1299
917.740	2911
917.839	2433
917.937	2768
918.036	3153
918.135	2324
918.233	1586
918.332	1506
918.430	1301
918.529	2153
918.627	980
918.726	2697
918.824	2235
918.923	1667
919.021	1796
919.119	2008
919.218	1437
919.316	2004
919.414	2117
919.512	1939
919.611	2219
919.709	2526
919.807	1893
919.905	3840
920.003	3439
920.102	3375
920.200	2655
920.298	2901
920.396	3039
920.494	2461
920.592	2362
920.690	3029
920.788	1887
920.886	2812
920.984	3043
921.082	2489
921.180	3824
921.277	3995
921.375	3977
921.473	4770
921.571	5972
921.669	6024
921.766	4996
921.864	5183
921.962	4625
922.060	4883
922.157	5056
922.255	5310
922.352	4322
922.450	5156
922.548	6051
922.645	6306
922.743	6512
922.840	9644
922.938	15671
923.035	14616
923.133	12853
923.230	13560
923.327	16139
923.425	17148
923.522	16501
923.619	15758
923.717	14334
923.814	13641
923.911	12919
924.008	13107
924.106	12770
924.203	12185
924.300	12250
924.397	13787
924.494	12522
924.591	13396
924.688	11980
924.786	12982
924.883	12431
924.979	12605
925.077	12804
925.173	11422
925.270	12064
925.367	12089
925.464	12770
925.561	13633
925.658	13664
925.755	11813
925.852	12267
925.948	13766
926.045	11886
926.142	12293
926.239	13286
926.335	12330
926.432	10736
926.529	12397
926.625	12824
926.722	13176
926.818	9178
926.915	12014
927.011	12100
927.108	11673
927.204	11417
927.301	11271
927.397	11032
927.494	13749
927.590	11393
927.687	6989
927.783	11616
927.879	11987
927.976	11599
928.072	10186
928.168	10562
928.264	11954
928.361	11001
928.457	11636
928.553	11886
928.649	9701
928.745	11893
928.841	10342
928.937	9662
929.033	10338
929.129	9719
929.225	11151
929.321	12326
929.417	9037
929.513	9896
929.609	11256
929.705	9695
929.801	10111
929.897	9828
929.993	9488
930.089	10189
930.184	9602
930.280	8812
930.376	11069
930.471	12404
930.567	8258
930.663	8593
930.758	9454
930.854	9052
930.950	9858
931.045	9140
931.141	8273
931.236	9664
931.332	11491
931.427	7945
931.523	8756
931.618	10430
931.714	8832
931.809	6625
931.905	9989
932.000	8805
932.095	5829
932.191	7809
932.286	10880
932.381	11191
932.476	8520
932.572	7809
932.667	9274
932.762	6615
932.857	7116
932.952	9035
933.047	10749
933.142	7803
933.237	7995
933.332	9339
933.427	9227
933.522	9643
933.617	7226
933.712	7584
933.807	8545
933.902	9782
933.997	11821
934.092	9628
934.187	6516
934.282	8285
934.376	7881
934.471	8905
934.566	7847
934.661	6964
934.755	7901
934.850	8974
934.945	9047
935.039	6952
935.134	6412
935.228	5872
935.323	10316
935.417	11611
935.512	5070
935.606	4971
935.701	6671
935.795	8152
935.890	8692
935.984	6709
936.079	6227
936.173	5486
936.267	7276
936.362	6353
936.456	6749
936.550	7622
936.644	8864
936.738	6618
936.833	4658
936.927	4852
937.021	5441
937.115	7516
937.209	7940
937.303	8008
937.397	6350
937.491	5210
937.585	6980
937.679	7678
937.773	6234
937.867	5327
937.961	4717
938.055	5683
938.149	9669
938.243	5617
938.337	3605
938.430	5379
938.524	6883
938.618	6773
938.712	5665
938.805	5554
938.899	5348
938.993	7105
939.086	8425
939.180	4327
939.274	4568
939.367	5970
939.461	7096
939.554	6265
939.648	5678
939.741	4639
939.835	4888
939.928	6950
940.022	9177
940.115	7060
940.208	6686
940.302	7919
940.395	8780
940.488	6873
940.582	5702
940.675	4499
940.768	4154
940.861	5152
940.954	7359
941.048	6007
941.141	3659
941.234	4148
941.327	5479
941.420	4848
941.513	6939
941.606	5604
941.699	4338
941.792	4864
941.885	7797
941.978	5093
942.071	6202
942.164	5191
942.257	3940
942.349	4493
942.442	5440
942.535	4886
942.628	4233
942.721	4876
942.813	5081
942.906	4829
942.999	4958
943.091	4090
943.184	4097
943.277	4658
943.369	5116
943.462	3356
943.554	3771
943.647	3710
943.739	4866
943.832	5832
943.924	5639
944.017	3054
944.109	3514
944.201	4197
944.294	4557
944.386	3696
944.478	5593
944.571	3841
944.663	3952
944.755	4137
944.847	4481
944.940	5159
945.032	3756
945.124	2370
945.216	3256
945.308	4201
945.400	4882
945.492	4186
945.584	4249
945.676	5193
945.768	5714
945.860	4458
945.952	6069
946.044	5595
946.136	4752
946.228	3119
946.320	3087
946.412	4391
946.503	4510
946.595	5459
946.687	4230
946.779	2681
946.870	3280
946.962	3318
947.054	4323
947.145	3336
947.237	5071
947.329	2854
947.420	3786
947.512	4523
947.603	3174
947.695	2530
947.786	3316
947.878	3424
947.969	3894
948.061	3590
948.152	5724
948.243	2683
948.335	2294
948.426	2674
948.517	3279
948.609	3757
948.700	3447
948.791	3796
948.882	3217
948.973	2363
949.065	2428
949.156	3699
949.247	3241
949.338	3572
949.429	2456
949.520	2259
949.611	2146
949.702	2599
949.793	3855
949.884	2349
949.975	3262
950.066	2431
950.157	2898
950.247	2120
950.338	3280
950.429	1711
950.520	2610
950.611	2060
950.701	2285
950.792	4170
950.883	6060
950.973	3769
951.064	3392
951.155	4265
951.245	4700
951.336	4445
951.427	3257
951.517	4293
951.608	5250
951.698	3394
951.788	3774
951.879	1620
951.969	2071
952.060	2451
952.150	2249
952.240	3381
952.331	3875
952.421	4344
952.511	3362
952.602	1989
952.692	1036
952.782	1695
952.872	2292
952.962	2783
953.052	2968
953.143	2562
953.233	2375
953.323	2708
953.413	3878
953.503	3910
953.593	3961
953.683	3462
953.773	2589
953.863	1869
953.953	1931
954.042	2262
954.132	2981
954.222	3319
954.312	2908
954.402	1968
954.492	2311
954.581	2135
954.671	3532
954.761	3078
954.850	3327
954.940	1956
955.030	1779
955.119	2081
955.209	2436
955.298	1617
955.388	3450
955.477	2264
955.567	2223
955.656	1321
955.746	2857
955.835	2387
955.925	2023
956.014	1896
956.103	3012
956.193	3625
956.282	3940
956.371	3296
956.461	2900
956.550	2778
956.639	3216
956.728	2776
956.817	2252
956.906	2055
956.995	2947
957.085	2767
957.174	2734
957.263	2149
957.352	1957
957.441	2585
957.530	2658
957.619	1972
957.708	1159
957.796	2057
957.885	2300
957.974	1744
958.063	1479
958.152	1481
958.241	2488
958.329	1547
958.418	1749
958.507	2109
958.596	2892
958.684	2595
958.773	1348
958.861	2114
958.950	1017
959.039	1534
959.127	1487
959.216	1689
959.304	3536
959.393	1788
959.481	3273
959.570	2240
959.658	1864
959.746	1374
959.835	1508
959.923	1452
960.011	2254
960.100	1440
960.188	2426
960.276	2075
960.365	1902
960.453	1454
960.541	1099
960.629	1177
960.717	1417
960.805	763
960.893	766
960.981	1247
961.069	2709
961.158	2503
961.245	3450
961.333	3114
961.421	3394
961.509	1995
961.597	1856
961.685	2704
961.773	1680
961.861	1781
961.949	2400
962.036	1689
962.124	1912
962.212	830
962.299	1628
962.387	1809
962.475	1800
962.562	804
962.650	1705
962.738	1941
962.825	1517
962.913	861
963.000	790
963.088	1312
963.175	2543
963.263	2136
963.350	869
963.438	1842
963.525	1410
963.612	1411
963.700	1961
963.787	2044
963.874	3372
963.962	1366
964.049	1293
964.136	1123
964.223	1585
964.310	1516
964.398	1162
964.485	1291
964.572	1330
964.659	1156
964.746	2065
964.833	1359
964.920	1471
965.007	1744
965.094	978
965.181	111
965.268	2501
965.355	1740
965.441	1470
965.528	1569
965.615	1579
965.702	1981
965.789	1897
965.875	1710
965.962	2897
966.049	1668
966.136	1965
966.222	2356
966.309	2641
966.395	2217
966.482	3186
966.569	1685
966.655	2476
966.742	2288
966.828	1275
966.915	742
967.001	2055
967.087	511
967.174	949
967.260	1603
967.347	2047
967.433	1655
967.519	2359
967.605	2166
967.692	1738
967.778	1712
967.864	1476
967.950	1246
968.036	1109
968.123	968
968.209	1925
968.295	1413
968.381	1348
968.467	647
968.553	1133
968.639	1499
968.725	1056
968.811	2637
968.897	3849
968.983	1999
969.069	1839
969.154	1101
969.240	1842
969.326	949
969.412	488
969.497	828
969.583	745
969.669	632
969.755	1804
969.840	885
969.926	2387
970.012	4445
970.097	5439
970.183	6237
970.268	4744
970.354	2691
970.439	1600
970.525	1666
970.610	1443
970.696	2039
970.781	1784
970.866	872
970.952	1398
971.037	1099
971.122	1291
971.208	2155
971.293	1499
971.378	1581
971.463	1682
971.549	1523
971.634	662
971.719	269
971.804	1855
971.889	1736
971.974	708
972.059	1523
972.144	951
972.229	965
972.314	741
972.399	1571
972.484	1054
972.569	654
972.654	1118
972.739	1282
972.824	1419
972.908	1392
972.993	1357
973.078	-10
973.163	1502
973.247	697
973.332	829
973.417	861
973.501	1043
973.586	1084
973.671	1280
973.755	937
973.840	1183
973.924	1189
974.009	2325
974.093	2140
974.178	2672
974.262	2011
974.346	2363
974.431	1474
974.515	1879
974.600	1301
974.684	959
974.768	1931
974.852	2217
974.937	1366
975.021	2130
975.105	1187
975.189	1715
975.273	396
975.358	920
975.442	390
975.526	475
975.610	853
975.694	1731
975.778	1472
975.862	1796
975.946	182
976.030	1693
976.114	1591
976.198	1363
976.281	809
976.365	1744
976.449	1133
976.533	785
976.617	1341
976.700	1510
976.784	536
976.868	577
976.951	859
977.035	1243
977.119	883
977.202	765
977.286	110
977.369	1737
977.453	2730
977.536	3561
977.620	2774
977.703	2953
977.787	1228
977.870	2661
977.953	2182
978.037	2001
978.120	559
978.203	1593
978.287	1289
978.370	2360
978.453	1488
978.536	1751
978.620	650
978.703	1848
978.786	1308
978.869	911
978.952	-509
979.035	1600
979.118	1764
979.201	1586
979.284	1362
979.367	1337
979.450	1370
979.533	1715
979.616	1000
979.699	953
979.782	1170
979.865	1279
979.948	549
980.030	1307
980.113	1337
980.196	505
980.279	1362
980.361	1204
980.444	293
980.526	1550
980.609	2198
980.692	3459
980.774	3926
980.857	3330
980.939	2068
981.022	2327
981.104	1795
981.187	1719
981.269	1469
981.352	2831
981.434	1640
981.516	2309
981.599	2176
981.681	1567
981.763	1927
981.846	1539
981.928	1131
982.010	1678
982.092	1256
982.174	2027
982.256	1747
982.339	1988
982.421	1171
982.503	1482
982.585	1193
982.667	506
982.749	924
982.831	1751
982.913	1350
982.995	2633
983.077	1517
983.158	2106
983.240	2156
983.322	1302
983.404	2710
983.486	4503
983.568	4235
983.649	2981
983.731	2807
983.813	2947
983.894	1994
983.976	1946
984.058	1822
984.139	2796
984.221	2253
984.302	2409
984.384	2132
984.465	1857
984.547	1837
984.628	1812
984.710	1277
984.791	1901
984.872	2083
984.954	2072
985.035	2324
985.116	3329
985.198	1723
985.279	2073
985.360	2866
985.441	2457
985.522	2583
985.604	2356
985.685	1252
985.766	3291
985.847	1660
985.928	2142
986.009	2282
986.090	1849
986.171	1953
986.252	2294
986.333	2505
986.414	2618
986.495	1925
986.576	2234
986.656	2534
986.737	3075
986.818	1772
986.899	3238
986.980	2712
987.060	3283
987.141	2844
987.222	3720
987.302	3689
987.383	3680
987.464	4192
987.544	4924
987.625	4117
987.705	3584
987.786	2916
987.866	4519
987.947	3036
988.027	3720
988.108	4041
988.188	3369
988.268	3384
988.349	3073
988.429	3015
988.509	3564
988.589	2829
988.670	1872
988.750	3354
988.830	3765
988.910	2925
988.990	3280
989.070	2925
989.151	3282
989.231	3075
989.311	2749
989.391	2602
989.471	2944
989.551	2173
989.631	3454
989.711	2919
989.791	3048
989.870	2271
989.950	2895
990.030	2157
990.110	2616
990.190	2839
990.269	2152
990.349	1437
990.429	3041
990.509	2843
990.588	1778
990.668	1882
990.747	1864
990.827	1655
990.907	1895
990.986	2314
991.066	2706
991.145	1789
991.225	2157
991.304	2669
991.383	2732
991.463	1494
991.542	1731
991.622	1878
991.701	1786
991.780	1498
991.859	1703
991.939	1009
992.018	2035
992.097	2224
992.176	2958
992.256	1742
992.335	1773
992.414	2398
992.493	2309
992.572	830
992.651	1119
992.730	2285
992.809	1817
992.888	409
992.967	2173
993.046	1330
993.125	1313
993.203	432
993.282	1790
993.361	1715
993.440	1530
993.519	794
993.597	1723
993.676	1118
993.755	1919
993.834	2090
993.912	1839
993.991	1354
994.069	1569
994.148	1545
994.226	687
994.305	430
994.384	1135
994.462	891
994.540	1631
994.619	119
994.697	962
994.776	388
994.854	2228
994.932	614
995.011	920
995.089	1055
995.167	1144
995.245	441
995.324	528
995.402	243
995.480	467
995.558	440
995.636	647
995.714	384
995.792	1023
995.870	865
995.948	469
996.026	532
996.104	342
996.182	1085
996.260	799
996.338	-59
996.416	119
996.494	666
996.572	1225
996.649	389
996.727	-526
996.805	126
996.883	356
996.960	82
997.038	791
997.116	516
997.193	-194
997.271	1565
997.348	816
997.426	-72
997.504	827
997.581	849
997.658	459
997.736	-414
997.813	-287
997.891	-641
997.968	1155
998.046	72
998.123	234
998.200	490
998.277	804
998.355	535
998.432	524
998.509	-600
998.586	125
998.663	561
998.741	-187
998.818	-105
998.895	-276
998.972	241
999.049	874
999.126	477
999.203	710
999.280	-720
999.357	-87
999.434	-112
999.511	-320
999.587	-329
999.664	-503
999.741	542
999.818	383
999.895	320
999.971	48
1000.048	412
1000.125	182
1000.202	281
1000.278	220
1000.355	184
1000.431	17
1000.508	-525
1000.584	-497
1000.661	-625
1000.738	-727
1000.814	-100
1000.890	403
1000.967	263
1001.043	396
1001.120	-457
1001.196	2
1001.272	-919
1001.349	-583
1001.425	-1461
1001.501	110
1001.577	-484
1001.654	-740
1001.730	28
1001.806	392
1001.882	-520
1001.958	58
1002.034	245
1002.110	500
1002.186	-1548
1002.262	-819
1002.338	-1237
1002.414	-4
1002.490	-278
1002.566	-384
1002.642	-1555
1002.718	-590
1002.794	-783
1002.870	-947
1002.945	-1340
1003.021	148
1003.097	-778
1003.173	-443
1003.248	-574
1003.324	-417
1003.400	-605
1003.475	-880
1003.551	-1031
1003.626	-1196
1003.702	-1202
1003.777	-1266
1003.853	-1391
1003.928	-1500
1004.004	-1104
1004.079	-228
1004.155	-1510
1004.230	-613
1004.305	-146
1004.381	-654
1004.456	-102
1004.531	-716
1004.607	-1253
1004.682	-595
1004.757	-1366
1004.832	-385
1004.907	-1573
1004.982	-353
1005.057	-563
1005.133	-798
1005.208	-835
1005.283	-819
1005.358	-827
1005.433	-597
1005.508	-1706
1005.583	-558
1005.657	-773
1005.732	-615
1005.807	-651
1005.882	-763
1005.957	-1623
1006.032	-1198
1006.106	-1642
1006.181	-1210
1006.256	-1078
1006.331	-567
1006.405	-1995
1006.480	-1164
1006.554	-803
1006.629	-891
1006.704	-1315
1006.778	-925
1006.853	-941
1006.927	-764
1007.002	-1672
1007.076	-1360
1007.150	-1236
1007.225	-1281
1007.299	-1413
1007.373	-1981
1007.448	-1054
1007.522	-524
1007.596	-2109
1007.671	-1677
1007.745	-1348
1007.819	-1113
1007.893	-1681
1007.967	-1113
1008.041	-1400
1008.115	-554
1008.190	-927
1008.264	-1138
1008.338	-2058
1008.412	-1002
1008.486	-1559
1008.560	-739
1008.633	-944
1008.707	-979
1008.781	-885
1008.855	-1143
1008.929	-762
1009.003	-1199
1009.076	-1632
1009.150	-1029
1009.224	-1037
1009.298	-1311
1009.371	-1363
1009.445	-1370
1009.519	-1493
1009.592	-1799
1009.666	-1652
1009.739	-1001
1009.813	-1997
1009.886	-820
1009.960	-2269
1010.033	-781
1010.107	-876
1010.180	-1347
1010.253	-1563
1010.327	-2468
1010.400	-1827
1010.473	-1251
1010.547	-1260
1010.620	-1566
1010.693	-1684
1010.766	-899
1010.840	-1807
1010.913	-1025
1010.986	-2459
1011.059	-2005
1011.132	-1293
1011.205	-578
1011.278	-1761
1011.351	-1360
1011.424	-1921
1011.497	-1636
1011.570	-1879
1011.643	-1594
1011.716	-2575
1011.789	-1682
1011.862	-1387
1011.934	-1558
1012.007	-2167
1012.080	-1300
1012.153	-2431
1012.225	-1341
1012.298	-2236
1012.371	-1429
1012.443	-868
1012.516	-1429
1012.588	-1355
1012.661	-1832
1012.733	-2359
1012.806	-2015
1012.879	-1919
1012.951	-1289
1013.023	-834
1013.096	-1885
1013.168	-2222
1013.241	-1373
1013.313	-2186
1013.385	-2233
1013.458	-1888
1013.530	-925
1013.602	-2432
1013.674	-1433
1013.746	-2288
1013.819	-1890
1013.891	-1437
1013.963	-1758
1014.035	-1216
1014.107	-2197
1014.179	-1919
1014.251	-1912
1014.323	-1727
1014.395	-1940
1014.467	-2252
1014.539	-1376
1014.611	-2412
1014.683	-1188
1014.754	-2084
1014.826	-1669
1014.898	-2006
1014.970	-1821
1015.042	-1666
1015.113	-909
1015.185	-2380
1015.257	-2065
1015.328	-2022
1015.400	-2696
1015.471	-1807
1015.543	-2088
1015.615	-1749
1015.686	-1714
1015.757	-2610
1015.829	-1586
1015.901	-1625
1015.972	-1099
1016.043	-1669
1016.115	-1703
1016.186	-2409
1016.257	-2614
1016.328	-2321
1016.400	-1023
1016.471	-2173
1016.542	-1591
1016.613	-1416
1016.685	-1149
1016.756	-2046
1016.827	-1847
1016.898	-1954
1016.969	-520
1017.040	-2855
1017.111	-1942
1017.182	-1710
1017.253	-1653
1017.324	-2011
1017.395	-1963
1017.466	-1950
1017.537	-2341
1017.608	-2226
1017.678	-2040
1017.749	-1951
1017.820	-2569
1017.891	-2003
1017.961	-2276
1018.032	-2388
1018.103	-1590
1018.173	-1926
1018.244	-2460
1018.315	-2394
1018.385	-1131
1018.456	-2466
1018.526	-1218
1018.597	-2403
1018.667	-1828
1018.738	-1461
1018.808	-2278
1018.878	-1644
1018.949	-1593
1019.019	-2092
1019.089	-2712
1019.160	-2366
1019.230	-2514
1019.300	-2067
1019.371	-2663
1019.441	-1846
1019.511	-1813
1019.581	-2366
1019.651	-1487
1019.721	-1783
1019.791	-1934
1019.861	-2137
1019.931	-2163
1020.001	-1847
1020.071	-1564
1020.141	-2405
1020.211	-2368
1020.281	-2072
1020.351	-2411
1020.421	-2285
1020.491	-1054
1020.560	-2859
1020.630	-2514
1020.700	-1898
1020.770	-2614
1020.839	-2412
1020.909	-1739
1020.979	-2207
1021.048	-2362
1021.118	-3138
1021.187	-1411
1021.257	-1897
1021.326	-2022
1021.396	-2221
1021.465	-1820
1021.535	-2126
1021.604	-1959
1021.674	-2309
1021.743	-1893
1021.812	-1995
1021.882	-2412
1021.951	-1710
1022.020	-2454
1022.089	-1577
1022.159	-1049
1022.228	-1747
1022.297	-2619
1022.366	-1747
1022.435	-1315
1022.504	-1978
1022.573	-2112
1022.642	-1656
1022.711	-1714
1022.781	-1832
1022.849	-1960
1022.918	-1905
1022.987	-1601
1023.056	-2051
1023.125	-2028
1023.194	-1924
1023.263	-1769
1023.331	-2645
1023.400	-1849
1023.469	-2316
1023.538	-1351
1023.606	-2462
1023.675	-2207
1023.744	-2462
1023.812	-2202
1023.881	-1679
1023.949	-1324
1024.018	-1898
1024.086	-2111
1024.155	-2552
1024.223	-1640
1024.292	-2185
1024.360	-1716
1024.429	-1916
1024.497	-3063
1024.565	-2424
1024.634	-1675
1024.702	-2312
1024.770	-1920
1024.838	-2360
1024.907	-1487
1024.975	-2416
1025.043	-1470
1025.111	-2342
1025.179	-1299
1025.247	-2358
1025.315	-2110
1025.383	-1679
1025.451	-1608
1025.519	-1827
1025.587	-1774
1025.655	-1845
1025.723	-1784
1025.791	-2009
1025.859	-1952
1025.927	-1883
1025.995	-2334
1026.062	-2265
1026.130	-2339
1026.198	-1968
1026.266	-1840
1026.333	-2496
1026.401	-1805
1026.469	-1751
1026.536	-1418
1026.604	-2030
1026.671	-1805
1026.739	-2215
1026.806	-1952
1026.874	-2849
1026.941	-2500
1027.009	-1990
1027.076	-2563
1027.144	-2580
1027.211	-2007
1027.278	-1658
1027.345	-1425
1027.413	-2122
1027.480	-1985
1027.547	-2822
1027.614	-1706
1027.682	-1695
1027.749	-1879
1027.816	-2334
1027.883	-1971
1027.950	-1580
1028.017	-2476
1028.084	-1926
1028.151	-2670
1028.218	-2902
1028.285	-2146
1028.352	-1853
1028.419	-2385
1028.486	-2701
1028.553	-1750
1028.619	-2373
1028.686	-1827
1028.753	-2318
1028.820	-2169
1028.886	-2766
1028.953	-1639
1029.020	-1670
1029.086	-1704
1029.153	-2825
1029.220	-1773
1029.286	-2727
1029.353	-1130
1029.419	-2570
1029.486	-1820
1029.552	-2752
1029.619	-2358
1029.685	-2205
1029.751	-2224
1029.818	-2044
1029.884	-1915
1029.951	-1420
1030.017	-1895
1030.083	-1879
1030.149	-1292
1030.216	-2757
1030.282	-1382
1030.348	-1858
1030.414	-1709
1030.480	-1802
1030.546	-1620
1030.612	-1801
1030.678	-2101
1030.744	-1942
1030.810	-2149
1030.876	-3006
1030.942	-2293
1031.008	-2741
1031.074	-2602
1031.140	-2348
1031.206	-2278
1031.272	-3113
1031.337	-2080
1031.403	-2235
1031.469	-1225
1031.534	-2239
1031.600	-1958
1031.666	-2135
1031.731	-2319
1031.797	-2357
1031.863	-1576
1031.928	-2123
1031.994	-3494
1032.059	-2891
1032.125	-1537
1032.190	-2351
1032.256	-2040
1032.321	-2890
1032.386	-2293
1032.452	-2005
1032.517	-2020
1032.582	-2680
1032.647	-2327
1032.713	-2236
1032.778	-1524
1032.843	-2354
1032.908	-2542
1032.974	-2758
1033.039	-2861
1033.104	-2379
1033.169	-2180
1033.234	-2556
1033.299	-2135
1033.364	-2313
1033.429	-1745
1033.494	-2354
1033.559	-2418
1033.624	-1760
1033.688	-2221
1033.753	-1922
1033.818	-1712
1033.883	-2272
1033.948	-396
1034.013	-1868
1034.077	-862
1034.142	-909
1034.207	38
1034.271	1190
1034.336	2714
1034.400	3261
1034.465	3023
1034.530	730
1034.594	-932
1034.658	-1444
1034.723	-2332
1034.787	-1852
1034.852	-1263
1034.916	-2418
1034.981	-1603
1035.045	-2588
1035.109	-2093
1035.173	-2335
1035.238	-2832
1035.302	-1996
1035.366	-2014
1035.430	-2335
1035.495	-2510
1035.559	-2138
1035.623	-1924
1035.687	-2591
1035.751	-1871
1035.815	-2334
1035.879	-2371
1035.943	-2117
1036.007	-1925
1036.071	-2600
1036.135	-2012
1036.198	-2745
1036.262	-1311
1036.326	-2415
1036.390	-2747
1036.454	-2232
1036.517	-2615
1036.581	-2389
1036.645	-2600
1036.709	-2370
1036.772	-1997
1036.836	-2474
1036.900	-1760
1036.963	-3069
1037.026	-1835
1037.090	-1536
1037.154	-1887
1037.217	-2425
1037.280	-2120
1037.344	-2849
1037.407	-2017
1037.471	-1912
1037.534	-2433
1037.597	-2791
1037.661	-2509
1037.724	-1636
1037.787	-2172
1037.850	-1884
1037.913	-2090
1037.977	-2887
1038.040	-2186
1038.103	-1960
1038.166	-2002
1038.229	-2579
1038.292	-2510
1038.355	-2811
1038.418	-2003
1038.481	-2689
1038.544	-1856
1038.607	-2149
1038.670	-1616
1038.732	-2363
1038.795	-1764
1038.858	-2547
1038.921	-2056
1038.984	-2693
1039.046	-2543
1039.109	-2962
1039.172	-2321
1039.234	-2230
1039.297	-2204
1039.360	-2618
1039.422	-2484
1039.485	-2795
1039.547	-2515
1039.610	-2142
1039.672	-2322
1039.734	-2924
1039.797	-2296
1039.859	-1700
1039.922	-2393
1039.984	-2465
1040.046	-2121
1040.109	-2732
1040.171	-1913
1040.233	-2518
1040.295	-2753
1040.358	-2522
1040.420	-2450
1040.482	-3051
1040.544	-2228
1040.606	-2122
1040.668	-3174
1040.730	-2226
1040.792	-2102
1040.854	-3080
1040.916	-2041
1040.978	-2721
1041.040	-2027
1041.102	-2238
1041.164	-2318
1041.225	-2831
1041.287	-2293
1041.349	-2500
1041.411	-1875
1041.472	-2672
1041.534	-1394
1041.596	-3272
1041.657	-2755
1041.719	-2326
1041.781	-2292
1041.842	-2605
1041.904	-2172
1041.965	-3175
1042.027	-2215
1042.088	-2591
1042.150	-2692
1042.211	-2435
1042.272	-1959
1042.334	-2578
1042.395	-1727
1042.456	-3270
1042.518	-2949
1042.579	-2553
1042.640	-2349
1042.701	-2495
1042.763	-1906
1042.824	-2592
1042.885	-1464
1042.946	-2652
1043.007	-2007
1043.068	-3397
1043.129	-2608
1043.190	-2569
1043.251	-2116
1043.312	-2678
1043.373	-1908
1043.434	-2684
1043.495	-2519
1043.556	-2571
1043.616	-2210
1043.677	-1891
1043.738	-2260
1043.799	-2864
1043.859	-2569
1043.920	-2573
1043.981	-2913
1044.041	-1993
1044.102	-2201
1044.162	-3096
1044.223	-2387
1044.284	-2529
1044.344	-2439
1044.405	-2314
1044.465	-2514
1044.525	-2513
1044.586	-2063
1044.646	-2135
1044.707	-1987
1044.767	-2449
1044.827	-2001
1044.887	-1960
1044.948	-2228
1045.008	-2447
1045.068	-1363
1045.128	-2871
1045.188	-2510
1045.249	-2084
1045.309	-2295
1045.369	-2677
1045.429	-2046
1045.489	-2546
1045.549	-2252
1045.609	-2645
1045.669	-2379
1045.729	-2210
1045.789	-1645
1045.848	-2509
1045.908	-1717
1045.968	-1798
1046.028	-2034
1046.088	-2817
1046.147	-1896
1046.207	-1888
1046.267	-2237
1046.326	-1727
1046.386	-2345
1046.446	-2008
1046.505	-1431
1046.565	-1520
1046.624	-1852
1046.684	-1472
1046.743	-2178
1046.803	-1042
1046.862	-641
1046.922	0
