'Start Wavelength	183.907
'End Wavelength	1046.922
'Gate Delay	5.000
'Gate Width (ms)	1.050
'Laser Output Level	0.000
'X Position	0.000
'Y Position	0.000
'Z Position	0.000
'Grid Point Number	1.000
'Shot Number	100.000
183.907	960.000
183.977	207.000
184.047	60
184.116	1224
184.186	1023
184.256	-3
184.325	-129
184.395	-882
184.465	711
184.534	626
184.604	-79
184.674	204
184.743	-432
184.813	518
184.883	28
184.952	-742
185.022	-29
185.092	531
185.161	-348
185.231	72
185.301	56
185.370	289
185.440	-356
185.509	-167
185.579	-231
185.649	360
185.718	6
185.788	347
185.857	5
185.927	-1137
185.996	144
186.066	221
186.136	131
186.205	427
186.275	196
186.344	-221
186.414	-472
186.483	-566
186.553	-11
186.622	-171
186.692	-142
186.761	-265
186.831	135
186.900	-953
186.970	-84
187.039	711
187.109	110
187.178	74
187.248	209
187.317	38
187.387	-377
187.456	-135
187.526	661
187.595	-440
187.664	-614
187.734	-261
187.803	127
187.873	-380
187.942	107
188.012	-104
188.081	434
188.150	435
188.220	412
188.289	-20
188.358	-198
188.428	153
188.497	7
188.567	0
188.636	-283
188.705	-428
188.775	-396
188.844	-710
188.913	467
188.983	442
189.052	33
189.121	481
189.191	597
189.260	-16
189.329	-161
189.399	-24
189.468	-166
189.537	107
189.606	266
189.676	80
189.745	64
189.814	174
189.883	845
189.953	177
190.022	407
190.091	12
190.161	1368
190.230	249
190.299	-448
190.368	-305
190.437	-233
190.507	598
190.576	-21
190.645	-14
190.714	463
190.783	329
190.853	650
190.922	33
190.991	168
191.060	-136
191.129	-76
191.198	192
191.268	283
191.337	500
191.406	149
191.475	-639
191.544	261
191.613	-141
191.682	831
191.752	-528
191.821	-492
191.890	-339
191.959	230
192.028	10
192.097	66
192.166	-365
192.235	423
192.304	156
192.373	-526
192.442	10
192.511	625
192.580	284
192.650	819
192.719	-74
192.788	-427
192.857	-244
192.926	-85
192.995	554
193.064	967
193.133	302
193.202	666
193.271	763
193.340	745
193.409	344
193.478	912
193.547	246
193.615	479
193.684	405
193.753	141
193.822	464
193.891	409
193.960	477
194.029	-455
194.098	-244
194.167	307
194.236	247
194.305	629
194.374	319
194.443	359
194.512	-39
194.580	219
194.649	-23
194.718	210
194.787	476
194.856	-317
194.925	14
194.994	65
195.062	877
195.131	5
195.200	929
195.269	653
195.338	669
195.407	-170
195.475	-268
195.544	927
195.613	-5
195.682	590
195.751	262
195.819	315
195.888	464
195.957	874
196.026	486
196.094	302
196.163	-406
196.232	353
196.301	-439
196.369	94
196.438	-892
196.507	249
196.576	-272
196.644	-95
196.713	658
196.782	150
196.850	396
196.919	215
196.988	-97
197.056	428
197.125	233
197.194	-126
197.262	909
197.331	30
197.400	222
197.468	240
197.537	-247
197.606	-12
197.674	850
197.743	525
197.812	807
197.880	1016
197.949	383
198.017	210
198.086	710
198.155	573
198.223	91
198.292	-2
198.360	-427
198.429	187
198.497	299
198.566	336
198.635	1406
198.703	15
198.772	229
198.840	547
198.909	422
198.977	-633
199.046	209
199.114	444
199.183	492
199.251	662
199.320	481
199.388	-300
199.457	374
199.525	-129
199.594	142
199.662	476
199.731	627
199.799	-236
199.867	-180
199.936	-134
200.004	-103
200.073	887
200.141	323
200.210	308
200.278	67
200.346	633
200.415	667
200.483	220
200.552	958
200.620	-334
200.688	437
200.757	61
200.825	751
200.893	-530
200.962	-586
201.030	338
201.098	-380
201.167	722
201.235	634
201.303	60
201.372	518
201.440	241
201.508	915
201.577	329
201.645	-245
201.713	-579
201.781	416
201.850	1092
201.918	527
201.986	-39
202.055	437
202.123	-101
202.191	587
202.259	455
202.327	421
202.396	511
202.464	-363
202.532	-261
202.600	1010
202.669	426
202.737	410
202.805	-160
202.873	998
202.941	-179
203.009	217
203.078	709
203.146	12
203.214	-272
203.282	621
203.350	-189
203.418	-678
203.487	-231
203.555	543
203.623	608
203.691	174
203.759	394
203.827	358
203.895	-92
203.963	-246
204.031	-500
204.099	169
204.168	211
204.236	357
204.304	340
204.372	378
204.440	19
204.508	423
204.576	121
204.644	481
204.712	487
204.780	-86
204.848	-265
204.916	128
204.984	542
205.052	448
205.120	-290
205.188	537
205.256	-267
205.324	454
205.392	170
205.460	666
205.528	600
205.596	471
205.664	397
205.732	159
205.799	-207
205.867	1377
205.935	616
206.003	651
206.071	-173
206.139	912
206.207	310
206.275	253
206.343	-436
206.411	171
206.478	132
206.546	707
206.614	694
206.682	-3
206.750	639
206.818	716
206.885	1345
206.953	-397
207.021	1048
207.089	599
207.157	-115
207.225	359
207.292	1096
207.360	998
207.428	-681
207.496	758
207.563	336
207.631	318
207.699	365
207.767	840
207.834	160
207.902	655
207.970	235
208.038	-195
208.105	463
208.173	877
208.241	394
208.309	394
208.376	726
208.444	244
208.512	112
208.579	580
208.647	584
208.715	1187
208.782	47
208.850	325
208.918	422
208.985	356
209.053	190
209.120	497
209.188	-261
209.256	590
209.323	28
209.391	858
209.459	661
209.526	1243
209.594	-394
209.661	442
209.729	761
209.796	831
209.864	495
209.932	152
209.999	526
210.067	1098
210.134	410
210.202	1
210.269	877
210.337	423
210.404	-123
210.472	359
210.539	453
210.607	549
210.674	803
210.742	656
210.809	715
210.877	257
210.944	691
211.012	229
211.079	2050
211.146	695
211.214	628
211.281	227
211.349	275
211.416	955
211.484	809
211.551	1425
211.618	590
211.686	485
211.753	175
211.821	963
211.888	-122
211.955	916
212.023	562
212.090	534
212.157	522
212.225	607
212.292	1128
212.359	1246
212.427	3559
212.494	1518
212.561	869
212.629	658
212.696	383
212.763	1213
212.831	614
212.898	919
212.965	94
213.032	202
213.100	781
213.167	898
213.234	1540
213.301	639
213.369	965
213.436	965
213.503	149
213.570	-180
213.638	270
213.705	969
213.772	-50
213.839	406
213.906	626
213.973	824
214.041	735
214.108	1203
214.175	239
214.242	-524
214.309	918
214.376	-286
214.444	677
214.511	326
214.578	824
214.645	1482
214.712	966
214.779	460
214.846	487
214.913	1009
214.980	1438
215.048	1127
215.115	731
215.182	424
215.249	1158
215.316	1362
215.383	1165
215.450	690
215.517	1103
215.584	883
215.651	635
215.718	595
215.785	931
215.852	289
215.919	1025
215.986	720
216.053	538
216.120	533
216.187	632
216.254	626
216.321	405
216.388	1403
216.455	836
216.522	928
216.589	724
216.656	1190
216.722	1425
216.789	1489
216.856	1825
216.923	1170
216.990	1023
217.057	954
217.124	1767
217.191	992
217.258	1810
217.324	1700
217.391	2618
217.458	1321
217.525	1003
217.592	1198
217.659	512
217.725	1070
217.792	608
217.859	1777
217.926	238
217.993	515
218.059	1005
218.126	538
218.193	827
218.260	673
218.327	511
218.393	791
218.460	672
218.527	473
218.594	759
218.660	937
218.727	530
218.794	-383
218.860	670
218.927	3
218.994	171
219.061	138
219.127	1041
219.194	555
219.261	264
219.327	-9
219.394	898
219.461	-147
219.527	1118
219.594	1136
219.661	764
219.727	488
219.794	979
219.860	-10
219.927	171
219.994	600
220.060	1294
220.127	1011
220.193	1497
220.260	1114
220.326	1021
220.393	1773
220.460	3150
220.526	1654
220.593	1226
220.659	1098
220.726	880
220.792	2656
220.859	1837
220.925	3567
220.992	5423
221.058	3948
221.125	3393
221.191	1912
221.258	675
221.324	874
221.391	847
221.457	537
221.524	716
221.590	746
221.657	2137
221.723	1710
221.789	1322
221.856	1944
221.922	788
221.989	913
222.055	595
222.121	-760
222.188	1330
222.254	820
222.321	531
222.387	31
222.453	289
222.520	339
222.586	70
222.652	259
222.719	849
222.785	737
222.851	-273
222.918	1074
222.984	450
223.050	453
223.116	-818
223.183	1282
223.249	500
223.315	795
223.382	38
223.448	1067
223.514	261
223.580	776
223.647	275
223.713	-143
223.779	653
223.845	449
223.911	1491
223.978	234
224.044	1687
224.110	4
224.176	934
224.242	357
224.309	-626
224.375	807
224.441	-359
224.507	766
224.573	54
224.639	342
224.705	615
224.772	937
224.838	766
224.904	427
224.970	686
225.036	636
225.102	216
225.168	1216
225.234	-71
225.300	-38
225.366	318
225.432	141
225.499	990
225.565	679
225.631	836
225.697	818
225.763	816
225.829	947
225.895	594
225.961	824
226.027	775
226.093	809
226.159	1191
226.225	1465
226.291	3626
226.357	7128
226.423	3137
226.489	1982
226.554	1101
226.620	1484
226.686	1383
226.752	2088
226.818	3528
226.884	8528
226.950	7296
227.016	1905
227.082	1559
227.148	1720
227.214	1281
227.279	643
227.345	-124
227.411	520
227.477	512
227.543	1233
227.609	1329
227.674	404
227.740	527
227.806	985
227.872	310
227.938	324
228.003	1501
228.069	737
228.135	-87
228.201	3
228.267	-668
228.332	367
228.398	-550
228.464	911
228.530	65
228.595	946
228.661	-508
228.727	494
228.792	428
228.858	3
228.924	-203
228.990	2081
229.055	453
229.121	1010
229.187	528
229.252	686
229.318	668
229.384	687
229.449	418
229.515	229
229.581	-627
229.646	1268
229.712	489
229.777	1342
229.843	693
229.909	1767
229.974	1248
230.040	892
230.105	995
230.171	715
230.236	884
230.302	1545
230.368	401
230.433	423
230.499	652
230.564	1233
230.630	13
230.695	263
230.761	1420
230.826	-521
230.892	1170
230.957	531
231.023	1032
231.088	722
231.154	278
231.219	1013
231.284	743
231.350	514
231.415	334
231.481	1415
231.546	806
231.612	499
231.677	142
231.742	-264
231.808	1754
231.873	15
231.939	-367
232.004	1358
232.069	1162
232.135	273
232.200	5
232.265	924
232.331	391
232.396	-267
232.461	833
232.527	-410
232.592	757
232.657	875
232.723	1627
232.788	508
232.853	353
232.918	522
232.984	-66
233.049	-107
233.114	-175
233.179	1120
233.245	1041
233.310	1435
233.375	-149
233.440	1074
233.506	-365
233.571	434
233.636	503
233.701	928
233.766	500
233.832	1208
233.897	789
233.962	-117
234.027	1190
234.092	910
234.157	421
234.222	-341
234.288	928
234.353	4425
234.418	3420
234.483	1336
234.548	1381
234.613	1126
234.678	1482
234.743	924
234.808	4453
234.873	1713
234.938	2448
235.004	1617
235.069	913
235.134	219
235.199	1430
235.264	-223
235.329	-19
235.394	455
235.459	1572
235.524	271
235.589	1018
235.654	1033
235.719	252
235.784	1614
235.849	1081
235.913	3046
235.978	1782
236.043	1818
236.108	1458
236.173	977
236.238	1019
236.303	471
236.368	518
236.433	1260
236.498	2402
236.563	1413
236.627	1907
236.692	9200
236.757	7638
236.822	2949
236.887	1951
236.952	1808
237.017	441
237.081	2285
237.146	1063
237.211	5056
237.276	9360
237.341	15794
237.405	6256
237.470	2979
237.535	2052
237.600	1325
237.664	945
237.729	551
237.794	1051
237.859	3787
237.923	2333
237.988	563
238.053	2713
238.118	1272
238.182	4165
238.247	4430
238.312	851
238.376	1586
238.441	144
238.506	1012
238.570	-257
238.635	1875
238.700	349
238.764	451
238.829	1860
238.893	1859
238.958	2092
239.023	1231
239.087	604
239.152	837
239.216	220
239.281	772
239.346	674
239.410	418
239.475	-128
239.539	4211
239.604	1934
239.668	1335
239.733	819
239.797	897
239.862	1990
239.926	3607
239.991	1333
240.055	765
240.120	719
240.184	906
240.249	437
240.313	56
240.378	347
240.442	2103
240.507	3659
240.571	1093
240.635	1907
240.700	2086
240.764	1257
240.829	448
240.893	-866
240.957	1057
241.022	2990
241.086	4373
241.151	2520
241.215	-537
241.279	1703
241.344	2266
241.408	1994
241.472	655
241.537	1232
241.601	1745
241.665	-158
241.730	-93
241.794	1203
241.858	294
241.922	-11
241.987	944
242.051	-244
242.115	-567
242.179	478
242.244	975
242.308	1116
242.372	1124
242.436	716
242.501	621
242.565	245
242.629	503
242.693	1328
242.757	214
242.822	241
242.886	1358
242.950	1162
243.014	985
243.078	909
243.142	639
243.206	292
243.271	932
243.335	536
243.399	1671
243.463	3512
243.527	11016
243.591	3042
243.655	1835
243.719	439
243.783	1638
243.847	1805
243.911	2335
243.975	2701
244.040	1351
244.104	2011
244.168	943
244.232	1506
244.296	2324
244.360	1874
244.424	830
244.488	571
244.552	1411
244.615	-379
244.679	1517
244.743	823
244.807	773
244.871	672
244.935	784
244.999	73
245.063	739
245.127	1307
245.191	1902
245.255	1148
245.319	1968
245.383	303
245.446	2118
245.510	-10
245.574	1316
245.638	1323
245.702	-579
245.766	2733
245.829	2076
245.893	437
245.957	267
246.021	1765
246.085	1214
246.149	1186
246.212	3700
246.276	4177
246.340	1839
246.404	2200
246.467	2135
246.531	1283
246.595	2203
246.659	963
246.722	929
246.786	2411
246.850	2350
246.913	2326
246.977	707
247.041	1291
247.104	2317
247.168	1335
247.232	3271
247.295	6190
247.359	2336
247.423	1241
247.486	3151
247.550	2291
247.614	1007
247.677	2107
247.741	955
247.804	688
247.868	1860
247.932	2832
247.995	6471
248.059	1268
248.122	304
248.186	1874
248.249	2249
248.313	9595
248.376	10032
248.440	5489
248.503	1763
248.567	3688
248.630	1732
248.694	4753
248.757	5345
248.821	9552
248.884	7257
248.948	5337
249.011	8342
249.075	11880
249.138	10590
249.202	4413
249.265	2085
249.328	3247
249.392	1987
249.455	2040
249.519	1518
249.582	1703
249.645	4081
249.709	1975
249.772	1794
249.835	1518
249.899	554
249.962	1752
250.025	785
250.089	4372
250.152	6279
250.215	2040
250.279	1534
250.342	2080
250.405	2050
250.468	721
250.532	1661
250.595	3345
250.658	10835
250.721	16573
250.785	6342
250.848	4287
250.911	1647
250.974	2580
251.038	3041
251.101	6091
251.164	3309
251.227	3397
251.290	2535
251.354	3814
251.417	15527
251.480	12856
251.543	9191
251.606	27837
251.669	17686
251.732	7197
251.795	7472
251.859	7733
251.922	17877
251.985	8941
252.048	4250
252.111	2202
252.174	2801
252.237	6948
252.300	11754
252.363	12384
252.426	24252
252.489	9724
252.552	4287
252.615	2366
252.678	3706
252.741	8381
252.804	10264
252.867	22573
252.930	13909
252.993	6488
253.056	5440
253.119	2936
253.182	2077
253.245	3359
253.308	3772
253.371	3921
253.434	2907
253.497	3457
253.559	6840
253.622	3862
253.685	6078
253.748	6049
253.811	2238
253.874	4310
253.937	2749
254.000	2154
254.062	5078
254.125	5890
254.188	6494
254.251	5153
254.314	1942
254.376	4964
254.439	6199
254.502	4807
254.565	3997
254.628	7749
254.690	4910
254.753	2444
254.816	2424
254.878	2265
254.941	4293
255.004	4275
255.067	2071
255.129	2209
255.192	960
255.255	-248
255.317	1942
255.380	632
255.443	1264
255.505	1071
255.568	556
255.631	445
255.693	1348
255.756	-168
255.819	2110
255.881	-61
255.944	1359
256.006	-82
256.069	169
256.132	299
256.194	667
256.257	4049
256.319	2397
256.382	1755
256.444	1734
256.507	654
256.569	129
256.632	895
256.694	1137
256.757	5710
256.819	14794
256.882	3475
256.944	2370
257.007	2309
257.069	1747
257.132	1098
257.194	1921
257.257	1197
257.319	809
257.381	-156
257.444	4432
257.506	17970
257.569	18561
257.631	9496
257.693	5220
257.756	2670
257.818	1525
257.880	763
257.943	1914
258.005	221
258.067	1317
258.130	915
258.192	1557
258.254	2980
258.317	668
258.379	1921
258.441	3428
258.503	3970
258.566	4098
258.628	6170
258.690	789
258.753	1695
258.815	3991
258.877	953
258.939	75
259.001	584
259.064	514
259.126	673
259.188	967
259.250	2067
259.312	1822
259.375	3152
259.437	2638
259.499	1731
259.561	456
259.623	941
259.685	369
259.747	598
259.809	4468
259.872	8498
259.934	13355
259.996	9448
260.058	3217
260.120	113
260.182	957
260.244	52
260.306	360
260.368	1183
260.430	221
260.492	1218
260.554	3531
260.616	1791
260.678	6817
260.740	7523
260.802	2039
260.864	2881
260.926	168
260.988	1335
261.050	338
261.112	1144
261.174	6991
261.236	6253
261.298	1517
261.359	4354
261.421	5299
261.483	344
261.545	1819
261.607	-609
261.669	635
261.731	2926
261.793	6297
261.854	1342
261.916	1322
261.978	710
262.040	1237
262.102	1338
262.164	1516
262.225	1218
262.287	837
262.349	3670
262.411	1727
262.472	1030
262.534	1600
262.596	5219
262.658	1489
262.719	-357
262.781	1478
262.843	4227
262.904	2041
262.966	1068
263.028	161
263.090	8805
263.151	18936
263.213	6109
263.275	3220
263.336	1283
263.398	1315
263.459	768
263.521	710
263.583	3377
263.644	2033
263.706	804
263.767	277
263.829	163
263.891	318
263.952	-18
264.014	-41
264.075	443
264.137	1331
264.198	1632
264.260	-178
264.321	10
264.383	1628
264.444	4080
264.506	1118
264.567	378
264.629	867
264.690	523
264.752	860
264.813	132
264.875	-427
264.936	498
264.998	-367
265.059	-540
265.120	610
265.182	594
265.243	8568
265.305	7015
265.366	970
265.427	799
265.489	465
265.550	-957
265.611	-73
265.673	-635
265.734	-408
265.795	-284
265.857	-416
265.918	-292
265.979	1709
266.040	14155
266.102	9930
266.163	2871
266.224	1236
266.286	486
266.347	-845
266.408	341
266.469	808
266.530	-245
266.592	230
266.653	1893
266.714	2994
266.775	779
266.836	128
266.898	-769
266.959	682
267.020	772
267.081	1313
267.142	115
267.203	243
267.264	-234
267.326	1267
267.387	569
267.448	-580
267.509	192
267.570	-231
267.631	-118
267.692	-534
267.753	303
267.814	-766
267.875	1068
267.936	4107
267.997	505
268.058	419
268.119	365
268.180	537
268.241	-495
268.302	-263
268.363	-204
268.424	174
268.485	319
268.546	-891
268.607	-41
268.668	-468
268.729	-422
268.790	-30
268.851	267
268.912	1658
268.972	3142
269.033	820
269.094	-826
269.155	476
269.216	-130
269.277	82
269.338	-507
269.398	-587
269.459	-322
269.520	916
269.581	1476
269.642	1678
269.702	1223
269.763	385
269.824	420
269.885	-109
269.945	2793
270.006	-19
270.067	-1523
270.128	-595
270.188	-741
270.249	-490
270.310	-1332
270.370	-121
270.431	580
270.492	28
270.553	136
270.613	1412
270.674	4241
270.734	761
270.795	-408
270.856	523
270.916	159
270.977	226
271.038	1423
271.098	431
271.159	1592
271.219	1130
271.280	324
271.340	489
271.401	446
271.462	2526
271.522	1318
271.583	267
271.643	263
271.704	606
271.764	568
271.825	2342
271.885	10921
271.946	12406
272.006	3431
272.066	5549
272.127	9492
272.187	1920
272.248	408
272.308	226
272.369	5902
272.429	2674
272.489	2678
272.550	2963
272.610	4319
272.671	1367
272.731	2078
272.791	3026
272.852	1197
272.912	1683
272.972	725
273.033	432
273.093	961
273.153	1437
273.214	939
273.274	1424
273.334	5075
273.394	10812
273.455	4774
273.515	4853
273.575	10279
273.635	3804
273.696	6714
273.756	10740
273.816	3284
273.876	3369
273.936	5009
273.997	8099
274.057	619
274.117	875
274.177	1664
274.237	12923
274.297	9555
274.358	7503
274.418	7916
274.478	5746
274.538	1045
274.598	181
274.658	6898
274.718	9681
274.778	3310
274.838	902
274.898	3343
274.958	12530
275.018	10123
275.078	6355
275.138	2210
275.198	661
275.258	213
275.318	995
275.378	3930
275.438	3580
275.498	1355
275.558	5848
275.618	12690
275.678	6055
275.738	4869
275.798	3225
275.858	98
275.918	-457
275.978	774
276.038	962
276.098	331
276.157	2190
276.217	8390
276.277	2340
276.337	2673
276.397	1210
276.457	1186
276.517	590
276.576	274
276.636	29
276.696	833
276.756	5245
276.815	3504
276.875	1218
276.935	1744
276.995	1102
277.055	1531
277.114	597
277.174	827
277.234	6088
277.293	1545
277.353	656
277.413	578
277.472	822
277.532	412
277.592	1741
277.651	8347
277.711	14868
277.771	3844
277.830	19217
277.890	12458
277.950	9491
278.009	26345
278.069	7797
278.128	12367
278.188	16179
278.248	6145
278.307	17120
278.367	8703
278.426	2121
278.486	1381
278.545	347
278.605	570
278.664	359
278.724	620
278.783	4513
278.843	10520
278.902	2775
278.962	1845
279.021	2322
279.081	3911
279.140	2914
279.199	1474
279.259	1875
279.318	1924
279.378	3651
279.437	6230
279.496	22490
279.556	72700
279.615	54277
279.675	15498
279.734	8410
279.793	11541
279.853	13818
279.912	5587
279.971	3786
280.031	3175
280.090	5763
280.149	8693
280.208	9075
280.268	49728
280.327	46330
280.386	11240
280.445	9085
280.505	6638
280.564	2300
280.623	1876
280.682	4643
280.742	6747
280.801	1558
280.860	817
280.919	1151
280.978	376
281.037	832
281.097	846
281.156	524
281.215	61
281.274	799
281.333	7621
281.392	3886
281.451	1133
281.510	424
281.569	-41
281.628	315
281.688	43
281.747	949
281.806	-116
281.865	362
281.924	775
281.983	521
282.042	-639
282.101	-604
282.160	214
282.219	-400
282.278	418
282.337	4179
282.396	2385
282.454	496
282.513	455
282.572	7811
282.631	3579
282.690	315
282.749	844
282.808	1615
282.867	423
282.926	792
282.985	113
283.043	632
283.102	397
283.161	941
283.220	3162
283.279	6921
283.338	1775
283.396	511
283.455	1073
283.514	1035
283.573	2266
283.631	1645
283.690	603
283.749	782
283.808	3652
283.866	3758
283.925	449
283.984	1474
284.043	1909
284.101	2364
284.160	1444
284.219	1138
284.277	1746
284.336	3005
284.395	12181
284.453	8160
284.512	3806
284.570	5952
284.629	5340
284.688	5515
284.746	6240
284.805	7178
284.863	11569
284.922	14598
284.981	16186
285.039	22000
285.098	34725
285.156	55653
285.215	46071
285.273	47394
285.332	54253
285.390	39389
285.449	25634
285.507	17729
285.566	12958
285.624	9775
285.683	7305
285.741	6096
285.799	5031
285.858	4787
285.916	3930
285.975	3177
286.033	2626
286.091	2150
286.150	1406
286.208	1906
286.267	1646
286.325	1727
286.383	3743
286.442	2799
286.500	1117
286.558	1269
286.616	554
286.675	1800
286.733	1726
286.791	604
286.850	1347
286.908	2149
286.966	4744
287.024	660
287.083	836
287.141	174
287.199	636
287.257	2458
287.315	951
287.374	1324
287.432	4153
287.490	2218
287.548	1338
287.606	-437
287.664	629
287.723	1549
287.781	2264
287.839	748
287.897	983
287.955	537
288.013	1133
288.071	2624
288.129	24451
288.187	71809
288.245	26636
288.303	7357
288.361	3749
288.419	1876
288.477	112
288.535	-48
288.593	129
288.651	272
288.709	-507
288.767	409
288.825	464
288.883	-50
288.941	-359
288.999	-725
289.057	-69
289.115	199
289.173	-210
289.231	-1079
289.289	-79
289.346	-667
289.404	1100
289.462	2546
289.520	2354
289.578	-12
289.636	-342
289.694	276
289.751	-487
289.809	-905
289.867	-357
289.925	986
289.983	435
290.040	-414
290.098	-648
290.156	133
290.214	906
290.271	-281
290.329	421
290.387	-688
290.444	-759
290.502	-1278
290.560	258
290.617	-203
290.675	53
290.733	-367
290.790	681
290.848	-406
290.906	588
290.963	-134
291.021	-121
291.078	-1121
291.136	-1061
291.194	1751
291.251	6648
291.309	1055
291.366	-656
291.424	-962
291.481	304
291.539	-141
291.596	532
291.654	-744
291.711	-920
291.769	113
291.826	1886
291.884	1300
291.941	-93
291.999	-675
292.056	172
292.114	-123
292.171	-665
292.228	337
292.286	-481
292.343	2665
292.401	2945
292.458	950
292.515	447
292.573	928
292.630	497
292.687	684
292.745	-255
292.802	-395
292.859	2492
292.917	8948
292.974	4793
293.031	601
293.089	-444
293.146	64
293.203	-316
293.260	-665
293.318	-20
293.375	216
293.432	-300
293.489	119
293.546	-500
293.604	526
293.661	4758
293.718	12697
293.775	6052
293.832	3111
293.889	2769
293.947	2429
294.004	1271
294.061	894
294.118	3444
294.175	7457
294.232	7262
294.289	3019
294.346	802
294.403	1239
294.460	417
294.517	239
294.574	390
294.631	-376
294.688	23
294.745	2997
294.802	13462
294.859	11700
294.916	4341
294.973	2437
295.030	2832
295.087	1903
295.144	1640
295.201	633
295.258	140
295.315	989
295.372	5549
295.429	9756
295.486	3462
295.542	2005
295.599	4027
295.656	6159
295.713	5820
295.770	8721
295.827	2213
295.883	525
295.940	502
295.997	3417
296.054	2810
296.111	891
296.167	422
296.224	469
296.281	538
296.338	798
296.394	169
296.451	329
296.508	3989
296.564	7547
296.621	5418
296.678	12424
296.734	15539
296.791	5874
296.848	2367
296.904	2695
296.961	9055
297.018	12632
297.074	6772
297.131	2597
297.187	1761
297.244	2138
297.301	11189
297.357	18145
297.414	5943
297.470	2773
297.527	857
297.583	1520
297.640	1532
297.696	445
297.753	275
297.809	194
297.866	15
297.922	-71
297.979	-128
298.035	28
298.092	1673
298.148	7090
298.204	6405
298.261	2199
298.317	5671
298.374	14442
298.430	8107
298.486	3602
298.543	2010
298.599	1160
298.656	1719
298.712	5040
298.768	12148
298.824	6925
298.881	2085
298.937	946
298.993	927
299.050	1846
299.106	444
299.162	1150
299.218	778
299.275	693
299.331	386
299.387	3346
299.443	13115
299.500	11754
299.556	4565
299.612	1935
299.668	1834
299.724	1505
299.780	1054
299.837	223
299.893	2197
299.949	12226
300.005	11412
300.061	11732
300.117	16621
300.173	8152
300.229	3772
300.285	6345
300.341	7124
300.397	2497
300.453	1578
300.510	911
300.566	1142
300.622	854
300.678	4688
300.734	10644
300.790	11421
300.845	12078
300.901	6842
300.957	12656
301.013	8969
301.069	2603
301.125	2100
301.181	2566
301.237	2155
301.293	237
301.349	323
301.405	384
301.461	572
301.516	992
301.572	1450
301.628	3861
301.684	3943
301.740	4817
301.796	7461
301.851	5804
301.907	10885
301.963	8568
302.019	14327
302.074	35774
302.130	34204
302.186	16141
302.242	6591
302.297	3607
302.353	3894
302.409	7717
302.464	5828
302.520	5479
302.576	15795
302.631	18291
302.687	10845
302.743	4517
302.798	2288
302.854	2019
302.910	1195
302.965	2643
303.021	5574
303.076	5351
303.132	8838
303.187	9095
303.243	4933
303.299	2167
303.354	1540
303.410	1078
303.465	965
303.521	1277
303.576	1001
303.632	1542
303.687	3813
303.743	12235
303.798	9666
303.853	4283
303.909	2240
303.964	2044
304.020	4133
304.075	5788
304.130	6578
304.186	13125
304.241	13027
304.297	9692
304.352	4953
304.358	4710
304.407	2744
304.449	2275
304.463	2119
304.518	2285
304.539	2241
304.573	2167
304.629	1413
304.630	1431
304.684	2358
304.720	8027
304.739	10889
304.794	14082
304.811	11930
304.850	6758
304.902	3183
304.905	2961
304.960	1735
304.992	1885
305.015	1956
305.071	1489
305.083	1497
305.126	1530
305.173	924
305.181	839
305.236	472
305.264	751
305.292	1011
305.347	1437
305.354	1355
305.402	834
305.445	1727
305.457	1996
305.512	3319
305.535	3160
305.567	2869
305.622	1768
305.626	1893
305.678	4669
305.716	12049
305.733	14839
305.788	14700
305.807	12887
305.843	9845
305.897	13086
305.898	13118
305.953	11154
305.988	7526
306.008	5610
306.063	3296
306.078	2886
306.118	2001
306.168	1296
306.173	1225
306.228	1476
306.259	1116
306.283	833
306.338	419
306.349	481
306.393	830
306.440	1237
306.448	1281
306.503	1258
306.530	1283
306.558	1597
306.613	3900
306.620	4372
306.668	8296
306.711	13592
306.723	14421
306.778	11250
306.801	9007
306.833	6389
306.888	2511
306.892	2401
306.943	1606
306.982	1367
306.997	1299
307.052	1596
307.072	1422
307.107	1074
307.162	1129
307.163	1134
307.217	1705
307.253	2081
307.272	2277
307.327	1903
307.343	1910
307.381	1996
307.434	2033
307.436	2090
307.491	4422
307.524	7452
307.546	8907
307.600	10699
307.614	9787
307.655	5672
307.704	2677
307.710	2553
307.765	1865
307.795	2447
307.819	3002
307.874	4407
307.885	4411
307.929	3964
307.975	3808
307.984	3933
308.038	5479
308.065	6811
308.093	11481
308.148	28043
308.156	32314
308.202	56159
308.246	65392
308.257	63519
308.312	35646
308.336	25577
308.366	19689
308.421	12771
308.426	12220
308.475	7610
308.517	5405
308.530	4950
308.585	3245
308.607	3076
308.639	3007
308.694	2941
308.697	3000
308.748	4327
308.787	5313
308.803	5361
308.857	4489
308.877	4148
308.912	4342
308.967	5414
308.967	5442
309.021	8572
309.058	12228
309.076	15070
309.130	25957
309.148	29859
309.185	47505
309.238	81495
309.239	81791
309.293	94897
309.328	89931
309.348	78144
309.402	39110
309.418	29322
309.457	20632
309.508	13536
309.511	13330
309.566	13424
309.598	15425
309.620	20337
309.674	38137
309.688	42046
309.729	39257
309.778	28400
309.783	27441
309.837	16223
309.868	11371
309.892	11590
309.946	14963
309.959	16589
310.001	22055
310.049	25702
310.055	24788
310.109	13961
310.139	7930
310.163	5889
310.218	3338
310.229	2940
310.272	2263
310.319	2007
310.326	1924
310.381	1259
310.409	1138
310.435	1210
310.489	1231
310.499	1237
310.543	1338
310.589	1572
310.598	1523
310.652	1120
310.679	903
310.706	865
310.760	1077
310.769	1067
310.814	734
310.859	547
310.868	624
310.923	996
310.948	1210
310.977	1301
311.031	1519
311.038	1539
311.085	1258
311.128	972
311.139	986
311.193	1103
311.218	1167
311.247	1114
311.301	1007
311.308	987
311.356	572
311.398	257
311.410	377
311.464	956
311.488	1191
311.518	1085
311.572	966
311.578	959
311.626	1720
311.668	2425
311.680	2248
311.734	1239
311.758	848
311.788	760
311.842	621
311.847	613
311.896	931
311.937	1215
311.950	1214
312.004	1243
312.027	1254
312.058	1241
312.112	1240
312.117	1246
312.165	1096
312.207	983
312.297	812
312.386	961
312.476	962
312.566	4145
312.656	1640
312.745	1157
312.835	478
312.925	924
313.015	752
313.104	401
313.194	1141
313.284	1263
313.374	1588
313.463	1159
313.553	800
313.643	-19
313.732	309
313.822	-301
313.912	745
314.001	673
314.091	765
314.180	819
314.270	1598
314.360	1523
314.449	1694
314.539	273
314.628	120
314.718	733
314.808	578
314.897	520
314.987	414
315.076	1127
315.166	1406
315.255	1893
315.345	1194
315.434	1454
315.524	536
315.613	971
315.703	1839
315.792	2115
315.881	2777
315.971	1094
316.060	2869
316.150	2114
316.239	1224
316.328	708
316.418	370
316.507	471
316.597	2208
316.686	1153
316.775	1478
316.865	1418
316.954	358
317.043	557
317.133	-93
317.222	745
317.311	706
317.400	-228
317.490	2796
317.579	1743
317.668	852
317.757	1541
317.847	2207
317.936	4935
318.025	4597
318.114	2225
318.203	919
318.293	1407
318.382	3305
318.471	3543
318.560	2631
318.649	3725
318.738	538
318.828	1616
318.917	1688
319.006	1483
319.095	2482
319.184	7891
319.273	7372
319.362	5705
319.451	858
319.540	1387
319.629	4631
319.718	7363
319.807	1249
319.896	2949
319.985	9947
320.074	4506
320.163	1117
320.252	1238
320.341	759
320.430	1152
320.519	2743
320.608	998
320.697	938
320.786	791
320.875	1696
320.964	2487
321.053	4289
321.142	7371
321.230	6810
321.319	4237
321.408	11676
321.497	3669
321.586	4601
321.675	2711
321.764	2911
321.852	2192
321.941	7263
322.030	3409
322.119	2735
322.207	13375
322.296	3614
322.385	1701
322.474	2572
322.562	15363
322.651	6817
322.740	4658
322.829	6221
322.917	3577
323.006	3803
323.095	3489
323.183	1386
323.272	2338
323.361	4628
323.449	7277
323.538	2287
323.626	4937
323.715	2893
323.804	429
323.892	4605
323.981	4838
324.069	450
324.158	1732
324.246	2016
324.335	2224
324.424	4328
324.512	1389
324.601	2247
324.689	3324
324.778	5339
324.866	2344
324.954	252
325.043	514
325.131	300
325.220	2397
325.308	1478
325.397	1869
325.485	1504
325.574	759
325.662	523
325.750	912
325.839	813
325.927	653
326.015	520
326.104	931
326.192	1603
326.280	10
326.369	631
326.457	1421
326.545	3990
326.634	686
326.722	-105
326.810	555
326.898	517
326.987	275
327.075	2425
327.163	2291
327.251	-97
327.340	1391
327.428	3460
327.516	363
327.604	-491
327.692	896
327.781	-525
327.869	-268
327.957	-475
328.045	830
328.133	259
328.221	-254
328.309	-125
328.397	492
328.485	251
328.574	1723
328.662	9033
328.750	2375
328.838	238
328.926	62
329.014	391
329.102	1094
329.190	1951
329.278	2386
329.366	-212
329.454	-170
329.542	-181
329.630	-214
329.718	357
329.806	29
329.893	842
329.981	-101
330.069	234
330.157	2363
330.245	6650
330.333	4051
330.421	632
330.509	1354
330.597	10920
330.684	6004
330.772	660
330.860	471
330.948	157
331.036	-180
331.123	-604
331.211	-507
331.299	-215
331.387	675
331.475	1392
331.562	960
331.650	-424
331.738	-536
331.825	699
331.913	472
332.001	-128
332.089	919
332.176	132
332.264	573
332.352	1178
332.439	372
332.527	-170
332.614	-298
332.702	247
332.790	429
332.877	556
332.965	3202
333.052	2296
333.140	1898
333.228	8670
333.315	727
333.403	266
333.490	891
333.578	2900
333.665	14076
333.753	4234
333.840	712
333.928	87
334.015	1936
334.103	2185
334.190	6769
334.278	988
334.365	22
334.452	498
334.540	28
334.627	-140
334.715	753
334.802	307
334.889	5021
334.977	6374
335.064	532
335.151	-139
335.239	791
335.326	559
335.413	3273
335.501	4728
335.588	698
335.675	138
335.762	146
335.850	996
335.937	520
336.024	1298
336.111	6434
336.199	2883
336.286	1033
336.373	68
336.460	146
336.547	-45
336.635	737
336.722	200
336.809	-381
336.896	266
336.983	2107
337.070	6299
337.157	7439
337.245	3608
337.332	2714
337.419	-22
337.506	-105
337.593	-440
337.680	332
337.767	4251
337.854	1142
337.941	1693
338.028	1362
338.115	-160
338.202	613
338.289	761
338.376	4487
338.463	1565
338.550	2219
338.637	1799
338.724	662
338.811	1134
338.898	373
338.984	347
339.071	201
339.158	720
339.245	4155
339.332	2588
339.419	999
339.506	1367
339.593	-210
339.679	447
339.766	390
339.853	396
339.940	3621
340.027	681
340.113	778
340.200	1318
340.287	1233
340.374	1421
340.460	2838
340.547	941
340.634	2057
340.720	11232
340.807	5912
340.894	566
340.980	-105
341.067	144
341.154	1422
341.240	2490
341.327	5021
341.414	1759
341.500	1596
341.587	269
341.674	257
341.760	2793
341.847	3698
341.933	326
342.020	-550
342.106	-168
342.193	906
342.279	2248
342.366	504
342.452	3023
342.539	1270
342.625	3911
342.712	11811
342.798	4078
342.885	1653
342.971	-399
343.058	434
343.144	6
343.230	169
343.317	384
343.403	216
343.490	-517
343.576	160
343.662	484
343.749	189
343.835	770
343.921	1487
344.008	17249
344.094	47120
344.180	9699
344.267	2678
344.353	11370
344.439	13348
344.525	4770
344.612	1566
344.698	1047
344.784	-22
344.870	299
344.957	408
345.043	1902
345.129	816
345.215	3409
345.301	890
345.387	339
345.474	-754
345.560	-337
345.646	546
345.732	43
345.818	621
345.904	-131
345.990	1116
346.076	135
346.162	751
346.249	783
346.335	13
346.421	479
346.507	4394
346.593	19446
346.679	4100
346.765	654
346.851	323
346.937	127
347.023	455
347.108	88
347.194	414
347.280	516
347.366	1301
347.452	3628
347.538	21057
347.624	16996
347.710	13224
347.796	1198
347.882	-263
347.967	-533
348.053	-546
348.139	146
348.225	-146
348.311	129
348.397	-13
348.482	420
348.568	1225
348.654	-469
348.740	-397
348.825	-966
348.911	1557
348.997	8596
349.083	21197
349.168	1666
349.254	499
349.340	611
349.425	23
349.511	408
349.597	1018
349.682	2470
349.768	14445
349.854	5942
349.939	806
350.025	122
350.110	-185
350.196	222
350.282	-3
350.367	-3
350.453	-80
350.538	473
350.624	533
350.709	1142
350.795	204
350.880	-226
350.966	1345
351.051	512
351.137	597
351.222	625
351.308	2557
351.393	12658
351.479	2217
351.564	-732
351.649	69
351.735	-657
351.820	346
351.906	-290
351.991	807
352.076	6659
352.162	12207
352.247	1389
352.332	176
352.418	1829
352.503	3350
352.588	17439
352.673	14693
352.759	2212
352.844	759
352.929	463
353.014	1541
353.100	753
353.185	1717
353.270	2910
353.355	4112
353.441	882
353.526	385
353.611	2009
353.696	4030
353.781	2192
353.866	356
353.952	756
354.037	2361
354.122	8471
354.207	7569
354.292	2121
354.377	501
354.462	726
354.547	846
354.632	555
354.717	566
354.802	1421
354.887	873
354.972	-177
355.057	-334
355.142	388
355.227	971
355.312	1312
355.397	4483
355.482	13332
355.567	6714
355.652	3974
355.737	4817
355.822	14697
355.907	14197
355.991	1782
356.076	421
356.161	-71
356.246	100
356.331	738
356.416	1717
356.501	22749
356.585	28172
356.670	2002
356.755	2370
356.840	2610
356.924	14345
357.009	60234
357.094	25792
357.179	3413
357.263	2015
357.348	2276
357.433	2020
357.517	2052
357.602	1761
357.687	256
357.771	1405
357.856	2916
357.941	3110
358.025	9919
358.110	53518
358.195	28476
358.279	3566
358.364	2380
358.448	9044
358.533	31244
358.617	22545
358.702	21533
358.787	8395
358.871	3073
358.956	2478
359.040	583
359.125	1
359.209	483
359.294	27
359.378	1858
359.462	1707
359.547	1235
359.631	339
359.716	-20
359.800	96
359.885	967
359.969	698
360.053	1349
360.138	-29
360.222	1367
360.306	3476
360.391	2595
360.475	3247
360.559	8460
360.644	10223
360.728	7041
360.812	12039
360.896	38561
360.981	13980
361.065	6174
361.149	1284
361.233	1056
361.318	916
361.402	941
361.486	1021
361.570	40
361.654	1463
361.739	3517
361.823	22126
361.907	40520
361.991	5416
362.075	2110
362.159	7567
362.243	5417
362.327	2446
362.411	3779
362.495	1014
362.580	871
362.664	-113
362.748	-655
362.832	541
362.916	-338
363.000	3753
363.084	20537
363.168	43986
363.252	9492
363.336	2533
363.420	2625
363.503	4796
363.587	5633
363.671	1824
363.755	892
363.839	2669
363.923	185
364.007	3833
364.091	3358
364.175	1238
364.258	8783
364.342	4781
364.426	7716
364.510	3804
364.594	2694
364.677	5298
364.761	29882
364.845	25124
364.929	6139
365.013	6040
365.096	3944
365.180	4978
365.264	1984
365.347	8216
365.431	4007
365.515	309
365.598	175
365.682	700
365.766	-954
365.849	233
365.933	144
366.017	1519
366.100	-601
366.184	-355
366.267	451
366.351	-97
366.435	-466
366.518	-718
366.602	-301
366.685	130
366.769	638
366.852	988
366.936	2731
367.019	2503
367.103	-619
367.186	946
367.270	-482
367.353	-869
367.436	414
367.520	269
367.603	176
367.687	1032
367.770	3455
367.853	3207
367.937	7703
368.020	16831
368.104	2493
368.187	3058
368.270	5388
368.353	3553
368.437	2635
368.520	2728
368.603	3617
368.687	10047
368.770	23146
368.853	4539
368.936	3320
369.020	2987
369.103	784
369.186	52
369.269	169
369.352	2181
369.436	3634
369.519	1852
369.602	-593
369.685	1957
369.768	582
369.851	974
369.934	-233
370.018	611
370.101	2422
370.184	3520
370.267	1352
370.350	2116
370.433	3565
370.516	14860
370.599	20141
370.682	4088
370.765	11964
370.848	14895
370.931	26430
371.014	10006
371.097	295
371.180	1229
371.263	-39
371.346	-1267
371.429	965
371.511	723
371.594	1531
371.677	3133
371.760	2839
371.843	3079
371.926	17017
372.009	46135
372.091	17960
372.174	8958
372.257	23436
372.340	10228
372.423	4130
372.505	5023
372.588	1353
372.671	7228
372.754	25857
372.836	14810
372.919	2933
373.002	5515
373.085	2974
373.167	4200
373.250	10579
373.332	24424
373.415	30095
373.498	61746
373.580	24941
373.663	22956
373.746	37475
373.828	8910
373.911	3804
373.993	2757
374.076	4030
374.159	4642
374.241	4995
374.324	20955
374.406	16686
374.489	15688
374.571	51977
374.654	23585
374.736	8844
374.819	29472
374.901	44391
374.983	50039
375.066	8637
375.148	1700
375.231	3922
375.313	7959
375.395	3556
375.478	1055
375.560	638
375.643	1377
375.725	6681
375.807	36420
375.890	29937
375.972	4722
376.054	3139
376.136	2521
376.219	1221
376.301	9977
376.383	35287
376.465	16503
376.548	6783
376.630	9683
376.712	29401
376.794	16637
376.877	870
376.959	-253
377.041	156
377.123	214
377.205	685
377.287	-455
377.369	-76
377.452	161
377.534	507
377.616	452
377.698	185
377.780	211
377.862	844
377.944	704
378.026	-982
378.108	340
378.190	-193
378.272	494
378.354	-685
378.436	-742
378.518	65
378.600	3246
378.682	4378
378.764	14592
378.846	13214
378.928	2256
379.010	3127
379.091	2245
379.173	277
379.255	-120
379.337	1405
379.419	6626
379.501	21985
379.583	9962
379.664	1307
379.746	3693
379.828	15608
379.910	21782
379.991	21180
380.073	3128
380.155	906
380.237	411
380.318	-84
380.400	349
380.482	1993
380.564	4583
380.645	3799
380.727	3866
380.809	2420
380.890	979
380.972	814
381.053	943
381.135	1351
381.217	4307
381.298	17014
381.380	8191
381.461	6304
381.543	28140
381.624	41087
381.706	7523
381.787	2930
381.869	3212
381.951	11383
382.032	46021
382.113	36227
382.195	5847
382.276	4499
382.358	8167
382.439	26907
382.521	31935
382.602	48786
382.684	24180
382.765	38147
382.846	55947
382.928	102445
383.009	64867
383.090	30152
383.172	110844
383.253	201066
383.334	69074
383.416	47077
383.497	27415
383.578	12125
383.659	23383
383.741	87385
383.822	248291
383.903	150482
383.984	39924
384.066	56359
384.147	37786
384.228	8299
384.309	4750
384.390	3988
384.471	3055
384.553	1907
384.634	3531
384.715	3412
384.796	1808
384.877	2982
384.958	14417
385.039	18726
385.120	6448
385.201	2454
385.282	2007
385.363	1542
385.444	1560
385.525	4357
385.606	17548
385.687	18770
385.768	3057
385.849	2895
385.930	19288
386.011	38066
386.092	10951
386.173	1905
386.254	796
386.335	798
386.416	1491
386.496	7362
386.577	16233
386.658	3880
386.739	1045
386.820	1915
386.901	-1200
386.981	1108
387.062	559
387.143	1733
387.224	13920
387.304	16151
387.385	3678
387.466	19
387.547	1658
387.627	-394
387.708	4352
387.789	24810
387.869	35118
387.950	9778
388.031	466
388.111	-2218
388.192	1224
388.273	1387
388.353	707
388.434	1192
388.514	4007
388.595	21343
388.676	33858
388.756	17008
388.837	13464
388.917	9044
388.998	-414
389.078	-27
389.159	595
389.239	-590
389.320	2427
389.400	51
389.480	3979
389.561	14679
389.641	9294
389.722	857
389.802	2778
389.883	5765
389.963	17456
390.043	11076
390.124	-85
390.204	4113
390.284	16364
390.365	10573
390.445	3732
390.525	13002
390.605	17203
390.686	7623
390.766	2578
390.846	482
390.927	-163
391.007	-1015
391.087	504
391.167	-457
391.247	-531
391.328	899
391.408	639
391.488	335
391.568	-1661
391.648	-120
391.728	2471
391.808	2363
391.888	1552
391.969	6774
392.049	13662
392.129	4713
392.209	4477
392.289	17927
392.369	8812
392.449	820
392.529	496
392.609	2046
392.689	3198
392.769	15496
392.849	14680
392.929	6265
393.009	17770
393.089	14830
393.169	4694
393.248	13983
393.328	79696
393.408	103202
393.488	22104
393.568	3603
393.648	2042
393.728	564
393.807	349
393.887	834
393.967	773
394.047	1500
394.127	1429
394.206	5240
394.286	19303
394.366	89997
394.446	112166
394.525	23839
394.605	3992
394.685	2450
394.764	3408
394.844	4141
394.924	3735
395.003	880
395.083	1038
395.163	789
395.242	575
395.322	1308
395.402	-660
395.481	2243
395.561	1238
395.640	7377
395.720	7305
395.799	6516
395.879	5621
395.958	6984
396.038	29159
396.117	120885
396.197	149532
396.276	38941
396.356	8333
396.435	3825
396.515	2703
396.594	2036
396.673	5447
396.753	20633
396.832	80953
396.912	76737
396.991	21463
397.070	3823
397.150	897
397.229	1131
397.308	222
397.388	1174
397.467	1888
397.546	-211
397.625	-2300
397.705	1960
397.784	1367
397.863	-325
397.942	-940
398.022	-1101
398.101	-348
398.180	3576
398.259	2046
398.338	524
398.417	-28
398.497	-949
398.576	505
398.655	-617
398.734	-494
398.813	-821
398.892	848
398.971	3723
399.050	2055
399.129	-912
399.208	-117
399.287	-726
399.366	-748
399.445	-565
399.524	-718
399.603	-1354
399.682	692
399.761	2791
399.840	5849
399.919	4517
399.998	-115
400.077	-1909
400.156	-1378
400.235	912
400.313	-915
400.392	-1086
400.471	7219
400.550	13063
400.629	2283
400.708	166
400.786	-884
400.865	-527
400.944	-10
401.023	1300
401.102	-514
401.180	-387
401.259	-764
401.338	-875
401.416	-17
401.495	-414
401.574	417
401.652	-424
401.731	306
401.810	-995
401.888	-175
401.967	-1070
402.046	-1584
402.124	-39
402.203	-695
402.281	5
402.360	-933
402.438	154
402.517	-1295
402.596	-1077
402.674	-914
402.753	-1151
402.831	-451
402.910	-106
402.988	3102
403.066	15534
403.145	10946
403.223	4223
403.302	12534
403.380	11174
403.459	10118
403.537	3011
403.615	-21
403.694	-1843
403.772	415
403.850	-325
403.929	-993
404.007	-1756
404.085	1244
404.164	1100
404.242	-1114
404.320	-263
404.398	1042
404.477	4627
404.555	36280
404.633	37613
404.711	5443
404.789	130
404.868	-408
404.946	-1258
405.024	-978
405.102	-1097
405.180	-829
405.258	-2114
405.336	491
405.415	-1770
405.493	674
405.571	849
405.649	-918
405.727	-1582
405.805	417
405.883	-262
405.961	452
406.039	-794
406.117	-1748
406.195	914
406.273	6897
406.351	33318
406.429	22082
406.507	373
406.585	-613
406.663	590
406.740	958
406.818	-644
406.896	-885
406.974	619
407.052	938
407.130	17604
407.208	30924
407.285	5789
407.363	-1178
407.441	-607
407.519	-532
407.596	-343
407.674	1506
407.752	2510
407.830	3458
407.907	-189
407.985	-383
408.063	-123
408.141	-1586
408.218	325
408.296	-557
408.373	-429
408.451	-155
408.529	-810
408.606	-713
408.684	-970
408.762	512
408.839	-1604
408.917	-1645
408.994	-838
409.072	-1912
409.149	-1806
409.227	-143
409.304	-1108
409.382	-887
409.459	-1315
409.537	-179
409.614	-512
409.692	-693
409.769	-1248
409.846	-347
409.924	271
410.001	-2532
410.079	-1338
410.156	-110
410.233	-1466
410.311	-1390
410.388	-1366
410.465	-1056
410.543	-1254
410.620	-231
410.697	-821
410.775	112
410.852	-1868
410.929	-355
411.006	159
411.083	-1621
411.161	-979
411.238	-637
411.315	-1030
411.392	-1232
411.469	-660
411.547	-821
411.624	-1633
411.701	-1242
411.778	-698
411.855	763
411.932	-467
412.009	-1284
412.086	-857
412.163	-888
412.240	-779
412.317	-537
412.394	-1412
412.471	-374
412.548	-1458
412.625	-1282
412.702	-1008
412.779	-305
412.856	-343
412.933	-1708
413.010	-942
413.087	-63
413.164	5160
413.241	11921
413.318	682
413.395	688
413.471	404
413.548	68
413.625	-710
413.702	-1570
413.779	-463
413.855	-1273
413.932	-1718
414.009	-1212
414.086	-985
414.162	-1235
414.239	104
414.316	4800
414.393	16447
414.469	6023
414.546	-608
414.623	-1440
414.699	-1322
414.776	-1380
414.853	-1349
414.929	-131
415.006	-1166
415.082	-678
415.159	-1334
415.236	-1032
415.312	-595
415.389	502
415.465	1032
415.542	191
415.618	-1149
415.695	599
415.771	-457
415.848	-633
415.924	-901
416.000	-653
416.077	-667
416.153	-1325
416.230	-2111
416.306	-1229
416.383	-1466
416.459	-1490
416.535	-1288
416.612	-1475
416.688	-113
416.764	-937
416.841	-1274
416.917	-702
416.993	-1280
417.069	-146
417.146	-1095
417.222	688
417.298	-574
417.374	-1591
417.451	-425
417.527	-878
417.603	-737
417.679	-304
417.755	-523
417.831	-1726
417.908	-1541
417.984	-732
418.060	-1896
418.136	783
418.212	1502
418.288	-391
418.364	-282
418.440	-1185
418.516	-1196
418.592	-681
418.668	1468
418.744	4532
418.820	2850
418.896	-1150
418.972	-2025
419.048	-614
419.124	1542
419.200	542
419.276	-611
419.352	-1813
419.428	-1390
419.504	-1181
419.579	-498
419.655	-231
419.731	-1129
419.807	2006
419.883	5141
419.959	3177
420.034	-98
420.110	723
420.186	8156
420.262	9217
420.337	-126
420.413	-856
420.489	-1248
420.565	-798
420.640	-1220
420.716	-526
420.792	-2465
420.867	-363
420.943	-940
421.019	-311
421.094	-723
421.170	-1162
421.245	-1700
421.321	-1087
421.397	-1205
421.472	-212
421.548	173
421.623	1798
421.699	-279
421.774	-226
421.850	-1712
421.925	341
422.001	-1002
422.076	-558
422.152	-874
422.227	648
422.302	865
422.378	92
422.453	1456
422.529	6589
422.604	31809
422.679	74952
422.755	46225
422.830	9502
422.905	2064
422.981	188
423.056	146
423.131	54
423.207	-1231
423.282	-497
423.357	2382
423.432	561
423.508	473
423.583	3758
423.658	2945
423.733	90
423.808	-1032
423.883	146
423.959	-596
424.034	-1168
424.109	-929
424.184	-1490
424.259	-876
424.334	-512
424.409	-2179
424.484	-1863
424.559	-677
424.634	-1483
424.709	-743
424.784	-196
424.859	-1268
424.934	265
425.009	6111
425.084	12208
425.159	3655
425.234	-46
425.309	-1635
425.384	-735
425.459	-915
425.534	-403
425.609	-1241
425.683	-1466
425.758	-1526
425.833	-964
425.908	-741
425.983	1637
426.058	11976
426.132	4973
426.207	-544
426.282	-284
426.357	-1773
426.431	-1087
426.506	-468
426.581	-302
426.655	-1060
426.730	-846
426.805	-2083
426.879	-725
426.954	-1374
427.029	166
427.103	10176
427.178	29860
427.253	15177
427.327	641
427.402	-1518
427.476	-333
427.551	-1290
427.625	-1287
427.700	-687
427.774	-2440
427.849	-1538
427.923	-1480
427.998	-1581
428.072	-1663
428.147	-59
428.221	2041
428.296	8316
428.370	4350
428.444	-816
428.519	-1083
428.593	-1225
428.667	-603
428.742	-900
428.816	-540
428.890	3024
428.965	6821
429.039	1251
429.113	-892
429.188	-1164
429.262	-1525
429.336	-559
429.410	4670
429.485	3054
429.559	-821
429.633	-1284
429.707	-999
429.781	-1278
429.855	3562
429.930	9822
430.004	4277
430.078	2210
430.152	2889
430.226	10360
430.300	14837
430.374	334
430.448	-543
430.522	-354
430.596	2605
430.670	3844
430.744	16656
430.818	34310
430.892	8636
430.966	-1146
431.040	-568
431.114	-1866
431.188	-2022
431.262	-1657
431.336	-1109
431.410	-206
431.484	-62
431.557	1092
431.631	-1639
431.705	-193
431.779	-925
431.853	5552
431.927	4269
432.000	-1002
432.074	-1621
432.148	-1568
432.222	-1853
432.295	-1132
432.369	-794
432.443	-336
432.516	8040
432.590	29229
432.664	12872
432.737	-499
432.811	-1490
432.885	-1106
432.958	-561
433.032	-1967
433.106	-1721
433.179	-1284
433.253	-1351
433.326	-1868
433.400	-1251
433.473	-1886
433.547	-1136
433.620	-1008
433.694	-809
433.767	136
433.841	-989
433.914	-982
433.988	-682
434.061	-1574
434.134	-1968
434.208	-1624
434.281	-1590
434.355	-1462
434.428	-1075
434.501	-1417
434.575	-2322
434.648	-1612
434.721	-2231
434.795	-2444
434.868	-2042
434.941	-1532
435.014	-1335
435.088	-1764
435.161	-446
435.234	36
435.307	893
435.381	-363
435.454	-1319
435.527	-1656
435.600	-1508
435.673	-1582
435.746	-1138
435.819	-1525
435.892	-814
435.966	-1631
436.039	-1785
436.112	-1460
436.185	-1912
436.258	-1646
436.331	-1702
436.404	-1869
436.477	-1478
436.550	-884
436.623	-1797
436.696	-2093
436.769	-1254
436.842	-1778
436.915	-1399
436.987	-1552
437.060	-1091
437.133	-1504
437.206	-2281
437.279	-1314
437.352	-2222
437.425	-1288
437.498	-988
437.570	110
437.643	800
437.716	-1479
437.789	-1961
437.861	-1050
437.934	-314
438.007	-820
438.080	-1850
438.152	-1077
438.225	-194
438.298	12242
438.370	43672
438.443	20006
438.516	1148
438.588	-863
438.661	-2167
438.734	-1466
438.806	-1575
438.879	-514
438.951	-1182
439.024	-730
439.096	-1616
439.169	-1433
439.241	-1656
439.314	-1282
439.386	-1625
439.459	-1515
439.531	-991
439.604	-1238
439.676	-922
439.749	-1562
439.821	-1872
439.893	-1441
439.966	-935
440.038	-1601
440.110	-758
440.183	-1846
440.255	-1365
440.327	-715
440.400	3586
440.472	23840
440.544	20870
440.617	908
440.689	-408
440.761	-638
440.833	726
440.905	-345
440.978	-1124
441.050	-1794
441.122	-1667
441.194	-2004
441.266	-1445
441.338	-1924
441.411	66
441.483	6468
441.555	13997
441.627	2612
441.699	-811
441.771	-1622
441.843	-1304
441.915	-2156
441.987	-446
442.059	-2274
442.131	-1397
442.203	-1401
442.275	-738
442.347	-943
442.419	-834
442.491	1332
442.563	6380
442.635	2817
442.706	1534
442.778	1709
442.850	-269
442.922	-1464
442.994	-538
443.066	-1058
443.137	-309
443.209	-1323
443.281	-1547
443.353	-974
443.425	2000
443.496	12596
443.568	15228
443.640	4053
443.711	-641
443.783	-1884
443.855	-1308
443.926	-1473
443.998	-1489
444.070	-1067
444.141	-571
444.213	-282
444.285	1586
444.356	-512
444.428	-1328
444.499	-1205
444.571	-1653
444.642	-856
444.714	-1497
444.785	-618
444.857	307
444.928	-584
445.000	-211
445.071	-1608
445.143	-474
445.214	-798
445.285	-431
445.357	1409
445.428	7431
445.500	24625
445.571	15165
445.642	5718
445.714	1002
445.785	812
445.856	-503
445.928	494
445.999	-768
446.070	-1156
446.141	563
446.213	1047
446.284	-326
446.355	-896
446.426	-1481
446.497	-684
446.569	-1227
446.640	-208
446.711	248
446.782	-1362
446.853	-1299
446.924	-240
446.995	-1185
447.066	-801
447.138	-1290
447.209	-1344
447.280	-1479
447.351	-1898
447.422	-1631
447.493	-1337
447.564	-1328
447.635	26
447.706	-863
447.777	-1406
447.847	-1400
447.918	-1310
447.989	-936
448.060	-507
448.131	-771
448.202	-232
448.273	1298
448.344	346
448.414	-1125
448.485	-1141
448.556	-503
448.627	-1425
448.698	120
448.768	-1660
448.839	-1240
448.910	-1773
448.981	-405
449.051	-963
449.122	-1526
449.193	-1934
449.263	-1432
449.334	-1715
449.405	-528
449.475	1100
449.546	2
449.616	-564
449.687	137
449.758	-957
449.828	-1111
449.899	-1522
449.969	-1151
450.040	-1438
450.110	-603
450.181	-871
450.251	-1607
450.322	-1342
450.392	173
450.463	-492
450.533	-1111
450.604	-1600
450.674	-619
450.744	-1410
450.815	-1381
450.885	-1154
450.955	-1574
451.026	-2069
451.096	-1561
451.166	-1545
451.237	-1677
451.307	-522
451.377	-377
451.447	-1578
451.518	-1242
451.588	-1086
451.658	-371
451.728	-691
451.799	-299
451.869	370
451.939	-1072
452.009	-940
452.079	-1259
452.149	-666
452.219	-677
452.289	-212
452.360	525
452.430	-1374
452.500	-1210
452.570	-481
452.640	-1045
452.710	-170
452.780	434
452.850	2036
452.920	4292
452.990	882
453.060	-442
453.129	-256
453.199	531
453.269	-390
453.339	2002
453.409	4414
453.479	3203
453.549	5532
453.619	5315
453.688	2011
453.758	-83
453.828	-710
453.898	-943
453.968	-1088
454.037	-532
454.087	-1368
454.107	-1726
454.168	-959
454.177	-864
454.247	-1480
454.249	-1445
454.316	-986
454.330	-1115
454.386	-1667
454.411	-1325
454.456	-880
454.492	-337
454.525	118
454.574	55
454.595	29
454.655	-795
454.665	-940
454.734	-152
454.736	-133
454.804	-494
454.817	-231
454.873	604
454.898	692
454.943	846
454.979	311
455.013	-165
455.060	-524
455.082	-684
455.141	-367
455.152	-342
455.221	-29
455.222	9
455.291	117
455.303	47
455.360	-61
455.384	91
455.430	207
455.465	222
455.499	186
455.546	1035
455.569	1326
455.627	346
455.638	160
455.707	321
455.708	333
455.777	-315
455.789	-369
455.846	-647
455.869	-602
455.916	-592
455.950	-644
455.985	-715
456.031	-372
456.054	-264
456.112	41
456.124	104
456.193	-177
456.193	-193
456.262	-211
456.274	-40
456.332	639
456.355	490
456.401	76
456.436	13
456.470	28
456.516	-147
456.540	-312
456.597	-623
456.609	-660
456.678	121
456.678	106
456.747	60
456.759	19
456.817	28
456.840	-71
456.886	-323
456.920	6
456.955	344
457.001	146
457.024	70
457.082	279
457.093	263
457.162	794
457.163	809
457.232	522
457.243	451
457.301	315
457.324	397
457.370	481
457.405	392
457.439	320
457.485	545
457.508	694
457.566	557
457.577	546
457.646	1533
457.647	1549
457.715	1596
457.727	1716
457.784	2617
457.808	2890
457.853	2575
457.889	2969
457.922	3196
457.969	2217
457.991	2249
458.050	3410
458.060	3593
458.129	5091
458.130	5155
458.198	3412
458.211	2859
458.267	1761
458.292	1529
458.336	1918
458.372	2229
458.405	2659
458.453	3293
458.474	3922
458.533	5906
458.543	5910
458.611	7565
458.614	7618
458.680	4009
458.694	2996
458.749	1986
458.775	1521
458.818	916
458.855	1263
458.887	1450
458.936	892
458.955	600
459.016	714
459.024	830
459.093	1863
459.097	1865
459.162	1528
459.177	1722
459.230	2740
459.257	3116
459.299	2814
459.338	2425
459.368	2348
459.418	2660
459.437	2710
459.499	2337
459.505	2274
459.574	1529
459.579	1517
459.643	1832
459.659	1881
459.711	2088
459.740	2310
459.780	2420
459.820	2616
459.849	2705
459.900	2496
459.917	2562
459.981	3138
459.986	3117
460.054	3008
460.061	2984
460.123	4485
460.141	5039
460.191	6440
460.222	7119
460.260	7507
460.302	8545
460.328	7561
460.382	5235
460.397	5226
460.462	3827
460.465	3848
460.534	5292
460.543	5509
460.602	10451
460.623	12543
460.671	19551
460.703	24572
460.739	19288
460.783	12488
460.808	10676
460.864	3805
460.876	3447
460.944	2809
460.945	2796
461.013	2991
461.024	3011
461.081	3378
461.104	3623
461.150	3101
461.184	2680
461.218	2738
461.264	2399
461.286	2249
461.345	2404
461.355	2438
461.423	2203
461.425	2207
461.491	2345
461.505	2380
461.559	3314
461.585	3758
461.628	4522
461.665	5263
461.696	5287
461.745	5392
461.764	4905
461.825	2396
461.832	2368
461.901	3217
461.905	3244
461.969	2112
461.985	1966
462.037	2858
462.065	3041
462.105	2667
462.145	2513
462.173	2933
462.225	3469
462.241	3681
462.305	4772
462.310	4679
462.378	3549
462.385	3364
462.446	3603
462.465	3639
462.514	3373
462.545	3453
462.582	3312
462.625	3058
462.650	2888
462.705	2297
462.718	2301
462.785	2323
462.786	2333
462.854	2909
462.865	3024
462.922	3807
462.945	4078
462.990	3715
463.025	3429
463.058	3315
463.104	3276
463.126	3278
463.184	2945
463.194	3031
463.262	3759
463.264	3781
463.330	3143
463.344	3025
463.398	3130
463.424	3163
463.466	2956
463.504	2880
463.533	3524
463.583	4350
463.601	4370
463.663	4591
463.669	4644
463.737	4815
463.743	4879
463.805	5554
463.823	5669
463.873	6804
463.903	7529
463.940	7015
463.982	6465
464.008	5697
464.062	3642
464.076	3577
464.142	3536
464.144	3544
464.211	3742
464.221	3738
464.279	3638
464.301	3655
464.347	3766
464.381	3786
464.414	3883
464.461	4121
464.482	4110
464.540	3753
464.550	3954
464.617	5592
464.620	5644
464.685	8073
464.699	8539
464.753	9501
464.779	10019
464.820	10474
464.859	11099
464.888	10129
464.938	8061
464.956	8188
465.018	8437
465.023	8374
465.091	7239
465.098	7153
465.158	6985
465.177	6936
465.226	7037
465.257	7034
465.293	8114
465.336	9282
465.361	9937
465.416	11510
465.428	11336
465.495	10197
465.496	10216
465.563	10629
465.575	10723
465.631	10753
465.654	10744
465.698	9120
465.734	7585
465.765	7375
465.813	7253
465.833	7227
465.893	6925
465.900	6947
465.968	7124
465.972	7123
466.035	7124
466.052	7114
466.102	7478
466.131	7638
466.170	7395
466.210	7166
466.237	7261
466.290	7286
466.304	7207
466.369	6845
466.372	6881
466.439	7584
466.449	7663
466.506	8167
466.528	8334
466.573	10042
466.607	11324
466.641	13357
466.687	16112
466.708	17071
466.766	19627
466.775	18661
466.842	11161
466.845	10781
466.909	10090
466.925	9913
466.977	8919
467.004	8389
467.044	9294
467.083	10148
467.111	11790
467.163	14841
467.178	15172
467.242	16380
467.245	16305
467.312	14087
467.321	13764
467.379	12577
467.400	12111
467.446	12178
467.480	12188
467.559	12082
467.638	10818
467.717	11807
467.796	13108
467.875	14906
467.955	11348
468.034	13518
468.113	17228
468.192	20425
468.271	11003
468.350	10946
468.429	11578
468.508	11106
468.588	10402
468.667	9691
468.746	9725
468.825	9590
468.904	8985
468.983	10634
469.062	11435
469.141	13137
469.220	9928
469.299	10397
469.378	11638
469.456	15203
469.535	13599
469.614	12578
469.693	12276
469.772	12714
469.851	14455
469.930	11793
470.009	12584
470.088	14402
470.166	20372
470.245	33801
470.324	37439
470.403	19545
470.482	13942
470.560	12028
470.639	12825
470.718	14839
470.797	11290
470.875	12406
470.954	13073
471.033	13206
471.111	9214
471.190	9229
471.269	8957
471.347	9374
471.426	8808
471.505	11457
471.583	12484
471.662	11669
471.740	9833
471.819	10487
471.898	10340
471.976	9759
472.055	11020
472.133	9887
472.212	10562
472.290	10075
472.369	8509
472.447	10197
472.526	8751
472.604	10213
472.683	11095
472.761	11486
472.839	10237
472.918	9552
472.996	9696
473.075	9808
473.153	9474
473.231	8994
473.310	10417
473.388	9439
473.466	10361
473.545	13747
473.623	17734
473.701	15624
473.780	9832
473.858	9235
473.936	11044
474.014	9855
474.093	10195
474.171	11049
474.249	11113
474.327	9534
474.405	9083
474.484	9839
474.562	9505
474.640	9195
474.718	8989
474.796	8889
474.874	8967
474.952	8222
475.030	7540
475.108	8603
475.187	8916
475.265	11048
475.343	16148
475.421	16593
475.499	8674
475.577	8473
475.655	8877
475.733	11781
475.811	13449
475.889	12821
475.966	9727
476.044	9445
476.122	11605
476.200	14614
476.278	10382
476.356	8978
476.434	9239
476.512	11364
476.590	13817
476.667	11333
476.745	7404
476.823	9240
476.901	7177
476.979	7548
477.056	8500
477.134	8115
477.212	7899
477.290	8471
477.367	6917
477.445	7347
477.523	6603
477.601	8198
477.678	7543
477.756	7546
477.834	6975
477.911	7031
477.989	7174
478.066	6139
478.144	7754
478.222	11768
478.299	18188
478.377	13180
478.454	6455
478.532	6205
478.609	7873
478.687	8764
478.764	6787
478.842	8372
478.919	8918
478.997	7037
479.074	6459
479.152	6254
479.229	7811
479.307	6265
479.384	6269
479.461	6647
479.539	6512
479.616	6172
479.694	5951
479.771	7230
479.848	6756
479.926	6064
480.003	7416
480.080	5936
480.157	6326
480.235	5703
480.312	6554
480.389	5465
480.467	6039
480.544	7525
480.621	5587
480.698	6386
480.775	6718
480.853	6492
480.930	5331
481.007	6158
481.084	6318
481.161	6054
481.238	6750
481.315	5433
481.392	5015
481.470	5148
481.547	5833
481.624	5573
481.701	5467
481.778	4836
481.855	5791
481.932	6463
482.009	8435
482.086	6643
482.163	6839
482.240	12763
482.317	22351
482.393	12389
482.470	4730
482.547	5963
482.624	5226
482.701	5690
482.778	4971
482.855	4643
482.932	4841
483.009	4205
483.085	5952
483.162	5966
483.239	6907
483.316	4854
483.393	5254
483.469	4735
483.546	5027
483.623	5656
483.699	4620
483.776	5936
483.853	6051
483.930	8596
484.006	12103
484.083	20648
484.160	29426
484.236	49594
484.313	34462
484.389	25502
484.466	22681
484.543	22161
484.619	21756
484.696	22534
484.772	20998
484.849	22129
484.925	19567
485.002	20338
485.078	20829
485.155	20616
485.231	19964
485.308	18788
485.384	19324
485.461	21151
485.537	22746
485.614	22866
485.690	19162
485.766	18535
485.843	21991
485.919	32359
485.995	27879
486.072	17328
486.148	16608
486.224	16169
486.301	16633
486.377	17763
486.453	18056
486.530	20973
486.606	28354
486.682	28776
486.758	25497
486.835	24367
486.911	24155
486.987	34157
487.063	54293
487.139	72407
487.215	45749
487.292	21094
487.368	18868
487.444	18825
487.520	22592
487.596	21253
487.672	27501
487.748	46971
487.824	51260
487.900	21740
487.976	18874
488.052	19137
488.128	20344
488.204	18592
488.280	16534
488.356	18276
488.432	22225
488.508	24581
488.584	18914
488.660	17926
488.736	17149
488.812	20536
488.888	26333
488.964	38307
489.039	82844
489.115	106726
489.191	45187
489.267	17007
489.343	15801
489.418	15071
489.494	15390
489.570	13515
489.646	14486
489.722	13899
489.797	14235
489.873	16516
489.949	19740
490.024	17064
490.100	13460
490.176	15271
490.251	19185
490.327	24615
490.403	13035
490.478	13628
490.554	11248
490.629	12842
490.705	11131
490.781	14155
490.856	12647
490.932	15551
491.007	15086
491.083	14022
491.158	12022
491.234	14474
491.309	15744
491.385	15039
491.460	11619
491.536	13234
491.611	12350
491.686	16231
491.762	23597
491.837	50475
491.913	73834
491.988	104665
492.063	108821
492.139	17163
492.214	12308
492.289	11877
492.365	11326
492.440	13187
492.515	10208
492.590	11136
492.666	9692
492.741	12311
492.816	11168
492.891	9794
492.967	10681
493.042	9187
493.117	9550
493.192	10188
493.267	12468
493.342	15778
493.418	12764
493.493	10265
493.568	9132
493.643	10742
493.718	12093
493.793	15753
493.868	21430
493.943	14810
494.018	11150
494.093	8163
494.168	9514
494.243	8636
494.318	9000
494.393	8579
494.468	9429
494.543	10338
494.618	12725
494.693	9027
494.768	8059
494.842	9443
494.917	9606
494.992	10460
495.067	8719
495.142	8739
495.217	10159
495.292	9894
495.366	11563
495.441	12003
495.516	16897
495.591	33905
495.665	113914
495.740	218291
495.815	50523
495.890	10902
495.964	7358
496.039	11577
496.114	9082
496.188	10684
496.263	10769
496.338	8148
496.412	9188
496.487	11360
496.561	14826
496.636	12679
496.710	10435
496.785	9553
496.860	10342
496.934	9233
497.009	10597
497.083	9808
497.158	11522
497.232	11244
497.307	12772
497.381	11452
497.455	11319
497.530	10360
497.604	8798
497.679	9102
497.753	11893
497.827	13956
497.902	12479
497.976	15948
498.050	33299
498.125	91417
498.199	74553
498.273	27727
498.348	23170
498.422	17737
498.496	19716
498.570	16874
498.645	9415
498.719	8114
498.793	9474
498.867	14083
498.941	17079
499.016	39936
499.090	83832
499.164	22440
499.238	8929
499.312	10447
499.386	15302
499.460	11526
499.534	10608
499.609	11875
499.683	11706
499.757	9466
499.831	20010
499.905	56034
499.979	38148
500.053	12384
500.127	18346
500.201	17406
500.275	9477
500.349	10160
500.422	11661
500.496	22550
500.570	46256
500.644	50544
500.718	55336
500.792	11871
500.866	7434
500.940	7259
501.013	7343
501.087	9841
501.161	22976
501.235	18657
501.309	21993
501.382	47542
501.456	35318
501.530	12650
501.603	14461
501.677	7348
501.751	5413
501.825	6958
501.898	10128
501.972	19284
502.046	10564
502.119	7867
502.193	16233
502.266	19813
502.340	9959
502.413	11599
502.487	15405
502.561	9145
502.634	7267
502.708	9703
502.781	7088
502.855	5672
502.928	4575
503.002	4642
503.075	4546
503.149	5071
503.222	4718
503.295	5114
503.369	5740
503.442	6515
503.516	16273
503.589	29447
503.662	16641
503.736	8405
503.809	17000
503.882	13555
503.956	22355
504.029	21010
504.102	28209
504.175	27668
504.249	6979
504.322	6702
504.395	6302
504.468	5199
504.542	4811
504.615	4672
504.688	4867
504.761	4412
504.834	8365
504.907	13198
504.980	19098
505.053	8039
505.127	13022
505.200	10533
505.273	5299
505.346	4220
505.419	3238
505.492	4832
505.565	3885
505.638	3826
505.711	3761
505.784	2673
505.857	3632
505.930	5077
506.003	3749
506.076	5416
506.149	4772
506.221	3704
506.294	6369
506.367	10777
506.440	27342
506.513	13989
506.586	5325
506.659	5386
506.731	5597
506.804	7215
506.877	10091
506.950	4904
507.022	4990
507.095	4339
507.168	6022
507.241	6384
507.313	4608
507.386	6554
507.459	10797
507.531	5312
507.604	4455
507.677	4948
507.749	4728
507.822	10307
507.894	21084
507.967	20981
508.040	10555
508.112	9522
508.185	8821
508.257	10612
508.330	14487
508.402	7164
508.475	7376
508.547	7655
508.620	6716
508.692	8080
508.765	7631
508.837	7106
508.909	6766
508.982	7392
509.054	9790
509.127	7236
509.199	6158
509.271	5499
509.344	6651
509.416	6528
509.488	6423
509.560	7251
509.633	7961
509.705	8924
509.777	8721
509.849	13473
509.922	7140
509.994	6083
510.066	7823
510.138	9936
510.210	19035
510.283	14976
510.355	12143
510.427	12112
510.499	11903
510.571	12255
510.643	11501
510.715	19382
510.787	13573
510.859	11329
510.931	11916
511.003	18076
511.076	13769
511.148	8254
511.219	8098
511.291	9475
511.363	10097
511.435	8260
511.507	6905
511.579	8094
511.651	9565
511.723	7102
511.795	7513
511.867	7573
511.939	8726
512.010	9985
512.082	9422
512.154	7902
512.226	9858
512.298	17341
512.369	21293
512.441	16056
512.513	16129
512.585	11873
512.656	12653
512.728	12956
512.800	10043
512.871	9714
512.943	10522
513.015	8634
513.086	11539
513.158	11443
513.230	11582
513.301	17665
513.373	19736
513.444	10366
513.516	9173
513.588	10344
513.659	11722
513.731	14666
513.802	13310
513.874	31895
513.945	42246
514.016	11278
514.088	10381
514.159	12302
514.231	16230
514.302	19371
514.374	13493
514.445	10335
514.516	13533
514.588	10239
514.659	9988
514.730	12397
514.802	12957
514.873	9866
514.944	12090
515.016	11880
515.087	12503
515.158	12236
515.229	12875
515.301	10621
515.372	10705
515.443	9503
515.514	8977
515.585	8046
515.656	8831
515.728	9860
515.799	8745
515.870	10460
515.941	10702
516.012	11465
516.083	15977
516.154	17860
516.225	22628
516.296	17776
516.367	17179
516.438	21856
516.509	31414
516.580	61893
516.651	202178
516.722	525568
516.793	130734
516.864	30362
516.935	27492
517.006	37962
517.077	68753
517.148	187543
517.219	599059
517.289	606413
517.360	75778
517.431	23519
517.502	15611
517.573	15650
517.643	15424
517.714	16442
517.785	16686
517.856	16723
517.926	20586
517.997	24032
518.068	34967
518.138	56008
518.209	120311
518.280	421408
518.350	1028186
518.421	259160
518.492	33845
518.562	19242
518.633	15362
518.703	12817
518.774	19244
518.845	28896
518.915	23874
518.986	12868
519.056	18521
519.127	36740
519.197	43028
519.268	43915
519.338	19787
519.408	15367
519.479	23513
519.549	14424
519.620	9779
519.690	7844
519.760	8178
519.831	9559
519.901	8003
519.971	7311
520.042	7304
520.112	7568
520.182	11507
520.253	12634
520.323	6657
520.393	8732
520.463	11478
520.534	5568
520.604	12040
520.674	8062
520.744	8117
520.814	14864
520.885	14144
520.955	14207
521.025	30933
521.095	10699
521.165	6965
521.235	6423
521.305	6377
521.375	6864
521.445	9398
521.515	13159
521.585	15684
521.655	11761
521.725	11611
521.795	10066
521.865	5002
521.935	8621
522.005	5849
522.075	6051
522.145	6685
522.215	5894
522.285	6666
522.355	8824
522.424	12507
522.494	11572
522.564	16314
522.634	43035
522.704	102291
522.774	22710
522.843	8265
522.913	8647
522.983	11978
523.053	7552
523.122	9411
523.192	19143
523.262	62159
523.331	36464
523.401	7624
523.471	6314
523.540	6846
523.610	4767
523.680	5009
523.749	5937
523.819	5094
523.888	4683
523.958	4854
524.027	4728
524.097	5345
524.166	6274
524.236	6372
524.305	6950
524.375	5365
524.444	4342
524.514	5859
524.583	3937
524.653	5843
524.722	6043
524.791	3978
524.861	5423
524.930	4662
524.999	7325
525.069	8613
525.138	4841
525.207	4526
525.277	5683
525.346	5750
525.415	5346
525.484	5992
525.554	4702
525.623	4955
525.692	5738
525.761	4593
525.830	5787
525.900	5194
525.969	6864
526.038	10812
526.107	17890
526.176	43372
526.245	28026
526.314	18422
526.383	27462
526.452	29176
526.522	59349
526.591	51885
526.660	37683
526.729	15554
526.797	25952
526.867	70536
526.935	245110
527.004	200252
527.073	61506
527.142	7564
527.211	6974
527.280	9476
527.349	8264
527.418	3723
527.487	5945
527.555	4190
527.624	4238
527.693	2719
527.762	4680
527.831	3135
527.899	3964
527.968	4453
528.037	4393
528.106	8036
528.174	14369
528.243	8818
528.312	13883
528.380	16138
528.449	4132
528.518	5261
528.586	1440
528.655	3837
528.723	3814
528.792	2961
528.861	3700
528.929	1930
528.998	4193
529.066	3795
529.135	3457
529.203	3329
529.272	2296
529.340	4304
529.409	4721
529.477	3150
529.545	3188
529.614	4893
529.682	2408
529.751	3810
529.819	5765
529.887	2488
529.956	2838
530.024	3649
530.092	3876
530.161	6504
530.229	10545
530.297	3666
530.365	3891
530.434	3119
530.502	2830
530.570	3876
530.638	1903
530.707	4443
530.775	5113
530.843	3324
530.911	3106
530.979	3357
531.047	3268
531.115	3095
531.183	2954
531.252	3561
531.320	3088
531.388	2993
531.456	3344
531.524	1381
531.592	3550
531.660	5417
531.728	3388
531.796	2503
531.864	4099
531.932	3857
532.000	3296
532.067	3542
532.135	4872
532.203	5514
532.271	6339
532.339	16392
532.407	40131
532.475	14987
532.542	7572
532.610	11514
532.678	22031
532.746	92904
532.814	161817
532.881	26054
532.949	5555
533.017	3970
533.084	3675
533.152	2198
533.220	4497
533.287	4934
533.355	3718
533.423	3888
533.490	2997
533.558	3884
533.625	3439
533.693	4121
533.761	3705
533.828	4867
533.896	5553
533.963	14955
534.031	15648
534.098	22566
534.166	6050
534.233	3533
534.300	4791
534.368	3590
534.435	2699
534.503	3918
534.570	3697
534.637	3296
534.705	4835
534.772	5216
534.840	6940
534.907	22590
534.974	19287
535.041	4007
535.109	3911
535.176	2467
535.243	4237
535.310	4701
535.378	3194
535.445	3567
535.512	3899
535.579	3852
535.646	3029
535.714	3454
535.781	6991
535.848	5225
535.915	4514
535.982	4194
536.049	3495
536.116	4296
536.183	3805
536.250	4390
536.317	5070
536.384	7068
536.451	11227
536.518	9716
536.585	5697
536.652	9349
536.719	15030
536.786	8865
536.853	8237
536.920	13631
536.987	24960
537.053	28427
537.120	102686
537.187	55586
537.254	5439
537.321	4237
537.388	6050
537.454	3510
537.521	3496
537.588	3917
537.654	6787
537.721	6728
537.788	6794
537.855	5014
537.921	5203
537.988	5021
538.055	5185
538.121	5263
538.188	6764
538.254	12525
538.321	23866
538.388	10372
538.454	5677
538.521	5011
538.587	4815
538.654	4077
538.720	4150
538.787	4988
538.853	5208
538.920	6608
538.986	5399
539.053	4464
539.119	5655
539.185	6727
539.252	9129
539.318	12562
539.385	9745
539.451	7768
539.517	9805
539.583	13671
539.650	34329
539.716	65525
539.782	11463
539.849	6129
539.915	6748
539.981	5356
540.047	7925
540.114	6295
540.180	7779
540.246	7070
540.312	12635
540.378	25151
540.444	25085
540.510	35547
540.576	75945
540.643	14021
540.709	4731
540.775	6390
540.841	4510
540.907	6928
540.973	9671
541.039	12203
541.105	13043
541.171	6609
541.237	5736
541.303	6383
541.369	10053
541.435	12670
541.500	20628
541.566	8976
541.632	5649
541.698	4850
541.764	6328
541.830	4731
541.896	4557
541.961	5773
542.027	5518
542.093	5117
542.159	6720
542.224	6884
542.290	12561
542.356	21660
542.421	21767
542.487	8122
542.553	6179
542.618	6795
542.684	6331
542.750	7251
542.815	11272
542.881	21303
542.947	73115
543.012	33928
543.078	5419
543.143	5511
543.209	8414
543.274	6975
543.340	11143
543.405	30430
543.471	35357
543.536	6515
543.602	6197
543.667	4517
543.732	6124
543.798	4285
543.863	5913
543.928	4872
543.994	4383
544.059	5307
544.124	6199
544.190	5645
544.255	5697
544.320	5579
544.386	6252
544.451	10885
544.516	13486
544.581	16169
544.646	48882
544.712	54019
544.777	8592
544.842	6043
544.907	5364
544.972	5725
545.037	5319
545.102	6589
545.168	6091
545.233	6933
545.298	8342
545.363	9083
545.428	13060
545.493	28861
545.558	52213
545.623	13325
545.688	6758
545.753	5027
545.818	5671
545.883	6377
545.947	5235
546.012	6254
546.077	5291
546.142	7172
546.207	6639
546.272	10846
546.337	9343
546.401	7726
546.466	6636
546.531	5228
546.596	7430
546.661	7139
546.725	7001
546.790	6211
546.855	6581
546.919	4990
546.984	6928
547.049	6212
547.113	7779
547.178	6579
547.243	8460
547.307	9402
547.372	9800
547.436	8560
547.501	8830
547.565	11086
547.630	12723
547.695	10434
547.759	9125
547.823	8664
547.888	8480
547.952	8386
548.017	9202
548.081	10348
548.146	10321
548.210	10772
548.274	9212
548.339	9616
548.403	9181
548.468	8018
548.532	8007
548.596	8162
548.660	7920
548.725	10252
548.789	10027
548.853	11193
548.917	9282
548.982	9335
549.046	9225
549.110	7375
549.174	8473
549.238	8578
549.303	8630
549.367	10740
549.431	9184
549.495	8869
549.559	8263
549.623	11097
549.687	12878
549.751	17730
549.815	11007
549.879	11929
549.943	9967
550.007	11658
550.071	13438
550.135	16924
550.199	12057
550.263	10748
550.327	10284
550.391	10451
550.455	11696
550.519	11950
550.582	13312
550.646	19354
550.710	17125
550.774	12580
550.838	12218
550.901	12366
550.965	13741
551.029	13294
551.093	15959
551.156	16510
551.220	19810
551.284	22470
551.347	16149
551.411	17302
551.475	16975
551.538	13772
551.602	12929
551.666	11893
551.729	10608
551.793	11219
551.856	11992
551.920	10669
551.983	10869
552.047	10677
552.110	11275
552.174	11107
552.237	11844
552.301	10788
552.364	11229
552.428	10859
552.491	11123
552.554	13136
552.618	12946
552.681	15390
552.745	18583
552.808	39139
552.871	43639
552.934	18086
552.998	12355
553.061	10897
553.124	11072
553.187	10903
553.251	10641
553.314	10930
553.377	10742
553.440	12024
553.503	14124
553.567	13715
553.630	11449
553.693	10708
553.756	11964
553.819	10658
553.882	11241
553.945	11700
554.008	10355
554.071	10096
554.134	11203
554.197	9934
554.260	10357
554.323	12998
554.386	12556
554.449	10789
554.512	11688
554.575	10001
554.638	11020
554.701	10723
554.764	10559
554.827	10002
554.889	9638
554.952	9164
555.015	8927
555.078	9441
555.141	10673
555.203	8894
555.266	9327
555.329	10063
555.391	10117
555.454	10128
555.517	9617
555.580	9386
555.642	7995
555.705	8878
555.768	8834
555.830	8411
555.893	7418
555.955	7400
556.018	9039
556.080	8202
556.143	7944
556.206	7655
556.268	8019
556.330	9158
556.393	7883
556.455	7386
556.518	8477
556.580	8826
556.643	7822
556.705	7283
556.767	6615
556.830	8424
556.892	10174
556.955	15382
557.017	9501
557.079	7082
557.142	7910
557.204	10305
557.266	21900
557.328	12979
557.391	5404
557.453	5769
557.515	6928
557.577	8985
557.639	7707
557.701	5057
557.764	5378
557.826	5060
557.888	6315
557.950	6142
558.012	7458
558.074	8397
558.136	15895
558.198	25475
558.260	10051
558.322	6578
558.384	7747
558.446	9075
558.508	9718
558.570	14671
558.632	28844
558.694	36438
558.756	29799
558.818	76146
558.880	133123
558.942	29424
559.003	27764
559.065	12106
559.127	7905
559.189	9004
559.251	9836
559.312	16603
559.374	35512
559.436	84877
559.498	28785
559.559	8418
559.621	8560
559.683	11822
559.744	18566
559.806	45891
559.868	47628
559.929	10219
559.991	9253
560.052	12899
560.114	27960
560.176	15473
560.237	20589
560.299	24530
560.360	6640
560.422	5692
560.483	5331
560.545	4789
560.606	4542
560.667	3899
560.729	4698
560.790	4944
560.852	4792
560.913	4697
560.974	5023
561.036	4214
561.097	4596
561.158	4630
561.220	6056
561.281	4826
561.342	7116
561.403	9608
561.465	12979
561.526	32715
561.587	31752
561.648	7031
561.709	5259
561.771	5112
561.832	5085
561.893	5400
561.954	5868
562.015	5285
562.076	4939
562.137	5647
562.198	5305
562.259	6126
562.320	6035
562.381	7769
562.442	10429
562.503	7892
562.564	6300
562.625	5631
562.686	5848
562.747	5789
562.808	6215
562.869	5488
562.930	5874
562.991	5399
563.051	5648
563.112	5593
563.173	5574
563.234	4358
563.294	6086
563.355	5621
563.416	6659
563.477	5306
563.537	5936
563.598	5510
563.659	5592
563.720	5237
563.780	6603
563.841	6320
563.901	5425
563.962	5431
564.023	5612
564.083	5224
564.144	5634
564.204	4631
564.265	5169
564.325	5725
564.386	7276
564.446	6666
564.507	5285
564.567	5429
564.628	5823
564.688	4890
564.749	5163
564.809	6195
564.869	5577
564.930	5020
564.990	6120
565.050	6204
565.111	6731
565.171	5865
565.231	6088
565.292	6387
565.352	5036
565.412	5794
565.472	5725
565.532	6070
565.593	5731
565.653	5322
565.713	5265
565.773	6708
565.833	8628
565.893	10614
565.953	5589
566.013	5462
566.074	5494
566.134	6741
566.194	8411
566.254	9234
566.314	5709
566.374	5876
566.434	5621
566.494	5660
566.554	5868
566.614	6065
566.673	5311
566.733	5227
566.793	5618
566.853	5571
566.913	5583
566.973	6200
567.033	6595
567.092	5486
567.152	6224
567.212	6316
567.272	6053
567.331	6207
567.391	6078
567.451	5535
567.511	7195
567.570	6241
567.630	6442
567.690	5712
567.749	5227
567.809	6374
567.868	7404
567.928	7295
567.988	6785
568.047	7152
568.107	9631
568.166	10601
568.226	15936
568.285	19061
568.345	12846
568.404	10118
568.464	7742
568.523	8028
568.582	9451
568.642	11464
568.701	14566
568.761	20529
568.820	31494
568.879	21878
568.939	14205
568.998	9726
569.057	8242
569.116	7337
569.176	6906
569.235	4817
569.294	5703
569.353	5763
569.413	6498
569.472	5805
569.531	5362
569.590	5149
569.649	4937
569.708	5233
569.767	6537
569.827	7283
569.886	6131
569.945	5649
570.004	5516
570.063	6195
570.122	6822
570.181	5455
570.240	5628
570.299	6163
570.358	6774
570.417	5167
570.475	5042
570.534	6384
570.593	6040
570.652	5994
570.711	5937
570.770	5325
570.829	6691
570.887	7538
570.946	7338
571.005	6316
571.064	7438
571.122	7519
571.181	5632
571.240	5201
571.299	5613
571.357	5747
571.416	5017
571.475	5712
571.533	5727
571.592	5094
571.650	4725
571.709	5198
571.768	5059
571.826	5743
571.885	5103
571.943	4135
572.002	5161
572.060	4478
572.119	4459
572.177	4820
572.236	4577
572.294	4334
572.352	4672
572.411	4284
572.469	4862
572.528	4684
572.586	5754
572.644	4690
572.703	5058
572.761	4386
572.819	5426
572.877	4506
572.936	4725
572.994	4104
573.052	5117
573.110	4539
573.169	5029
573.227	3971
573.285	4824
573.343	5176
573.401	4172
573.459	4280
573.517	4991
573.576	4826
573.634	4034
573.692	4400
573.750	4324
573.808	4287
573.866	4718
573.924	4687
573.982	4466
574.040	4527
574.098	4468
574.155	3781
574.213	4609
574.271	3907
574.329	4509
574.387	4215
574.445	3555
574.503	3755
574.560	3921
574.618	4204
574.676	4171
574.734	3615
574.792	4729
574.849	4611
574.907	3016
574.965	3816
575.022	2830
575.080	4214
575.138	4504
575.195	4108
575.253	4441
575.311	4966
575.368	4043
575.426	4064
575.483	5136
575.541	4416
575.598	3376
575.656	4919
575.713	3528
575.771	3399
575.828	4272
575.886	4162
575.943	4810
576.001	3785
576.058	3999
576.115	3899
576.173	4167
576.230	5336
576.287	6139
576.345	5149
576.402	4198
576.459	3993
576.517	4371
576.574	4627
576.631	4383
576.688	4736
576.746	3842
576.803	4086
576.860	3808
576.917	4362
576.974	4140
577.031	4242
577.089	4537
577.146	4295
577.203	4497
577.260	4852
577.317	4049
577.374	4588
577.431	4918
577.488	4572
577.545	3312
577.602	3877
577.659	3826
577.716	3779
577.773	3712
577.830	3356
577.886	4260
577.943	3724
578.000	4619
578.057	4968
578.114	4456
578.171	4511
578.227	4502
578.284	4345
578.341	3995
578.398	4048
578.454	4927
578.511	4120
578.568	4900
578.625	4084
578.681	4526
578.738	3450
578.794	4108
578.851	5034
578.908	5362
578.964	5226
579.021	5669
579.077	4847
579.134	4895
579.190	5261
579.247	5499
579.303	4729
579.360	3916
579.416	4571
579.473	4340
579.529	4286
579.586	4140
579.642	4799
579.698	4238
579.755	5026
579.811	4008
579.867	4264
579.924	3824
579.980	3553
580.036	4358
580.093	4261
580.149	4574
580.205	4959
580.261	4433
580.317	4424
580.374	4839
580.430	5283
580.486	5048
580.542	4679
580.598	4603
580.619	4984
580.654	5654
580.692	4922
580.710	4571
580.765	4887
580.767	4903
580.823	5323
580.838	5115
580.879	4562
580.911	4690
580.935	4818
580.984	4631
580.991	4610
581.047	4019
581.057	4185
581.103	4925
581.130	4801
581.159	4702
581.203	4751
581.215	4755
581.270	4256
581.276	4209
581.326	3860
581.349	4005
581.382	4217
581.422	4044
581.438	3974
581.494	4279
581.494	4281
581.550	4745
581.567	4716
581.606	4704
581.640	4338
581.661	4118
581.713	4603
581.717	4646
581.773	4731
581.786	4740
581.829	4738
581.859	4621
581.885	4522
581.932	4701
581.940	4743
581.996	5372
582.004	5231
582.052	4469
582.077	4536
582.107	4634
582.150	4463
582.163	4395
582.219	4480
582.223	4516
582.274	5028
582.296	4668
582.330	4147
582.368	5031
582.386	5419
582.441	4330
582.441	4330
582.497	4345
582.514	4559
582.552	5022
582.587	5123
582.608	5164
582.659	4134
582.663	4068
582.719	4965
582.732	5138
582.774	5604
582.805	5245
582.830	4976
582.877	4385
582.885	4265
582.941	4131
582.950	4203
582.996	4656
583.023	4884
583.052	5145
583.095	4567
583.107	4401
583.162	4363
583.168	4398
583.218	4784
583.240	4588
583.273	4313
583.313	4125
583.328	4042
583.384	4735
583.385	4713
583.439	4071
583.458	4356
583.494	4795
583.531	4256
583.549	4099
583.603	4575
583.605	4581
583.660	4746
583.676	4692
583.715	4616
583.748	4889
583.770	5096
583.820	4627
583.825	4565
583.881	4758
583.893	4719
583.936	4730
583.965	4621
583.991	4436
584.038	4450
584.046	4468
584.101	4381
584.110	4337
584.156	4124
584.183	4242
584.211	4376
584.255	4947
584.266	5043
584.321	4576
584.328	4590
584.376	5065
584.400	5242
584.431	5291
584.472	4771
584.486	4645
584.541	4670
584.545	4676
584.596	4426
584.617	4367
584.651	4520
584.689	4690
584.706	4806
584.761	5211
584.762	5214
584.816	4926
584.834	4923
584.871	4913
584.906	5097
584.926	5242
584.978	4303
584.980	4288
585.035	5361
585.051	5694
585.090	5951
585.123	5527
585.145	5356
585.195	5363
585.200	5373
585.254	5725
585.267	5778
585.309	5799
585.340	5625
585.364	5495
585.412	6418
585.419	6536
585.473	7305
585.484	7376
585.528	8091
585.556	9260
585.583	10506
585.628	13008
585.637	13962
585.692	25597
585.700	27112
585.747	33496
585.772	27283
585.801	16320
585.845	7907
585.856	6903
585.910	6020
585.917	5975
585.965	6123
585.989	6117
586.019	5998
586.061	5794
586.074	5843
586.128	6315
586.133	6341
586.183	6451
586.205	6483
586.237	6488
586.277	6366
586.292	6238
586.346	5954
586.349	5934
586.401	5858
586.421	6139
586.455	6621
586.493	6929
586.509	7021
586.564	6360
586.565	6395
586.618	8159
586.637	8159
586.672	7749
586.709	7075
586.727	6800
586.781	7225
586.781	7223
586.835	7012
586.853	7158
586.889	7530
586.925	7473
586.944	7244
586.996	6932
586.998	6939
587.052	7614
587.068	7733
587.106	7847
587.140	8093
587.161	8265
587.212	8010
587.215	7984
587.269	8409
587.284	8399
587.323	8319
587.356	8458
587.377	8629
587.427	9071
587.431	9084
587.485	9026
587.499	9043
587.539	8800
587.571	8635
587.593	8869
587.643	9764
587.648	9806
587.702	9682
587.715	9796
587.755	10302
587.786	10726
587.810	10958
587.858	11240
587.864	11319
587.917	12240
587.930	12527
587.971	13240
588.001	13563
588.025	13849
588.073	14908
588.079	15093
588.133	16247
588.145	16648
588.187	17794
588.217	18898
588.241	20167
588.288	21986
588.295	22293
588.348	25667
588.360	26567
588.402	29810
588.431	31751
588.456	34023
588.503	40017
588.510	40815
588.564	48196
588.575	50232
588.617	60153
588.646	68139
588.671	76276
588.718	95033
588.725	99485
588.778	139503
588.789	149525
588.832	220039
588.861	274399
588.886	348155
588.932	483889
588.939	493870
588.993	532252
589.004	537043
589.047	413299
589.075	315199
589.100	249724
589.147	144588
589.154	138157
589.207	101803
589.218	95699
589.261	89052
589.290	87045
589.314	90387
589.361	100431
589.368	104618
589.421	144678
589.433	155209
589.475	242874
589.504	310233
589.528	377848
589.576	489896
589.582	479135
589.635	346595
589.647	314534
589.689	187747
589.718	108792
589.742	87846
589.790	53959
589.795	52236
589.849	38751
589.861	35985
589.902	30991
589.932	27406
589.955	25163
590.004	20926
590.009	20691
590.062	18901
590.075	18340
590.115	17275
590.146	16729
590.168	16003
590.218	14556
590.222	14532
590.275	14560
590.289	14423
590.328	13866
590.360	13624
590.381	12984
590.431	11493
590.435	11468
590.488	11270
590.503	11231
590.541	11056
590.574	10857
590.594	10788
590.645	10686
590.647	10667
590.700	10435
590.716	10289
590.753	10038
590.787	10002
590.806	9723
590.859	8969
590.859	8966
590.912	9667
590.930	9881
590.965	9824
591.001	9991
591.018	10137
591.071	10419
591.072	10425
591.124	10176
591.143	10134
591.177	9709
591.214	9187
591.230	9179
591.283	9195
591.285	9208
591.336	9824
591.356	10145
591.389	10235
591.427	10195
591.442	9982
591.495	9330
591.498	9289
591.547	8793
591.569	8602
591.600	8508
591.640	8425
591.653	8383
591.706	8188
591.711	8183
591.759	8231
591.782	8296
591.811	8549
591.853	8894
591.864	8954
591.917	9301
591.924	9357
591.969	8677
591.995	8291
592.022	8334
592.066	8444
592.075	8416
592.127	8314
592.137	8301
592.180	8453
592.208	8574
592.233	8360
592.279	7994
592.285	8019
592.338	8332
592.350	8416
592.390	8052
592.421	7807
592.443	7799
592.491	7809
592.495	7828
592.548	8284
592.562	8420
592.600	8261
592.633	8155
592.653	7905
592.704	7254
592.705	7298
592.775	7477
592.846	7963
592.916	7305
592.987	8598
593.058	8522
593.128	7292
593.199	7451
593.270	7550
593.341	7819
593.411	7002
593.482	7696
593.553	8938
593.623	7990
593.694	7447
593.764	7280
593.835	7751
593.906	7499
593.976	6873
594.047	7171
594.117	7010
594.188	7540
594.258	6802
594.329	6783
594.399	7860
594.470	7963
594.540	7387
594.611	7422
594.681	6675
594.751	6866
594.822	7750
594.892	7716
594.963	7229
595.033	7325
595.103	7417
595.174	7069
595.244	8379
595.314	7861
595.384	7461
595.455	6777
595.525	7367
595.595	8003
595.665	8047
595.736	7712
595.806	7685
595.876	7364
595.946	7792
596.016	7952
596.087	8126
596.157	7963
596.227	7312
596.297	7868
596.367	8940
596.437	8102
596.507	8605
596.577	8816
596.647	8771
596.717	8481
596.787	8572
596.857	8849
596.927	8794
596.997	8427
597.067	9066
597.137	9241
597.207	8574
597.277	9592
597.347	8924
597.417	8806
597.487	10060
597.557	10518
597.626	10112
597.696	9342
597.766	8840
597.836	8493
597.906	8763
597.975	8381
598.045	8183
598.115	8953
598.185	8349
598.254	9417
598.324	10668
598.394	9783
598.464	10101
598.533	9748
598.603	8935
598.672	9398
598.742	8651
598.812	9203
598.881	9111
598.951	9495
599.020	8176
599.090	9143
599.159	9086
599.229	8983
599.299	9054
599.368	9028
599.437	7439
599.507	8506
599.576	8844
599.646	8691
599.715	9172
599.785	8247
599.854	7679
599.924	8253
599.993	6912
600.062	8161
600.132	7552
600.201	8048
600.270	8713
600.340	9357
600.409	9225
600.478	8845
600.547	9337
600.617	8381
600.686	7305
600.755	8152
600.824	8649
600.894	6519
600.963	6450
601.032	6407
601.101	7068
601.170	6317
601.239	6026
601.308	6266
601.378	7446
601.447	6570
601.516	6771
601.585	7125
601.654	8267
601.723	7431
601.792	6240
601.861	6932
601.930	7921
601.999	8775
602.068	7092
602.137	8165
602.206	7742
602.275	7868
602.343	8982
602.412	8907
602.481	7370
602.550	6057
602.619	6671
602.688	7384
602.756	7341
602.825	6521
602.894	7049
602.963	7317
603.032	7661
603.100	7550
603.169	6977
603.238	6789
603.307	7631
603.375	7278
603.444	7816
603.513	8548
603.581	7138
603.650	7469
603.719	7341
603.787	7517
603.856	6937
603.924	7002
603.993	8152
604.061	7796
604.130	8796
604.198	8557
604.267	8820
604.335	8567
604.404	8297
604.472	9381
604.541	9240
604.609	8864
604.678	8634
604.746	8931
604.815	7707
604.883	8284
604.951	9153
605.020	9868
605.088	9310
605.156	9196
605.225	8971
605.293	9556
605.361	10048
605.429	10318
605.498	9927
605.566	10864
605.634	10284
605.702	10788
605.771	10488
605.839	10288
605.907	10798
605.975	9982
606.043	10443
606.111	10068
606.180	9051
606.248	9962
606.316	10071
606.384	9633
606.452	12344
606.520	13964
606.588	12604
606.656	9608
606.724	9757
606.792	10105
606.860	8730
606.928	8436
606.996	8227
607.064	8241
607.132	8182
607.200	8132
607.267	8982
607.335	8471
607.403	10202
607.471	8755
607.539	8799
607.607	9479
607.674	7489
607.742	7738
607.810	7957
607.878	8609
607.946	7882
608.013	9004
608.081	8279
608.149	9099
608.216	9075
608.284	9566
608.352	8242
608.419	8818
608.487	9234
608.555	8572
608.622	9596
608.690	8950
608.757	9705
608.825	10950
608.893	9428
608.960	9346
609.028	10284
609.095	9898
609.163	8898
609.230	8390
609.298	8418
609.365	8125
609.432	10078
609.500	9542
609.567	10220
609.635	11916
609.702	12837
609.769	13474
609.837	11135
609.904	8888
609.971	8852
610.039	10793
610.106	14346
610.173	25319
610.241	59701
610.308	76477
610.375	61022
610.442	15394
610.509	9982
610.577	9583
610.644	9812
610.711	9915
610.778	10304
610.845	9840
610.912	10664
610.980	10903
611.047	10879
611.114	10725
611.181	10187
611.248	10371
611.315	10765
611.382	10046
611.449	10490
611.516	10965
611.583	10494
611.650	11414
611.717	11414
611.784	10850
611.851	11345
611.918	12146
611.984	13561
612.051	20296
612.118	37602
612.185	93602
612.252	67905
612.319	16921
612.386	13787
612.452	12634
612.519	12515
612.586	12634
612.653	12746
612.719	12575
612.786	12090
612.853	10718
612.919	11359
612.986	11619
613.053	10638
613.120	10837
613.186	9305
613.253	11135
613.319	10331
613.386	9575
613.453	9965
613.519	12210
613.586	13694
613.652	20644
613.719	15471
613.785	14586
613.852	10275
613.918	9914
613.985	9874
614.051	10534
614.118	11530
614.184	10983
614.250	9940
614.317	10699
614.383	9784
614.449	10842
614.516	10390
614.582	10861
614.648	10374
614.715	11232
614.781	10194
614.847	10695
614.914	9376
614.980	9698
615.046	9677
615.112	10190
615.179	10615
615.245	10443
615.311	10655
615.377	11962
615.443	11990
615.509	10496
615.575	10904
615.642	11100
615.708	10930
615.774	11358
615.840	12111
615.906	12895
615.972	17057
616.038	27144
616.104	50658
616.170	121863
616.236	117051
616.302	23640
616.368	16614
616.434	12477
616.500	11506
616.565	13103
616.631	15437
616.697	12875
616.763	12579
616.829	17304
616.895	29021
616.961	27420
617.026	14430
617.092	9865
617.158	10422
617.224	10391
617.289	10399
617.355	10468
617.421	8867
617.487	9888
617.552	8307
617.618	8563
617.684	8009
617.749	9825
617.815	8373
617.880	7949
617.946	8612
618.012	9576
618.077	9254
618.143	9680
618.208	9996
618.274	9452
618.339	10064
618.405	8322
618.470	9044
618.536	8299
618.601	8674
618.667	8748
618.732	8348
618.798	7753
618.863	6730
618.928	7946
618.994	8757
619.059	10177
619.124	13271
619.190	10919
619.255	7606
619.320	7197
619.386	7561
619.451	6690
619.516	7539
619.581	8445
619.647	6902
619.712	7807
619.777	8168
619.842	7549
619.907	7650
619.972	7564
620.038	7930
620.103	6967
620.168	6873
620.233	7854
620.298	7824
620.363	7841
620.428	7088
620.493	7398
620.558	7473
620.623	8047
620.688	8021
620.753	8245
620.818	7746
620.883	7717
620.948	8120
621.013	7703
621.078	7772
621.143	7353
621.207	9525
621.272	9016
621.337	8337
621.402	7689
621.467	8235
621.532	7232
621.596	7671
621.661	8467
621.726	7557
621.791	8229
621.855	8766
621.920	9509
621.985	8450
622.049	8682
622.114	7983
622.179	8603
622.243	8747
622.308	8279
622.373	9487
622.437	8670
622.502	8375
622.566	8568
622.631	7742
622.695	8999
622.760	8684
622.824	8857
622.889	8871
622.953	9588
623.018	14630
623.082	15337
623.147	8961
623.211	8665
623.276	8933
623.340	8077
623.404	8403
623.469	8877
623.533	8698
623.597	7854
623.662	8289
623.726	7735
623.790	7796
623.854	7258
623.919	7602
623.983	6706
624.047	7724
624.111	7227
624.176	7234
624.240	7650
624.304	9780
624.368	8255
624.432	8327
624.496	7721
624.560	10211
624.625	9516
624.689	8248
624.753	7819
624.817	8422
624.881	7629
624.945	6777
625.009	7222
625.073	7374
625.137	8194
625.201	10794
625.265	11642
625.329	8167
625.393	7711
625.456	7964
625.520	7436
625.584	8242
625.648	7927
625.712	8461
625.776	9194
625.839	10649
625.903	7314
625.967	5924
626.031	8660
626.095	8791
626.158	6839
626.222	5132
626.286	6922
626.349	5342
626.413	4143
626.477	7061
626.540	5460
626.604	4590
626.668	5767
626.731	4127
626.795	4890
626.858	4804
626.922	4626
626.986	5601
627.049	4742
627.113	4461
627.176	5527
627.240	4810
627.303	4656
627.366	5546
627.430	5250
627.493	4581
627.557	3736
627.620	5886
627.684	5110
627.747	3981
627.810	3732
627.874	4965
627.937	3237
628.000	5999
628.064	5021
628.127	2817
628.190	3775
628.253	3537
628.317	3810
628.380	4053
628.443	3533
628.506	3725
628.569	3897
628.632	3236
628.696	3626
628.759	2901
628.822	3801
628.885	2697
628.948	3179
629.011	4402
629.074	3488
629.137	3253
629.200	3149
629.263	4087
629.326	2733
629.389	2951
629.452	3259
629.515	3012
629.578	3689
629.641	3182
629.704	2820
629.767	3330
629.830	3347
629.892	2415
629.955	1851
630.018	4667
630.081	4016
630.144	5778
630.207	2668
630.269	5045
630.332	2663
630.395	3017
630.458	3004
630.520	1614
630.583	4092
630.646	3307
630.708	2723
630.771	1586
630.834	2993
630.896	2441
630.959	2145
631.021	1875
631.084	2575
631.146	2201
631.209	3014
631.272	2755
631.334	2952
631.397	2478
631.459	2542
631.522	3247
631.584	3576
631.646	2581
631.709	3460
631.771	4345
631.834	3362
631.896	1739
631.958	2474
632.021	3003
632.083	1358
632.145	2440
632.208	2447
632.270	3368
632.332	2134
632.395	1640
632.457	2501
632.519	2650
632.581	2820
632.643	1770
632.706	2824
632.768	1552
632.830	2810
632.892	2081
632.954	2625
633.016	2689
633.078	1566
633.141	2367
633.203	2612
633.265	1651
633.327	2390
633.389	2199
633.451	3130
633.513	4622
633.575	3311
633.637	2850
633.698	2737
633.760	2689
633.822	2250
633.884	2742
633.946	2477
634.008	1841
634.070	1883
634.132	1394
634.193	1773
634.255	1953
634.317	2402
634.379	2681
634.441	2340
634.502	1400
634.564	2196
634.626	2077
634.687	1868
634.749	1681
634.811	2870
634.873	1146
634.934	1889
634.996	2016
635.057	1600
635.119	1286
635.181	1663
635.242	2721
635.304	459
635.365	2717
635.427	1362
635.488	2221
635.550	1275
635.611	1616
635.673	415
635.734	2786
635.796	1620
635.857	2704
635.918	1644
635.980	2997
636.041	1603
636.102	2181
636.164	1276
636.225	2794
636.286	1369
636.348	2170
636.409	1945
636.470	1415
636.531	2446
636.593	905
636.654	2046
636.715	1198
636.776	1928
636.838	544
636.899	1503
636.960	880
637.021	641
637.082	1277
637.143	1735
637.204	1029
637.265	821
637.326	1467
637.387	2014
637.448	1293
637.509	2078
637.570	1623
637.631	2175
637.692	672
637.753	250
637.814	2042
637.875	743
637.936	1594
637.997	792
638.058	1336
638.119	1752
638.179	2014
638.240	32
638.301	1450
638.362	446
638.423	1308
638.483	1710
638.544	368
638.605	1745
638.666	990
638.726	648
638.787	984
638.848	830
638.908	337
638.969	193
639.030	906
639.090	1170
639.151	241
639.211	2120
639.272	3240
639.332	5401
639.393	2969
639.453	1087
639.514	520
639.574	1223
639.635	1510
639.695	1597
639.756	540
639.816	2083
639.877	1726
639.937	5350
639.997	7984
640.058	1283
640.118	913
640.178	1537
640.239	1509
640.299	636
640.359	1402
640.420	640
640.480	1188
640.540	995
640.600	528
640.661	1955
640.721	193
640.781	3060
640.841	95
640.901	1771
640.961	1703
641.021	1350
641.082	719
641.142	3972
641.202	2923
641.262	-267
641.322	1551
641.382	486
641.442	441
641.502	622
641.562	954
641.622	434
641.682	323
641.742	1106
641.802	428
641.861	1626
641.921	644
641.981	1670
642.041	1586
642.101	2427
642.161	994
642.221	1055
642.280	403
642.340	-32
642.400	42
642.460	1584
642.519	387
642.579	803
642.639	1463
642.698	-1480
642.758	2268
642.818	570
642.877	534
642.937	1030
642.997	1841
643.056	3213
643.116	714
643.175	2562
643.235	-154
643.294	109
643.354	1178
643.414	348
643.473	1348
643.532	986
643.592	1728
643.651	3329
643.711	7153
643.770	13636
643.830	31909
643.889	83792
643.948	24289
644.008	2818
644.067	2093
644.126	702
644.186	568
644.245	1069
644.304	-279
644.363	2074
644.423	-244
644.482	488
644.541	459
644.600	-1000
644.659	1408
644.719	365
644.778	1423
644.837	2021
644.896	5494
644.955	14046
645.014	4981
645.073	1903
645.132	382
645.191	968
645.250	113
645.309	2008
645.368	335
645.427	1606
645.486	124
645.545	3073
645.604	-711
645.663	489
645.722	-169
645.781	618
645.840	727
645.898	639
645.957	2230
646.016	2227
646.075	5773
646.134	11920
646.192	28759
646.251	56928
646.310	8374
646.369	1764
646.427	1080
646.486	-514
646.545	596
646.603	1453
646.662	693
646.721	198
646.779	536
646.838	-841
646.896	825
646.955	1162
647.014	1358
647.072	1640
647.131	6854
647.189	4019
647.248	-502
647.306	593
647.365	-68
647.423	-1089
647.481	1648
647.540	-1186
647.598	252
647.657	-310
647.715	770
647.773	-539
647.832	418
647.890	-1518
647.948	-375
648.007	1077
648.065	-879
648.123	-679
648.181	1003
648.240	-175
648.298	-177
648.356	-340
648.414	556
648.472	256
648.531	-138
648.589	-236
648.647	219
648.705	168
648.763	-69
648.821	451
648.879	-553
648.937	-73
648.995	116
649.053	-116
649.111	754
649.169	1877
649.227	4030
649.285	7038
649.343	26051
649.401	15867
649.459	7978
649.516	6599
649.574	-780
649.632	1894
649.690	523
649.748	952
649.806	-488
649.863	2273
649.921	5049
649.979	3491
650.037	253
650.094	-1109
650.152	573
650.210	-437
650.268	-55
650.325	-504
650.383	-1145
650.440	-624
650.498	-346
650.556	695
650.613	-600
650.671	-40
650.728	138
650.786	-345
650.843	-281
650.901	-1197
650.958	428
651.016	459
651.073	-646
651.131	-933
651.188	-1157
651.246	200
651.303	-882
651.360	-373
651.418	-1740
651.475	-577
651.532	-876
651.590	18
651.647	-590
651.704	-226
651.762	-196
651.819	681
651.876	-1232
651.933	-147
651.990	269
652.048	-1274
652.105	-497
652.162	26
652.219	-759
652.276	-27
652.333	157
652.390	-1348
652.448	-906
652.505	-307
652.562	-543
652.619	-527
652.676	358
652.733	-10
652.790	-597
652.847	-475
652.904	-417
652.961	-1235
653.017	-1044
653.074	180
653.131	-1234
653.188	-1662
653.245	-394
653.302	-771
653.359	-1402
653.415	598
653.472	-461
653.529	-213
653.586	-849
653.642	-866
653.699	89
653.756	-1175
653.813	-1067
653.869	36
653.926	-977
653.983	-672
654.039	-208
654.096	-1018
654.152	351
654.209	-1905
654.266	-739
654.322	-1250
654.379	-199
654.435	125
654.492	-344
654.548	562
654.605	360
654.661	69
654.717	-250
654.774	-630
654.830	-500
654.887	-380
654.943	-684
655.000	-929
655.056	-703
655.112	-778
655.168	-1104
655.225	-550
655.281	-894
655.337	-978
655.394	-1167
655.450	-256
655.506	-515
655.562	-770
655.618	-196
655.675	-1351
655.731	-804
655.787	-1178
655.843	101
655.899	-914
655.955	-246
656.011	-293
656.067	-1786
656.123	-317
656.179	-834
656.235	-439
656.291	-1429
656.347	71
656.403	-1627
656.459	-1196
656.515	-754
656.571	-221
656.627	-827
656.683	-915
656.739	-419
656.795	-262
656.850	-742
656.906	229
656.962	764
657.018	-1105
657.074	-742
657.129	-15
657.185	-1058
657.241	-105
657.297	-476
657.352	-1026
657.408	-865
657.464	868
657.519	-1064
657.575	-1784
657.630	-888
657.686	-1162
657.742	-2029
657.797	-1051
657.853	-879
657.908	-284
657.964	-1332
658.019	-618
658.075	-809
658.130	-551
658.186	-1846
658.241	-544
658.297	-903
658.352	-1142
658.407	-29
658.463	-1336
658.518	-237
658.573	-715
658.629	-1414
658.684	-427
658.739	-316
658.795	-1516
658.850	-1168
658.905	-1171
658.960	-533
659.016	-854
659.071	-975
659.126	-698
659.181	-823
659.236	1352
659.291	655
659.346	-314
659.401	-70
659.457	182
659.512	-1364
659.567	-125
659.622	133
659.677	-1112
659.732	-1785
659.787	-787
659.842	-918
659.897	-437
659.952	-185
660.007	-657
660.061	-311
660.116	-1308
660.171	-1395
660.226	-987
660.281	170
660.336	-1374
660.391	-177
660.445	-1516
660.500	-963
660.555	-286
660.610	-1680
660.664	-340
660.719	-650
660.774	-1248
660.828	-1941
660.883	-437
660.938	-242
660.992	-1493
661.047	-788
661.101	-863
661.156	-584
661.211	-976
661.265	-1174
661.320	-1674
661.374	-538
661.429	-879
661.483	-546
661.538	-1958
661.592	-808
661.647	-571
661.701	-37
661.755	-624
661.810	-606
661.864	-712
661.919	-1782
661.973	189
662.027	-677
662.081	-1584
662.136	-1486
662.190	-467
662.244	445
662.299	-406
662.353	-495
662.407	-921
662.461	-807
662.515	-585
662.569	-1008
662.624	-762
662.678	-942
662.732	-765
662.786	-1283
662.840	-790
662.894	-557
662.948	-987
663.002	-1299
663.056	-1894
663.110	-1150
663.164	-1470
663.218	-617
663.272	-733
663.326	-511
663.380	-675
663.434	-937
663.488	-745
663.542	-694
663.595	-1039
663.649	-1419
663.703	-511
663.757	-1423
663.811	-732
663.864	-1515
663.918	-256
663.972	-1161
664.026	-957
664.079	-862
664.133	-385
664.187	-1257
664.240	-334
664.294	-549
664.348	-476
664.401	-455
664.455	-622
664.508	-1063
664.562	-1553
664.615	-702
664.669	-1651
664.722	-635
664.776	-981
664.829	-642
664.883	-840
664.936	-752
664.990	-946
665.043	-340
665.097	-1026
665.150	-703
665.203	-1129
665.257	-1210
665.310	-819
665.363	-1482
665.417	-799
665.470	-748
665.523	-888
665.576	-1185
665.630	-424
665.683	-1425
665.736	-833
665.789	-1030
665.842	-1097
665.895	-1546
665.949	-1224
666.002	-1239
666.055	-1108
666.108	-385
666.161	-1105
666.214	-712
666.267	-387
666.320	-117
666.373	-392
666.426	-1458
666.479	-1133
666.532	-1335
666.585	-604
666.638	-271
666.691	-1779
666.744	-400
666.796	-1287
666.849	-1245
666.902	-281
666.955	-1418
667.008	-1399
667.060	-1245
667.113	-1191
667.166	-602
667.219	-631
667.271	-1247
667.324	-773
667.377	-586
667.430	-533
667.482	-1414
667.535	-1331
667.587	-99
667.640	-1201
667.693	-805
667.745	609
667.798	1264
667.850	-705
667.903	-692
667.955	-1511
668.008	-1052
668.060	-452
668.113	-1239
668.165	-863
668.218	-956
668.270	-864
668.322	-429
668.375	-1119
668.427	-1156
668.479	-1544
668.532	-1203
668.584	-1185
668.636	-923
668.689	-832
668.741	-1266
668.793	-612
668.845	-1502
668.898	-717
668.950	-879
669.002	-83
669.054	-2345
669.106	-760
669.158	-1111
669.211	-895
669.263	-724
669.315	-1250
669.367	-966
669.419	-1372
669.471	-622
669.523	-918
669.575	434
669.627	-800
669.679	-558
669.731	-1040
669.783	-945
669.835	184
669.886	-131
669.938	-298
669.990	-340
670.042	-1118
670.094	565
670.146	26
670.197	-482
670.249	888
670.301	1480
670.353	2725
670.404	5332
670.456	8282
670.508	13679
670.560	23437
670.611	39766
670.663	70127
670.715	153348
670.766	259167
670.818	121558
670.869	25155
670.921	10221
670.972	6189
671.024	2929
671.075	2248
671.127	846
671.178	300
671.230	-157
671.281	11
671.333	596
671.384	-756
671.436	-510
671.487	290
671.538	200
671.590	7
671.641	170
671.692	1528
671.744	3084
671.795	2101
671.846	-459
671.897	-402
671.949	-763
672.000	-342
672.051	-1068
672.102	-292
672.153	-1710
672.204	-460
672.256	-771
672.307	-1456
672.358	-927
672.409	-582
672.460	-370
672.511	-1042
672.562	-1105
672.613	-811
672.664	-1182
672.715	-1004
672.766	-972
672.817	-1449
672.868	-637
672.919	-1300
672.970	-1599
673.021	-445
673.071	-1096
673.122	-1052
673.173	-1536
673.224	-1928
673.275	-1232
673.326	-849
673.376	-745
673.427	-1401
673.478	-1357
673.528	-848
673.579	-1702
673.630	-1018
673.680	-163
673.731	-1430
673.782	-1338
673.832	-802
673.883	-1037
673.934	-1200
673.984	-2037
674.035	-955
674.085	-568
674.136	-931
674.186	-990
674.237	-532
674.287	-1009
674.338	-853
674.388	-1498
674.438	-1548
674.489	-931
674.539	-662
674.589	-1332
674.640	-1454
674.690	-1507
674.740	-1354
674.791	-1157
674.841	-1407
674.891	-960
674.942	-1712
674.992	-1297
675.042	-1291
675.092	-1197
675.142	-2291
675.193	-1242
675.243	-1255
675.293	-1633
675.343	-1133
675.393	-1588
675.443	-1180
675.493	-1382
675.543	-1630
675.593	-730
675.643	-1323
675.693	-1038
675.743	-1294
675.793	-1967
675.843	-1917
675.893	-1791
675.943	-1363
675.993	-970
676.043	-1220
676.093	-1048
676.142	-1100
676.192	-1365
676.242	-1585
676.292	-1723
676.341	-1381
676.391	-950
676.441	-1252
676.491	-853
676.540	-972
676.590	-1037
676.640	-1747
676.689	-1810
676.739	-1788
676.789	-1722
676.838	-1067
676.888	-1142
676.937	-2196
676.987	-1031
677.037	-1673
677.086	-1613
677.136	-1684
677.185	-1603
677.235	-1985
677.284	-2139
677.333	-1216
677.383	-2127
677.432	-1603
677.482	-1633
677.531	-652
677.580	-1994
677.630	-1313
677.679	-1567
677.728	-1405
677.778	-1398
677.827	-670
677.876	-1203
677.925	-1628
677.975	-1790
678.024	-1881
678.073	-1694
678.122	-1812
678.171	-2019
678.220	-1524
678.269	-756
678.319	-1537
678.368	-1319
678.417	-1852
678.466	-1722
678.515	-1049
678.564	-1683
678.613	-1586
678.662	-1645
678.711	-1359
678.760	-1343
678.809	-1736
678.857	-737
678.906	-1330
678.955	-1296
679.004	-1173
679.053	-652
679.102	-1629
679.151	-1160
679.199	-1385
679.248	-1308
679.297	-1965
679.346	-2004
679.394	-2093
679.443	-907
679.492	-1595
679.540	-1361
679.589	-1589
679.638	-1497
679.686	-1197
679.735	-1632
679.784	-2089
679.832	-827
679.881	-1804
679.929	-1752
679.978	-2010
680.026	-734
680.075	-1233
680.123	-1592
680.172	-984
680.220	-2261
680.268	-2230
680.317	-1585
680.365	-1652
680.414	-1713
680.462	-1256
680.510	-1552
680.559	-1898
680.607	-852
680.655	-2107
680.703	-1782
680.752	-1013
680.800	-1337
680.848	-1237
680.896	-2124
680.945	-2107
680.993	-2039
681.041	-1040
681.089	-980
681.137	-1258
681.185	-2218
681.233	-1791
681.258	-1473
681.281	-1188
681.329	-2394
681.377	-2167
681.380	-2145
681.425	-2011
681.473	-1602
681.502	-1710
681.521	-1824
681.569	-1984
681.617	-1305
681.624	-1268
681.665	-1134
681.713	-810
681.745	-1302
681.761	-1561
681.809	-1527
681.857	-544
681.867	-688
681.904	-1245
681.952	-1855
681.989	-1583
682.000	-1524
682.048	-1016
682.096	-1748
682.111	-1441
682.143	-841
682.191	-1254
682.233	-733
682.239	-670
682.286	-1103
682.334	-1144
682.354	-1235
682.382	-1388
682.430	-1139
682.476	-130
682.477	-122
682.525	-187
682.572	-745
682.598	-740
682.620	-760
682.667	-186
682.715	-652
682.720	-669
682.763	-991
682.810	-704
682.841	-724
682.857	-741
682.905	-766
682.952	-112
682.963	-171
683.000	-478
683.047	-730
683.085	-415
683.095	-325
683.142	-762
683.190	-604
683.206	-522
683.237	-483
683.284	-138
683.328	-628
683.332	-675
683.379	374
683.426	-410
683.449	-222
683.473	-77
683.521	-324
683.568	-19
683.571	-19
683.615	-129
683.662	-106
683.693	-389
683.709	-563
683.757	-508
683.804	-188
683.814	-128
683.851	19
683.898	230
683.936	95
683.945	39
683.992	312
684.039	284
684.057	207
684.086	109
684.133	182
684.179	692
684.180	695
684.227	892
684.274	855
684.300	951
684.321	1046
684.368	305
684.415	1360
684.422	1296
684.462	783
684.509	345
684.543	702
684.556	828
684.603	805
684.649	-102
684.665	62
684.696	437
684.743	968
684.786	840
684.790	817
684.837	935
684.883	608
684.908	1059
684.930	1463
684.977	571
685.023	521
685.029	594
685.070	1020
685.117	536
685.150	726
685.164	818
685.210	1181
685.257	1191
685.272	1219
685.303	1238
685.350	877
685.393	1198
685.396	1230
685.443	1183
685.490	1871
685.514	1695
685.536	1417
685.583	2077
685.629	1649
685.636	1626
685.675	1463
685.722	1827
685.757	1472
685.768	1392
685.815	1938
685.861	1538
685.878	1694
685.908	1820
685.954	1564
686.000	1822
686.000	1824
686.047	939
686.093	2070
686.121	1947
686.139	1902
686.185	1727
686.232	2073
686.242	2185
686.278	2458
686.324	2084
686.363	2259
686.370	2284
686.416	1442
686.463	2199
686.484	2113
686.509	2011
686.555	1833
686.601	1489
686.606	1508
686.647	1715
686.693	2627
686.727	1975
686.739	1776
686.785	1668
686.831	2667
686.848	2624
686.877	2382
686.923	1644
686.969	1995
686.969	1997
687.015	2197
687.061	2393
687.090	2560
687.107	2532
687.153	2621
687.199	2459
687.211	2369
687.245	2495
687.291	2367
687.332	3085
687.336	3136
687.382	2468
687.428	2597
687.453	2696
687.474	2723
687.520	2728
687.565	2318
687.574	2324
687.611	2513
687.657	2489
687.695	2374
687.702	2371
687.748	3213
687.794	3417
687.816	3383
687.839	3152
687.885	2984
687.931	2568
687.937	2595
687.976	3001
688.022	3042
688.058	3102
688.067	3081
688.113	2946
688.158	2997
688.179	2801
688.204	2675
688.249	3432
688.295	2941
688.300	2958
688.340	3054
688.386	3026
688.421	3084
688.431	3140
688.477	3184
688.522	3160
688.542	3569
688.567	3988
688.613	3754
688.658	3312
688.663	3334
688.703	3430
688.749	3269
688.784	3347
688.794	3426
688.839	3325
688.884	3261
688.905	3378
688.930	3506
688.975	3764
689.020	3629
689.026	3636
689.065	3590
689.110	3806
689.146	3399
689.155	3343
689.201	3409
689.246	3737
689.267	3847
689.291	3918
689.336	3928
689.381	3596
689.388	3556
689.426	3364
689.471	3466
689.509	3555
689.516	3607
689.561	3471
689.606	3919
689.630	3820
689.651	3675
689.696	3883
689.741	3879
689.750	3859
689.785	3922
689.830	4002
689.871	4081
689.875	4089
689.920	4183
689.965	4479
689.992	4192
690.010	3984
690.054	4257
690.099	3860
690.112	3885
690.144	4069
690.189	4000
690.233	3985
690.233	3993
690.278	4243
690.323	4442
690.354	4210
690.367	4122
690.412	4256
690.457	4399
690.474	4504
690.501	4577
690.546	4202
690.590	4210
690.595	4172
690.635	4218
690.680	4144
690.716	4251
690.724	4234
690.769	4317
690.813	4535
690.836	4208
690.857	4045
690.902	4305
690.946	4360
690.957	4380
690.991	4522
691.035	4617
691.077	4762
691.080	4773
691.124	4907
691.168	4822
691.198	4590
691.213	4465
691.257	4899
691.301	4450
691.318	4445
691.346	4579
691.390	4674
691.434	4845
691.439	4860
691.478	5066
691.522	5030
691.559	4854
691.567	4839
691.611	5139
691.655	5306
691.680	5267
691.699	5222
691.743	5411
691.787	5401
691.800	5329
691.831	5202
691.875	5385
691.919	5622
691.921	5598
691.964	5185
692.008	5290
692.041	5113
692.052	5142
692.096	5444
692.139	5626
692.162	5669
692.183	5525
692.227	5498
692.271	5258
692.282	5150
692.315	5077
692.359	4995
692.402	5018
692.403	5033
692.447	5366
692.490	5231
692.523	5336
692.534	5361
692.578	5289
692.622	5247
692.643	5270
692.666	5264
692.709	5010
692.753	4603
692.763	4625
692.797	5089
692.840	5499
692.884	5727
692.884	5742
692.928	5716
692.971	5801
693.004	5714
693.015	5702
693.059	5676
693.102	5614
693.124	5683
693.146	5674
693.189	5360
693.233	5183
693.245	5054
693.276	5244
693.320	6055
693.363	6051
693.365	6056
693.407	6144
693.450	6009
693.485	5768
693.493	5784
693.537	5977
693.580	6166
693.605	6100
693.624	5974
693.667	6071
693.710	5722
693.725	5730
693.753	6051
693.797	6261
693.840	6723
693.845	6722
693.883	6538
693.926	6506
693.966	6514
693.970	6541
694.013	6347
694.056	6375
694.086	6418
694.099	6455
694.142	6101
694.185	6286
694.206	6216
694.229	6305
694.272	6355
694.315	6554
694.326	6605
694.358	6962
694.401	7250
694.444	7827
694.446	7821
694.487	7872
694.530	7952
694.566	8076
694.573	7988
694.616	7148
694.659	6273
694.686	5787
694.702	5866
694.745	5976
694.787	6171
694.806	6146
694.830	6091
694.873	6163
694.916	6188
694.926	6152
694.959	6215
695.002	6301
695.044	6580
695.046	6562
695.087	6727
695.130	6953
695.166	7258
695.172	7295
695.215	7256
695.258	7071
695.286	6957
695.301	6931
695.343	6948
695.386	6915
695.406	6836
695.428	6842
695.471	7009
695.514	7007
695.526	6960
695.556	6805
695.599	6820
695.641	6633
695.646	6591
695.684	6691
695.726	6882
695.766	6974
695.769	6987
695.811	6857
695.854	6877
695.886	6674
695.896	6686
695.938	6731
695.981	6748
696.005	6840
696.023	6933
696.065	6854
696.108	6947
696.125	6910
696.150	6857
696.192	6884
696.235	6838
696.245	6776
696.277	6713
696.319	6692
696.361	6757
696.365	6740
696.404	6926
696.446	6961
696.485	7028
696.488	7037
696.530	6809
696.572	6658
696.604	6473
696.614	6612
696.656	7267
696.698	7756
696.724	8109
696.740	7995
696.783	7459
696.825	6986
696.844	6789
696.867	6868
696.909	6882
696.951	6986
696.964	6964
696.992	6911
697.034	6801
697.076	6721
697.083	6682
697.118	6922
697.160	7241
697.202	7565
697.203	7549
697.244	7503
697.286	7414
697.323	7260
697.327	7305
697.369	7590
697.411	7837
697.442	8021
697.453	8052
697.494	7973
697.536	8012
697.562	8031
697.578	8248
697.620	8642
697.661	9057
697.682	9214
697.703	9148
697.744	8997
697.786	8913
697.801	8851
697.828	9112
697.869	9393
697.911	9712
697.921	9751
697.952	9031
697.994	8133
698.035	7138
698.040	7001
698.077	7274
698.118	7489
698.160	7789
698.160	7765
698.201	7958
698.243	8133
698.279	8283
698.284	8302
698.325	8208
698.367	8139
698.399	8014
698.408	8041
698.449	8106
698.491	8115
698.518	8117
698.532	8137
698.573	8121
698.614	8082
698.638	8044
698.656	7980
698.697	7764
698.738	7543
698.757	7415
698.779	7651
698.820	8059
698.862	8461
698.877	8588
698.903	8576
698.944	8499
698.985	8431
698.996	8387
699.026	8377
699.067	8325
699.116	8240
699.235	7653
699.354	8484
699.474	8154
699.593	7704
699.713	8468
699.832	8958
699.951	8717
700.070	9459
700.190	7793
700.309	8181
700.428	8277
700.547	8180
700.667	7713
700.786	8348
700.905	7600
701.024	8550
701.143	7254
701.262	8067
701.381	7340
701.500	7796
701.619	9692
701.738	8278
701.857	7528
701.976	8394
702.095	7409
702.214	8298
702.333	8717
702.452	7955
702.571	8018
702.690	7398
702.809	6998
702.928	7239
703.047	7485
703.165	6932
703.284	7515
703.403	7598
703.522	7339
703.640	8898
703.759	7963
703.878	9540
703.997	7641
704.115	6811
704.234	6816
704.353	7617
704.471	6197
704.590	7287
704.708	6746
704.827	7227
704.946	6912
705.064	6817
705.183	6877
705.301	7378
705.420	7300
705.538	7422
705.656	6606
705.775	6493
705.893	6641
706.012	7214
706.130	6578
706.249	7180
706.367	6696
706.485	7570
706.604	6674
706.722	7615
706.840	7661
706.958	8407
707.077	6737
707.195	7260
707.313	6922
707.431	6957
707.549	5906
707.668	7496
707.786	6479
707.904	6839
708.022	5936
708.140	6978
708.258	6701
708.376	6870
708.494	6488
708.612	6855
708.730	7298
708.848	8316
708.966	7353
709.084	7963
709.202	7735
709.320	7002
709.438	6778
709.556	6980
709.674	6247
709.791	7310
709.909	6822
710.027	6761
710.145	6247
710.263	7041
710.380	6665
710.498	6892
710.616	6381
710.733	7098
710.851	6471
710.969	6887
711.086	5983
711.204	6249
711.322	5729
711.439	6005
711.557	5653
711.674	6650
711.792	5956
711.909	6344
712.027	5514
712.144	5608
712.262	5792
712.379	6037
712.497	6609
712.614	7585
712.732	6774
712.849	7092
712.966	7161
713.084	8394
713.201	6153
713.318	7392
713.436	5952
713.553	6847
713.670	5174
713.787	6989
713.905	6257
714.022	6825
714.139	5791
714.256	6918
714.373	6924
714.490	8378
714.608	11041
714.725	37651
714.842	59019
714.959	9196
715.076	6932
715.193	6494
715.310	6370
715.427	7048
715.544	5647
715.661	6213
715.778	5784
715.895	6070
716.011	6135
716.128	6611
716.245	6231
716.362	7478
716.479	8665
716.596	6324
716.713	5793
716.829	6348
716.946	6240
717.063	5510
717.180	5906
717.296	5376
717.413	5398
717.530	6042
717.646	5660
717.763	5304
717.880	4709
717.996	5613
718.113	5650
718.229	5996
718.346	5395
718.462	5196
718.579	6245
718.695	13154
718.812	8766
718.928	6076
719.045	5169
719.161	4982
719.277	4762
719.394	4816
719.510	5293
719.626	5756
719.743	4931
719.859	5571
719.975	5127
720.092	11533
720.208	27301
720.324	8787
720.440	5486
720.557	6002
720.673	8873
720.789	8782
720.905	8305
721.021	7223
721.137	4804
721.253	4458
721.369	4061
721.486	4464
721.602	5028
721.718	4671
721.834	4433
721.950	5090
722.066	4414
722.181	4611
722.297	4732
722.413	5973
722.529	4020
722.645	5395
722.761	3767
722.877	5485
722.993	3696
723.108	4472
723.224	4333
723.340	4789
723.456	4062
723.571	4887
723.687	4047
723.803	4560
723.918	4521
724.034	4627
724.150	3833
724.265	5097
724.381	4054
724.497	5359
724.612	4370
724.728	3523
724.843	3993
724.959	4854
725.074	4108
725.190	5152
725.305	3685
725.421	4080
725.536	4094
725.651	4842
725.767	3609
725.882	4418
725.997	4315
726.113	4881
726.228	4293
726.343	4549
726.459	3229
726.574	3977
726.689	3374
726.804	4445
726.920	3574
727.035	4741
727.150	3496
727.265	4302
727.380	3805
727.495	4417
727.610	3604
727.725	4166
727.841	3988
727.956	4553
728.071	3721
728.186	4386
728.301	3048
728.416	4135
728.531	4690
728.645	4031
728.760	4052
728.875	5099
728.990	3543
729.105	3847
729.220	4586
729.335	4273
729.449	3416
729.564	3392
729.679	3556
729.794	3981
729.908	3181
730.023	3758
730.138	3045
730.253	3772
730.367	3554
730.482	4096
730.596	3386
730.711	4555
730.826	3732
730.940	4085
731.055	4133
731.169	3816
731.284	3570
731.398	3910
731.513	3117
731.627	3778
731.742	3726
731.856	3559
731.970	3102
732.085	2883
732.199	3748
732.313	4004
732.428	5222
732.542	11421
732.656	12347
732.771	4324
732.885	3487
732.999	3798
733.113	3787
733.227	3966
733.342	2991
733.456	3474
733.570	4077
733.684	3777
733.798	2652
733.912	3630
734.026	3602
734.140	3499
734.254	3065
734.368	3141
734.482	4117
734.596	3198
734.710	3592
734.824	3823
734.938	3156
735.052	3504
735.166	3322
735.280	4477
735.393	3301
735.507	4000
735.621	3988
735.735	4536
735.849	3180
735.962	3688
736.076	3818
736.190	4405
736.303	3437
736.417	4392
736.531	3300
736.644	3512
736.758	2476
736.872	3750
736.985	2839
737.099	3706
737.212	2834
737.326	3535
737.439	3009
737.553	3691
737.666	3158
737.780	3576
737.893	2862
738.007	3425
738.120	3326
738.233	3526
738.347	2831
738.460	3871
738.573	3657
738.687	3596
738.800	4130
738.913	4071
739.026	2754
739.140	2988
739.253	2491
739.366	3299
739.479	2260
739.592	2567
739.705	2843
739.818	3379
739.932	3340
740.045	3392
740.158	1926
740.271	2860
740.384	3110
740.497	2766
740.610	2901
740.723	3131
740.836	3023
740.949	3814
741.062	3960
741.174	4682
741.287	2236
741.400	3539
741.513	2643
741.626	2893
741.739	2441
741.851	3314
741.964	2427
742.077	2953
742.189	2665
742.302	3836
742.415	3370
742.527	3044
742.640	2372
742.753	2965
742.865	1597
742.978	1985
743.090	2424
743.203	2606
743.316	2716
743.428	2296
743.541	2926
743.653	2942
743.766	2183
743.878	2276
743.990	2250
744.103	3306
744.215	2747
744.327	3270
744.440	3883
744.552	6019
744.664	3586
744.777	2798
744.889	2118
745.001	3110
745.113	2535
745.226	2746
745.338	2874
745.450	2734
745.562	2426
745.674	3484
745.786	2158
745.898	2555
746.010	2417
746.122	2637
746.234	2174
746.347	3157
746.459	3363
746.570	2430
746.682	2958
746.794	3385
746.906	1944
747.018	2561
747.130	2345
747.242	3144
747.354	2332
747.466	3419
747.577	1690
747.689	3089
747.801	3399
747.913	2724
748.024	2015
748.136	2369
748.248	2539
748.359	3092
748.471	1886
748.583	3082
748.694	1834
748.806	2997
748.918	1895
749.029	2993
749.141	1980
749.252	2773
749.364	2359
749.475	5474
749.587	4361
749.698	2299
749.809	1816
749.921	2923
750.032	2115
750.144	1540
750.255	2009
750.366	2391
750.478	1663
750.589	2943
750.700	2494
750.811	2910
750.923	2394
751.034	5678
751.145	7563
751.256	2810
751.367	2166
751.479	2136
751.590	1882
751.701	2361
751.812	2111
751.923	2967
752.034	2485
752.145	1067
752.256	1775
752.367	1965
752.478	1609
752.589	2121
752.700	2001
752.811	1989
752.922	1708
753.032	2571
753.143	2708
753.254	1724
753.365	1646
753.476	1717
753.586	2140
753.697	1991
753.808	1551
753.919	1588
754.029	3379
754.140	2456
754.251	1238
754.361	2656
754.472	1833
754.582	2561
754.693	1761
754.804	2319
754.914	1593
755.025	1657
755.135	1125
755.246	2461
755.356	1192
755.466	1943
755.577	1678
755.687	2297
755.798	1900
755.908	2602
756.018	1567
756.129	1718
756.239	2225
756.349	2069
756.460	1185
756.570	2364
756.680	1509
756.790	1868
756.900	2240
757.011	1852
757.121	2326
757.231	2509
757.341	1225
757.451	1855
757.561	1035
757.671	1957
757.781	1054
757.891	2145
758.001	1944
758.111	2456
758.221	2184
758.331	2725
758.441	1423
758.551	2551
758.661	1874
758.771	2249
758.880	1198
758.990	2110
759.100	1285
759.210	980
759.320	1527
759.429	1538
759.539	1497
759.649	1358
759.758	798
759.868	2206
759.978	1055
760.087	2031
760.197	1452
760.307	2109
760.416	1582
760.526	1299
760.635	1966
760.745	1540
760.854	1164
760.964	1904
761.073	862
761.182	1635
761.292	1522
761.401	1569
761.511	1243
761.620	2049
761.729	1992
761.839	1584
761.948	2398
762.057	2020
762.166	1019
762.276	640
762.385	3398
762.494	2308
762.603	1005
762.712	1551
762.822	836
762.931	1076
763.040	706
763.149	1687
763.258	1848
763.367	1683
763.476	1157
763.585	1616
763.694	1317
763.803	1544
763.912	1525
764.021	1508
764.130	956
764.238	2030
764.347	1324
764.456	1879
764.565	1492
764.674	1977
764.783	1339
764.891	2186
765.000	2078
765.109	2848
765.217	1439
765.326	1774
765.435	1518
765.543	2334
765.652	1771
765.761	2498
765.869	2419
765.978	3765
766.086	4573
766.195	9690
766.303	21902
766.412	78008
766.520	109807
766.629	19136
766.737	5657
766.846	3336
766.954	3175
767.062	3452
767.171	1507
767.279	2827
767.387	1860
767.496	1890
767.604	2190
767.712	1153
767.820	1711
767.928	1744
768.037	1178
768.145	2203
768.253	1972
768.361	1655
768.469	1762
768.577	1712
768.685	1588
768.793	1696
768.901	1124
769.009	2009
769.117	1532
769.225	2002
769.333	2366
769.441	4024
769.549	3940
769.657	7921
769.765	25877
769.873	87588
769.981	37288
770.088	4862
770.196	2442
770.304	2857
770.412	1700
770.519	2773
770.627	1945
770.735	2068
770.842	1286
770.950	989
771.058	1408
771.165	1983
771.273	1239
771.380	1820
771.488	1219
771.595	1583
771.703	1634
771.810	2043
771.918	423
772.025	1700
772.133	1386
772.240	1423
772.348	1662
772.455	1556
772.562	1635
772.670	1266
772.777	2075
772.884	1630
772.991	579
773.099	2287
773.206	624
773.313	1751
773.420	1517
773.528	2198
773.635	999
773.742	1443
773.849	1181
773.956	1181
774.063	1311
774.170	1415
774.277	1045
774.384	853
774.491	954
774.598	1711
774.705	555
774.812	1779
774.919	1679
775.026	1149
775.133	1470
775.239	1818
775.346	1064
775.453	1753
775.560	929
775.667	1805
775.773	925
775.880	2369
775.987	821
776.093	2337
776.200	1374
776.307	1391
776.413	1197
776.520	1081
776.627	2003
776.733	1313
776.840	920
776.946	1999
777.053	1415
777.159	1272
777.266	163
777.372	1449
777.478	1030
777.585	1284
777.691	1702
777.798	1638
777.904	1792
778.010	1348
778.117	2601
778.223	1619
778.329	939
778.435	881
778.542	918
778.648	831
778.754	959
778.860	1448
778.966	1369
779.072	1797
779.178	1224
779.284	1839
779.391	1275
779.497	973
779.603	1979
779.708	311
779.815	1249
779.920	1440
780.026	2622
780.132	1131
780.238	431
780.344	1453
780.450	1358
780.556	818
780.661	716
780.767	1441
780.873	1972
780.979	785
781.085	757
781.190	1329
781.296	887
781.402	621
781.507	1457
781.613	1459
781.719	431
781.824	1436
781.930	1427
782.035	1543
782.141	743
782.246	1316
782.352	-134
782.457	1757
782.563	346
782.668	1458
782.773	490
782.879	610
782.984	1062
783.090	2016
783.195	1727
783.300	2112
783.405	1657
783.511	1560
783.616	823
783.721	1009
783.826	495
783.932	1589
784.037	559
784.142	740
784.247	419
784.352	1309
784.457	1026
784.562	1530
784.667	482
784.772	807
784.877	459
784.982	1123
785.087	280
785.192	2021
785.297	603
785.402	551
785.507	42
785.611	1045
785.716	106
785.821	1542
785.926	326
786.031	397
786.135	400
786.240	1699
786.345	-1
786.450	1044
786.554	71
786.659	251
786.763	-367
786.868	942
786.973	672
787.077	500
787.182	982
787.286	594
787.391	790
787.495	-199
787.600	587
787.704	276
787.809	1042
787.913	1429
788.017	664
788.122	963
788.226	144
788.330	630
788.435	807
788.539	1284
788.643	1009
788.747	565
788.852	1077
788.956	999
789.060	990
789.164	1342
789.268	758
789.372	1572
789.476	751
789.580	373
789.684	-159
789.788	1294
789.892	-426
789.996	1069
790.100	602
790.204	727
790.308	149
790.412	510
790.516	976
790.620	377
790.724	171
790.828	803
790.931	526
791.035	1443
791.139	340
791.242	-109
791.346	1250
791.450	696
791.554	360
791.657	519
791.761	688
791.864	1184
791.968	-216
792.072	886
792.175	822
792.279	339
792.382	-103
792.486	1054
792.589	441
792.693	1359
792.796	146
792.899	669
793.003	1366
793.106	80
793.209	318
793.313	1123
793.416	236
793.519	1458
793.623	1592
793.726	2197
793.829	642
793.932	664
794.035	-533
794.138	997
794.242	214
794.345	979
794.448	715
794.551	1298
794.654	3046
794.757	2195
794.860	-391
794.963	213
795.066	243
795.169	885
795.272	-1036
795.375	1395
795.477	-18
795.580	330
795.683	-503
795.786	861
795.889	-538
795.991	1276
796.094	639
796.197	-909
796.300	529
796.402	612
796.505	-289
796.608	713
796.710	1367
796.813	1005
796.915	-380
797.018	687
797.120	742
797.223	-558
797.326	1015
797.428	375
797.530	462
797.633	855
797.735	1052
797.838	239
797.940	993
798.042	-182
798.145	-315
798.247	490
798.349	-343
798.452	156
798.554	-362
798.656	156
798.758	1013
798.860	597
798.962	-124
799.065	281
799.167	126
799.269	909
799.371	952
799.473	1075
799.575	-1407
799.677	722
799.779	1005
799.881	893
799.983	790
800.085	886
800.187	107
800.289	-617
800.390	-143
800.492	718
800.594	788
800.696	570
800.798	345
800.899	-156
801.001	-248
801.103	344
801.205	-505
801.306	265
801.408	-328
801.509	-140
801.611	252
801.713	310
801.814	-563
801.916	187
802.017	-823
802.119	149
802.220	37
802.322	-778
802.423	1185
802.525	-240
802.626	296
802.727	472
802.829	118
802.930	-218
803.031	876
803.133	673
803.234	-717
803.335	472
803.436	-138
803.538	1060
803.639	-1243
803.740	792
803.841	-728
803.942	439
804.043	-90
804.144	308
804.245	658
804.346	657
804.447	-487
804.548	296
804.649	1919
804.750	542
804.851	237
804.952	-110
805.053	-565
805.154	-67
805.255	325
805.355	-592
805.456	-26
805.557	-47
805.658	-1120
805.758	140
805.859	-274
805.960	307
806.061	-791
806.161	571
806.262	1
806.362	659
806.463	126
806.564	1086
806.664	-186
806.765	-83
806.865	-181
806.966	224
807.066	-826
807.166	694
807.267	-8
807.367	-281
807.468	-32
807.568	-438
807.668	702
807.769	831
807.869	-329
807.969	-97
808.069	40
808.170	608
808.270	-730
808.370	504
808.470	657
808.570	149
808.670	-530
808.770	394
808.870	-414
808.970	118
809.070	-30
809.170	-71
809.271	-62
809.370	136
809.470	75
809.570	634
809.670	-695
809.770	-147
809.870	-182
809.970	502
810.070	-432
810.169	-34
810.269	-1824
810.369	488
810.469	14
810.568	-139
810.668	-530
810.768	244
810.867	-349
810.967	-234
811.066	-84
811.166	205
811.265	415
811.365	-380
811.464	-323
811.564	229
811.663	-173
811.763	-337
811.862	314
811.962	713
812.061	-7
812.160	84
812.260	624
812.359	239
812.458	1109
812.557	4113
812.657	8523
812.756	2408
812.855	445
812.954	163
813.053	61
813.153	967
813.252	-525
813.351	129
813.450	-364
813.549	-461
813.648	285
813.747	-45
813.846	-620
813.945	-135
814.044	-1492
814.143	195
814.242	-465
814.341	-581
814.439	-232
814.538	567
814.637	-234
814.736	-96
814.835	-403
814.933	-788
815.032	-163
815.131	-73
815.229	-116
815.328	651
815.427	315
815.525	359
815.624	416
815.722	-177
815.821	-565
815.919	-4
816.018	-926
816.116	75
816.215	-698
816.313	208
816.412	101
816.510	-32
816.609	1100
816.707	1007
816.805	38
816.904	-69
817.002	555
817.100	741
817.198	510
817.296	399
817.395	-45
817.493	1323
817.591	-31
817.689	1364
817.787	224
817.885	2527
817.983	3307
818.081	6907
818.179	19156
818.277	54967
818.375	60771
818.473	10657
818.571	2005
818.669	2301
818.767	837
818.865	1995
818.963	2227
819.061	2852
819.158	6449
819.256	14574
819.354	36770
819.452	99873
819.549	75259
819.647	14310
819.745	4481
819.842	3016
819.940	1996
820.038	709
820.135	524
820.233	1280
820.330	362
820.428	915
820.525	-193
820.623	-4
820.720	-225
820.818	1001
820.915	209
821.012	1343
821.110	-1235
821.207	578
821.304	-163
821.402	466
821.499	839
821.596	633
821.693	-134
821.791	601
821.888	359
821.985	2120
822.082	1767
822.179	315
822.276	501
822.373	-7
822.470	-310
822.567	600
822.664	-980
822.761	439
822.858	-743
822.955	421
823.052	-692
823.149	101
823.246	-695
823.343	218
823.440	-549
823.536	68
823.633	-510
823.730	601
823.827	-91
823.923	-447
824.020	503
824.117	-27
824.213	-1239
824.310	483
824.407	-440
824.503	-21
824.600	-66
824.696	-860
824.793	-390
824.889	268
824.986	-16
825.082	706
825.179	226
825.275	161
825.371	-611
825.468	-35
825.564	-531
825.660	100
825.757	-321
825.853	621
825.949	-442
826.045	-168
826.142	-733
826.238	841
826.334	-27
826.430	-677
826.526	74
826.622	-69
826.718	170
826.814	-517
826.910	-678
827.006	-251
827.102	-1087
827.198	853
827.294	-1479
827.390	330
827.486	380
827.582	-1262
827.678	17
827.774	448
827.869	-831
827.965	515
828.061	-1063
828.157	176
828.252	-819
828.348	-970
828.444	36
828.539	-783
828.635	-470
828.731	859
828.826	-728
828.922	184
829.017	-812
829.113	426
829.208	-433
829.304	-266
829.399	741
829.495	-20
829.590	-480
829.685	-1342
829.781	-662
829.876	35
829.971	-382
830.066	139
830.162	-354
830.257	-434
830.352	-901
830.447	140
830.543	-799
830.638	-877
830.733	51
830.828	-618
830.923	-720
831.018	137
831.113	-1480
831.208	-939
831.303	-718
831.398	-565
831.493	68
831.588	174
831.683	-897
831.778	652
831.873	-371
831.967	78
832.062	-807
832.157	-96
832.252	828
832.346	-261
832.441	-23
832.536	169
832.631	2318
832.725	2205
832.820	162
832.914	356
833.009	-74
833.104	-471
833.198	553
833.293	-800
833.387	-392
833.482	40
833.576	-694
833.670	1061
833.765	339
833.859	-891
833.954	186
834.048	130
834.142	-248
834.237	-546
834.331	-447
834.425	-153
834.519	-1194
834.613	-454
834.708	140
834.802	-515
834.896	-1548
834.990	-785
835.084	-1424
835.178	34
835.272	-420
835.366	-299
835.460	-156
835.554	-408
835.648	-765
835.742	-802
835.836	-1068
835.930	-1134
836.024	-158
836.117	232
836.211	-908
836.305	145
836.399	166
836.493	-864
836.586	593
836.680	-812
836.774	-1108
836.867	114
836.961	-479
837.055	-508
837.148	-524
837.242	-519
837.335	-146
837.429	-458
837.522	-1579
837.616	-343
837.709	-955
837.803	195
837.896	-829
837.989	-142
838.083	-661
838.176	7
838.269	-707
838.363	554
838.456	-657
838.549	765
838.642	-121
838.735	4171
838.829	1875
838.922	-496
839.015	-444
839.108	-81
839.201	-115
839.294	105
839.387	-149
839.480	-1435
839.573	-1099
839.666	-118
839.759	-1062
839.852	-725
839.945	-801
840.038	8
840.131	-633
840.223	-1125
840.316	-648
840.409	-70
840.502	-623
840.594	601
840.687	-1144
840.780	-351
840.873	-431
840.965	-92
841.058	-604
841.150	-83
841.243	-1010
841.336	-404
841.428	-713
841.521	-1039
841.613	-995
841.706	220
841.798	-536
841.890	-375
841.983	-1244
842.075	-433
842.167	-595
842.260	-737
842.352	-177
842.444	-670
842.537	-1061
842.629	-62
842.721	-229
842.813	-591
842.905	-1009
842.997	-113
843.090	-752
843.182	297
843.274	-675
843.366	-9
843.458	-701
843.550	608
843.642	-1156
843.734	120
843.826	-1188
843.918	65
844.009	-629
844.101	-828
844.193	-985
844.285	108
844.377	-357
844.469	222
844.560	-493
844.652	-268
844.744	-598
844.835	-99
844.927	-1152
845.019	-1035
845.110	-1244
845.202	-797
845.293	-1141
845.385	-264
845.476	-313
845.568	48
845.659	-474
845.751	428
845.842	-621
845.934	-672
846.025	-1032
846.116	-67
846.208	-1041
846.299	-222
846.390	-598
846.482	356
846.573	-504
846.664	72
846.755	165
846.846	719
846.937	-1923
847.029	414
847.120	-1108
847.211	-894
847.302	47
847.393	-419
847.484	-449
847.575	-800
847.666	-487
847.757	178
847.847	-206
847.938	-51
848.029	-1079
848.120	-139
848.211	-1228
848.302	-199
848.392	-974
848.483	-80
848.574	-1065
848.664	-539
848.755	-318
848.846	68
848.936	-1598
849.027	-780
849.118	-468
849.208	-962
849.299	-496
849.389	-152
849.480	-418
849.570	-626
849.661	585
849.751	2964
849.841	-143
849.932	-815
850.022	-368
850.112	-318
850.203	-1634
850.293	-945
850.383	-344
850.474	-683
850.564	-1333
850.654	-64
850.744	-1243
850.834	-840
850.924	-650
851.014	-595
851.104	-1815
851.194	-745
851.284	-1157
851.374	279
851.464	-1533
851.554	-437
851.644	-818
851.734	-259
851.824	-942
851.914	-909
852.004	-735
852.094	-18
852.183	-594
852.273	-674
852.363	-1159
852.452	-622
852.542	-709
852.632	-703
852.721	-451
852.811	-554
852.901	-1119
852.990	-555
853.080	-1130
853.169	-674
853.259	-1913
853.348	19
853.438	-1045
853.527	225
853.617	-1182
853.706	215
853.795	88
853.885	2536
853.974	5579
854.063	9887
854.152	19884
854.242	9732
854.331	-180
854.420	-241
854.509	-430
854.598	63
854.687	-190
854.777	-602
854.866	-1043
854.955	-753
855.044	-985
855.133	188
855.222	-865
855.311	-664
855.400	-812
855.488	-731
855.577	-1340
855.666	-249
855.755	-746
855.844	-379
855.933	-971
856.021	-546
856.110	-897
856.199	-554
856.288	-1202
856.376	-538
856.465	-1541
856.554	18
856.642	-468
856.731	-565
856.819	-407
856.908	42
856.996	-952
857.085	-1128
857.173	-669
857.262	-1124
857.350	129
857.438	-401
857.527	27
857.615	-626
857.703	-780
857.792	-440
857.880	-519
857.968	-777
858.056	-1167
858.145	-894
858.233	-1069
858.321	-426
858.409	-38
858.497	-853
858.585	-935
858.673	-395
858.761	-1660
858.849	-551
858.937	-1050
859.025	-16
859.113	-912
859.201	-845
859.289	-584
859.377	-315
859.465	-1216
859.552	-454
859.640	-1506
859.728	-1006
859.816	-868
859.903	-398
859.991	-930
860.079	-458
860.166	-847
860.254	-742
860.342	-603
860.429	-1191
860.517	-1372
860.604	-332
860.692	-628
860.779	-285
860.867	-1060
860.954	283
861.042	-570
861.129	-400
861.216	-323
861.304	-974
861.391	-762
861.478	-479
861.565	-572
861.653	-149
861.740	-717
861.827	-493
861.914	-723
862.001	-295
862.089	-504
862.176	-607
862.263	-1058
862.350	-219
862.437	-665
862.524	-1080
862.611	-818
862.698	-404
862.785	-875
862.871	-822
862.958	-890
863.045	-193
863.132	-1241
863.219	-357
863.306	-1691
863.392	-445
863.479	-1017
863.566	-470
863.652	-751
863.739	-810
863.826	-899
863.912	-259
863.999	-1268
864.086	-337
864.172	-1686
864.259	-546
864.345	-1201
864.432	-395
864.518	-994
864.604	-826
864.691	-942
864.777	-63
864.863	-527
864.950	-579
865.036	-816
865.122	-432
865.209	-775
865.295	-743
865.381	-661
865.467	-886
865.553	-677
865.639	-442
865.726	-544
865.812	1125
865.898	2701
865.984	3427
866.070	6692
866.156	11665
866.242	1847
866.328	-274
866.414	-1255
866.499	268
866.585	-138
866.671	-532
866.757	-1276
866.843	-488
866.928	-1148
867.014	-436
867.100	-581
867.186	-800
867.271	-666
867.357	68
867.442	-997
867.528	208
867.614	-441
867.699	-957
867.785	-534
867.870	-90
867.956	-1410
868.041	-133
868.127	-249
868.212	-735
868.297	-497
868.383	-110
868.468	-87
868.553	476
868.639	1307
868.724	2527
868.809	3981
868.894	1179
868.979	-942
869.065	-59
869.150	-1975
869.235	-612
869.320	-1274
869.405	-537
869.490	-1572
869.575	-865
869.660	-1437
869.745	-354
869.830	-1846
869.915	-298
870.000	-804
870.085	-624
870.169	-585
870.254	-726
870.339	-1321
870.424	-1088
870.509	-1520
870.593	-429
870.678	-884
870.763	-867
870.847	-938
870.932	-1593
871.016	-1031
871.101	-931
871.186	-1162
871.270	-191
871.355	-1611
871.439	-86
871.523	-811
871.608	-637
871.692	-1044
871.777	-476
871.861	-683
871.945	-867
872.030	-264
872.114	-53
872.198	-1682
872.282	-486
872.367	-1141
872.451	-497
872.535	-1203
872.619	-1334
872.703	-832
872.787	-1040
872.871	-1159
872.955	-602
873.039	-1090
873.123	-643
873.207	-387
873.291	-1085
873.375	-905
873.459	-1147
873.543	-891
873.627	-1162
873.711	-1109
873.794	-532
873.878	-1547
873.962	-933
874.045	-1098
874.129	-687
874.137	-777
874.213	-1681
874.245	-1345
874.296	-797
874.352	-908
874.380	-966
874.460	-659
874.464	-648
874.547	-1728
874.568	-1513
874.631	-854
874.676	-758
874.714	-693
874.784	-263
874.798	-173
874.881	-580
874.892	-662
874.965	-1229
874.999	-1382
875.048	-1611
875.107	-1038
875.131	-806
875.215	-538
875.215	-538
875.298	-396
875.323	-639
875.381	-1175
875.430	-671
875.465	-337
875.538	-811
875.548	-880
875.631	-484
875.646	-486
875.714	-451
875.753	-410
875.798	-332
875.861	-1168
875.881	-1456
875.964	-193
875.968	-227
876.047	-738
876.076	-595
876.130	-414
876.183	-770
876.213	-926
876.291	-468
876.296	-439
876.379	-1215
876.398	-971
876.462	-164
876.506	-501
876.545	-819
876.613	-358
876.628	-256
876.711	-208
876.721	-187
876.794	-26
876.828	-242
876.877	-509
876.935	-224
876.960	-119
877.043	-308
877.043	-307
877.125	65
877.150	-31
877.208	-369
877.258	-314
877.291	-241
877.365	-760
877.374	-819
877.456	-361
877.472	-417
877.539	-689
877.579	-296
877.622	93
877.687	-484
877.704	-600
877.787	159
877.794	131
877.869	-305
877.901	-372
877.952	-445
878.008	-271
878.034	-196
878.115	-479
878.117	-482
878.199	-912
878.222	-743
878.282	-386
878.329	-504
878.364	-556
878.437	-430
878.447	-398
878.529	-988
878.544	-832
878.611	-259
878.651	-485
878.694	-689
878.758	-562
878.776	-511
878.858	-876
878.865	-814
878.941	-278
878.972	-489
879.023	-687
879.078	-311
879.105	-186
879.185	-680
879.187	-683
879.269	-290
879.292	-291
879.351	-558
879.399	-776
879.433	-677
879.506	-485
879.516	-513
879.598	-145
879.613	-225
879.680	-391
879.720	-171
879.762	37
879.827	-380
879.844	-582
879.926	-699
879.933	-759
880.007	-648
880.040	-406
880.089	-260
880.147	151
880.171	446
880.253	1883
880.254	1887
880.335	2278
880.360	2673
880.417	3955
880.467	5427
880.499	6848
880.574	11632
880.580	11702
880.662	4084
880.680	2989
880.744	325
880.787	-233
880.825	-345
880.893	-216
880.907	-183
880.989	-38
881.000	-65
881.070	-482
881.106	-731
881.152	-661
881.213	29
881.233	191
881.315	126
881.319	139
881.396	246
881.426	-60
881.478	-340
881.532	372
881.559	434
881.639	-839
881.641	-847
881.722	-264
881.745	-174
881.803	-10
881.852	25
881.885	-115
881.958	-224
881.966	-202
882.047	84
882.064	15
882.129	-211
882.171	-43
882.210	79
882.277	307
882.291	397
882.372	729
882.383	684
882.454	43
882.489	54
882.535	145
882.596	-125
882.616	-217
882.697	-234
882.702	-242
882.778	320
882.808	520
882.859	353
882.914	-24
882.940	-116
883.020	124
883.021	129
883.102	-188
883.127	-223
883.183	-145
883.233	-388
883.264	-402
883.339	547
883.345	565
883.426	-473
883.445	-616
883.507	-238
883.551	26
883.587	-140
883.657	-73
883.668	-3
883.749	-203
883.763	-132
883.830	-25
883.869	-365
883.910	-433
883.975	104
883.991	133
884.072	-448
884.081	-438
884.152	-217
884.187	-334
884.233	-162
884.292	332
884.314	284
884.394	-343
884.398	-363
884.475	235
884.504	476
884.555	609
884.610	564
884.636	361
884.716	-262
884.716	-257
884.797	-14
884.821	28
884.877	96
884.927	159
884.958	186
885.033	515
885.038	544
885.118	469
885.139	470
885.199	179
885.244	119
885.279	96
885.350	-497
885.359	-473
885.439	592
885.456	627
885.520	558
885.561	840
885.600	804
885.667	319
885.680	292
885.760	321
885.773	325
885.840	278
885.878	373
885.920	649
885.984	491
886.000	429
886.080	735
886.089	720
886.160	573
886.195	539
886.240	550
886.300	570
886.320	497
886.400	356
886.406	326
886.480	259
886.511	297
886.560	544
886.616	760
886.640	683
886.720	352
886.722	341
886.800	373
886.827	386
886.879	135
886.932	-250
886.959	-42
887.038	729
887.039	734
887.119	541
887.143	504
887.198	815
887.248	973
887.278	760
887.354	268
887.358	272
887.437	181
887.459	201
887.517	490
887.564	639
887.596	512
887.669	284
887.676	314
887.755	543
887.774	594
887.835	895
887.880	1194
887.914	703
887.985	-443
887.994	-359
888.073	449
888.090	607
888.153	764
888.195	803
888.232	711
888.300	723
888.311	747
888.391	691
888.405	686
888.470	435
888.510	240
888.549	218
888.615	306
888.628	301
888.708	96
888.720	81
888.787	18
888.825	-75
888.866	402
888.930	1182
888.945	1207
889.024	1273
889.035	1282
889.103	716
889.140	378
889.182	254
889.245	86
889.261	225
889.340	860
889.349	935
889.419	423
889.454	122
889.498	416
889.559	870
889.577	780
889.656	350
889.664	307
889.735	932
889.768	1225
889.814	1071
889.873	859
889.978	-94
890.083	289
890.187	560
890.292	810
890.397	190
890.501	371
890.606	1324
890.710	962
890.815	150
890.919	465
891.024	921
891.128	223
891.233	849
891.337	154
891.442	666
891.546	496
891.650	293
891.755	772
891.859	1502
891.963	987
892.068	131
892.172	983
892.276	753
892.380	724
892.484	424
892.589	545
892.693	238
892.797	552
892.901	577
893.005	185
893.109	656
893.213	1288
893.317	694
893.421	1262
893.525	1279
893.629	470
893.733	878
893.837	748
893.941	990
894.045	1041
894.148	483
894.252	613
894.356	432
894.460	968
894.564	1067
894.667	760
894.771	774
894.875	473
894.978	495
895.082	437
895.186	845
895.289	234
895.393	685
895.496	820
895.600	354
895.703	453
895.807	1268
895.910	915
896.014	1035
896.117	488
896.221	811
896.324	314
896.427	1334
896.531	1448
896.634	1064
896.737	978
896.840	999
896.944	933
897.047	519
897.150	159
897.253	378
897.356	680
897.460	487
897.563	224
897.666	415
897.769	1074
897.872	803
897.975	501
898.078	1209
898.181	440
898.284	977
898.387	1017
898.490	1613
898.593	1474
898.695	-105
898.798	134
898.901	887
899.004	877
899.107	1046
899.209	716
899.312	0
899.415	935
899.518	994
899.620	1124
899.723	581
899.826	1395
899.928	2454
900.031	1164
900.133	516
900.236	697
900.338	1552
900.441	534
900.543	209
900.646	905
900.748	404
900.851	572
900.953	821
901.055	1184
901.158	86
901.260	527
901.362	1007
901.465	1512
901.567	544
901.669	1102
901.771	513
901.873	177
901.976	841
902.078	1044
902.180	747
902.282	788
902.384	992
902.486	722
902.588	935
902.690	485
902.792	1465
902.894	1406
902.996	249
903.098	676
903.200	1619
903.302	1225
903.404	189
903.505	591
903.607	1130
903.709	1631
903.811	1212
903.913	1114
904.014	692
904.116	598
904.218	1048
904.319	1382
904.421	1375
904.523	388
904.624	1409
904.726	398
904.827	814
904.929	790
905.030	1668
905.132	1066
905.233	1219
905.335	1102
905.436	986
905.537	135
905.639	1634
905.740	541
905.841	938
905.943	645
906.044	300
906.145	997
906.247	690
906.348	1017
906.449	1435
906.550	959
906.651	666
906.752	743
906.854	968
906.955	382
907.056	1003
907.157	646
907.258	1405
907.359	113
907.460	1110
907.561	835
907.662	641
907.762	655
907.863	439
907.964	892
908.065	1238
908.166	694
908.267	974
908.367	1002
908.468	368
908.569	766
908.670	837
908.770	1366
908.871	1098
908.971	1051
909.072	1250
909.173	703
909.273	1539
909.374	827
909.474	1084
909.575	627
909.675	819
909.776	1393
909.876	1043
909.977	192
910.077	-77
910.177	618
910.278	716
910.378	914
910.478	849
910.579	1283
910.679	1245
910.779	577
910.879	1270
910.980	1061
911.080	1099
911.180	1037
911.280	967
911.380	684
911.480	525
911.580	1190
911.680	378
911.780	1155
911.880	1077
911.980	1264
912.080	895
912.180	1094
912.280	305
912.380	1198
912.480	719
912.580	764
912.679	390
912.779	1340
912.879	910
912.979	1365
913.078	766
913.178	899
913.278	937
913.377	904
913.477	967
913.577	-130
913.676	1337
913.776	676
913.875	451
913.975	1269
914.074	772
914.174	533
914.273	-387
914.373	1260
914.472	1106
914.572	-88
914.671	800
914.770	1748
914.870	843
914.969	408
915.068	347
915.167	772
915.267	1337
915.366	732
915.465	785
915.564	389
915.663	949
915.763	1232
915.862	812
915.961	1008
916.060	882
916.159	807
916.258	947
916.357	245
916.456	49
916.555	1257
916.654	914
916.752	792
916.851	851
916.950	751
917.049	460
917.148	745
917.247	1278
917.345	396
917.444	644
917.543	1060
917.642	188
917.740	405
917.839	1226
917.937	430
918.036	1294
918.135	904
918.233	1093
918.332	788
918.430	766
918.529	516
918.627	873
918.726	635
918.824	650
918.923	1092
919.021	447
919.119	478
919.218	911
919.316	753
919.414	906
919.512	705
919.611	1020
919.709	369
919.807	581
919.905	1086
920.003	913
920.102	627
920.200	1000
920.298	655
920.396	682
920.494	573
920.592	519
920.690	992
920.788	318
920.886	618
920.984	1531
921.082	564
921.180	913
921.277	901
921.375	886
921.473	947
921.571	1085
921.669	547
921.766	856
921.864	484
921.962	801
922.060	1409
922.157	1123
922.255	129
922.352	803
922.450	787
922.548	-110
922.645	1162
922.743	197
922.840	1255
922.938	876
923.035	1020
923.133	776
923.230	1669
923.327	1436
923.425	1401
923.522	599
923.619	1067
923.717	193
923.814	546
923.911	1024
924.008	1098
924.106	1051
924.203	846
924.300	916
924.397	797
924.494	1141
924.591	779
924.688	1160
924.786	284
924.883	1419
924.979	462
925.077	887
925.173	920
925.270	1696
925.367	930
925.464	117
925.561	874
925.658	649
925.755	1118
925.852	1201
925.948	1410
926.045	1322
926.142	642
926.239	1132
926.335	227
926.432	735
926.529	783
926.625	1678
926.722	480
926.818	408
926.915	1700
927.011	389
927.108	625
927.204	442
927.301	868
927.397	689
927.494	82
927.590	1644
927.687	1093
927.783	864
927.879	358
927.976	1542
928.072	586
928.168	-559
928.264	874
928.361	1059
928.457	1558
928.553	390
928.649	648
928.745	1496
928.841	1186
928.937	882
929.033	711
929.129	422
929.225	1202
929.321	455
929.417	600
929.513	815
929.609	351
929.705	1123
929.801	-85
929.897	553
929.993	409
930.089	728
930.184	919
930.280	574
930.376	573
930.471	294
930.567	244
930.663	829
930.758	564
930.854	779
930.950	671
931.045	-317
931.141	1000
931.236	1849
931.332	867
931.427	311
931.523	663
931.618	562
931.714	-211
931.809	836
931.905	615
932.000	505
932.095	179
932.191	-36
932.286	825
932.381	348
932.476	-110
932.572	330
932.667	-43
932.762	-659
932.857	741
932.952	716
933.047	547
933.142	12
933.237	146
933.332	-289
933.427	411
933.522	1266
933.617	211
933.712	586
933.807	553
933.902	676
933.997	-330
934.092	233
934.187	-64
934.282	390
934.376	283
934.471	122
934.566	45
934.661	-250
934.755	1024
934.850	640
934.945	710
935.039	520
935.134	351
935.228	1120
935.323	525
935.417	857
935.512	124
935.606	527
935.701	129
935.795	508
935.890	34
935.984	-236
936.079	545
936.173	555
936.267	747
936.362	-109
936.456	-41
936.550	-481
936.644	636
936.738	126
936.833	321
936.927	690
937.021	435
937.115	697
937.209	292
937.303	165
937.397	166
937.491	453
937.585	1429
937.679	293
937.773	799
937.867	841
937.961	-374
938.055	824
938.149	1472
938.243	462
938.337	486
938.430	13
938.524	237
938.618	-41
938.712	884
938.805	136
938.899	475
938.993	851
939.086	898
939.180	617
939.274	453
939.367	799
939.461	98
939.554	-316
939.648	387
939.741	546
939.835	3
939.928	409
940.022	846
940.115	714
940.208	62
940.302	1303
940.395	-117
940.488	-160
940.582	410
940.675	552
940.768	-84
940.861	232
940.954	331
941.048	-206
941.141	-969
941.234	229
941.327	467
941.420	486
941.513	368
941.606	208
941.699	819
941.792	225
941.885	602
941.978	-209
942.071	-321
942.164	-492
942.257	156
942.349	94
942.442	348
942.535	191
942.628	-498
942.721	472
942.813	-285
942.906	461
942.999	-154
943.091	-303
943.184	-360
943.277	-13
943.369	752
943.462	914
943.554	520
943.647	-62
943.739	280
943.832	322
943.924	-1077
944.017	177
944.109	-29
944.201	181
944.294	-566
944.386	556
944.478	-17
944.571	-120
944.663	577
944.755	5
944.847	699
944.940	580
945.032	-553
945.124	75
945.216	856
945.308	100
945.400	80
945.492	157
945.584	-332
945.676	-83
945.768	-431
945.860	185
945.952	256
946.044	98
946.136	516
946.228	-13
946.320	-250
946.412	-222
946.503	-537
946.595	165
946.687	-692
946.779	281
946.870	-254
946.962	-264
947.054	685
947.145	285
947.237	-227
947.329	-236
947.420	-248
947.512	-346
947.603	-229
947.695	314
947.786	-419
947.878	-350
947.969	-62
948.061	-332
948.152	-550
948.243	468
948.335	-153
948.426	-45
948.517	-569
948.609	-310
948.700	-715
948.791	343
948.882	406
948.973	-553
949.065	-489
949.156	-340
949.247	-528
949.338	238
949.429	-288
949.520	-600
949.611	-852
949.702	151
949.793	800
949.884	188
949.975	183
950.066	-530
950.157	-165
950.247	-185
950.338	-618
950.429	-286
950.520	-202
950.611	-806
950.701	125
950.792	373
950.883	13
950.973	-267
951.064	297
951.155	363
951.245	312
951.336	748
951.427	-85
951.517	-173
951.608	283
951.698	580
951.788	-849
951.879	321
951.969	-101
952.060	-677
952.150	660
952.240	-187
952.331	-985
952.421	814
952.511	-792
952.602	-11
952.692	-26
952.782	-96
952.872	-542
952.962	-647
953.052	-283
953.143	-329
953.233	70
953.323	628
953.413	-847
953.503	-280
953.593	-740
953.683	6
953.773	-519
953.863	-465
953.953	-6
954.042	-407
954.132	-506
954.222	-15
954.312	-1145
954.402	-681
954.492	-1048
954.581	257
954.671	5
954.761	-609
954.850	-52
954.940	232
955.030	-698
955.119	-112
955.209	306
955.298	-440
955.388	-797
955.477	105
955.567	-837
955.656	92
955.746	428
955.835	-212
955.925	-569
956.014	-93
956.103	-446
956.193	-416
956.282	-603
956.371	-60
956.461	-456
956.550	-929
956.639	225
956.728	-108
956.817	150
956.906	-956
956.995	-66
957.085	-867
957.174	-271
957.263	-21
957.352	-180
957.441	-996
957.530	-524
957.619	-450
957.708	-822
957.796	-622
957.885	-634
957.974	-748
958.063	229
958.152	-1434
958.241	-1109
958.329	155
958.418	-271
958.507	-761
958.596	560
958.684	-1123
958.773	222
958.861	-1182
958.950	-503
959.039	-144
959.127	-486
959.216	-226
959.304	-728
959.393	-574
959.481	336
959.570	-187
959.658	-103
959.746	-845
959.835	-525
959.923	-425
960.011	-160
960.100	335
960.188	156
960.276	-1175
960.365	-590
960.453	-511
960.541	-846
960.629	-521
960.717	-256
960.805	-481
960.893	-551
960.981	-327
961.069	323
961.158	-82
961.245	-209
961.333	-263
961.421	-1017
961.509	-546
961.597	-314
961.685	-458
961.773	219
961.861	-79
961.949	418
962.036	-801
962.124	64
962.212	-962
962.299	-296
962.387	-218
962.475	-144
962.562	-728
962.650	-780
962.738	170
962.825	79
962.913	-88
963.000	-503
963.088	-512
963.175	-433
963.263	81
963.350	-620
963.438	-1488
963.525	94
963.612	234
963.700	-244
963.787	792
963.874	1107
963.962	77
964.049	-252
964.136	5
964.223	-256
964.310	137
964.398	-11
964.485	-261
964.572	-611
964.659	13
964.746	346
964.833	-285
964.920	-1436
965.007	-296
965.094	-150
965.181	-293
965.268	-313
965.355	-148
965.441	414
965.528	-389
965.615	-165
965.702	-659
965.789	54
965.875	-608
965.962	385
966.049	-577
966.136	20
966.222	-874
966.309	667
966.395	-798
966.482	-103
966.569	-781
966.655	-1250
966.742	-1037
966.828	-428
966.915	-1051
967.001	-676
967.087	-1466
967.174	-550
967.260	-25
967.347	-622
967.433	-383
967.519	794
967.605	-306
967.692	-856
967.778	-804
967.864	-445
967.950	-300
968.036	-135
968.123	-12
968.209	-137
968.295	-257
968.381	136
968.467	-427
968.553	-1013
968.639	71
968.725	-706
968.811	-258
968.897	184
968.983	-521
969.069	116
969.154	446
969.240	-115
969.326	-666
969.412	-712
969.497	515
969.583	242
969.669	633
969.755	-854
969.840	-1039
969.926	-292
970.012	-796
970.097	-80
970.183	-243
970.268	-851
970.354	625
970.439	-981
970.525	730
970.610	-1128
970.696	-588
970.781	-118
970.866	-1178
970.952	377
971.037	-861
971.122	149
971.208	-521
971.293	-1009
971.378	-619
971.463	-579
971.549	390
971.634	-310
971.719	-1196
971.804	-726
971.889	147
971.974	-46
972.059	-72
972.144	158
972.229	-642
972.314	-697
972.399	-160
972.484	-284
972.569	252
972.654	-1753
972.739	79
972.824	-642
972.908	-222
972.993	-520
973.078	-551
973.163	-297
973.247	-529
973.332	-1507
973.417	176
973.501	-892
973.586	416
973.671	-285
973.755	-292
973.840	-159
973.924	-733
974.009	-384
974.093	-1311
974.178	30
974.262	-273
974.346	-317
974.431	-430
974.515	-548
974.600	-216
974.684	-217
974.768	-286
974.852	946
974.937	-1040
975.021	-132
975.105	-804
975.189	-327
975.273	-430
975.358	-198
975.442	-224
975.526	256
975.610	-227
975.694	-980
975.778	549
975.862	-595
975.946	-1353
976.030	-146
976.114	-964
976.198	-843
976.281	-461
976.365	-150
976.449	-386
976.533	-392
976.617	-999
976.700	-145
976.784	-884
976.868	-651
976.951	417
977.035	-756
977.119	-75
977.202	-27
977.286	-560
977.369	-789
977.453	-552
977.536	-1133
977.620	-1204
977.703	-421
977.787	-1184
977.870	286
977.953	300
978.037	-1333
978.120	-332
978.203	-1167
978.287	-292
978.370	-366
978.453	-690
978.536	-250
978.620	-21
978.703	25
978.786	-1245
978.869	-965
978.952	-667
979.035	57
979.118	-891
979.201	-1331
979.284	-82
979.367	-596
979.450	50
979.533	-310
979.616	-1292
979.699	-543
979.782	-1062
979.865	-130
979.948	-683
980.030	-1566
980.113	-680
980.196	-1179
980.279	-784
980.361	-717
980.444	-174
980.526	-688
980.609	-888
980.692	-811
980.774	-159
980.857	-757
980.939	-379
981.022	-1045
981.104	-780
981.187	-1626
981.269	68
981.352	-1425
981.434	-1341
981.516	-24
981.599	123
981.681	359
981.763	-527
981.846	-303
981.928	-1087
982.010	-11
982.092	-773
982.174	164
982.256	-1124
982.339	-699
982.421	-86
982.503	236
982.585	-706
982.667	-38
982.749	-103
982.831	-999
982.913	-1204
982.995	-252
983.077	-1696
983.158	26
983.240	-1726
983.322	-427
983.404	-81
983.486	-1355
983.568	-618
983.649	-895
983.731	-723
983.813	-1355
983.894	-249
983.976	-1030
984.058	-1532
984.139	-605
984.221	-1161
984.302	-3
984.384	-728
984.465	-1131
984.547	-862
984.628	-1474
984.710	-353
984.791	-1338
984.872	-800
984.954	-769
985.035	-677
985.116	-2094
985.198	-96
985.279	-170
985.360	-948
985.441	-1193
985.522	-135
985.604	-1588
985.685	-2407
985.766	122
985.847	-58
985.928	-1623
986.009	-798
986.090	-242
986.171	-46
986.252	-773
986.333	-792
986.414	-931
986.495	-1051
986.576	-1453
986.656	-257
986.737	-849
986.818	-924
986.899	-1483
986.980	-232
987.060	-626
987.141	-825
987.222	-1012
987.302	-928
987.383	-115
987.464	-825
987.544	-528
987.625	-1361
987.705	-819
987.786	-1229
987.866	-517
987.947	-1620
988.027	-236
988.108	-1289
988.188	-688
988.268	-1733
988.349	-814
988.429	-449
988.509	-111
988.589	-134
988.670	-2083
988.750	546
988.830	-1327
988.910	-839
988.990	-1117
989.070	-849
989.151	-11
989.231	-1140
989.311	-1217
989.391	-583
989.471	-81
989.551	-752
989.631	-1589
989.711	-722
989.791	-1044
989.870	-959
989.950	-369
990.030	-770
990.110	-1228
990.190	-1006
990.269	-1253
990.349	-1157
990.429	-721
990.509	-558
990.588	-2296
990.668	-221
990.747	-850
990.827	-873
990.907	-559
990.986	-756
991.066	-1277
991.145	-1935
991.225	-468
991.304	-906
991.383	-491
991.463	-1502
991.542	-249
991.622	-1743
991.701	-1182
991.780	-133
991.859	-316
991.939	-1146
992.018	-674
992.097	-1070
992.176	-918
992.256	-1818
992.335	-1424
992.414	-435
992.493	-1161
992.572	-972
992.651	-869
992.730	-1173
992.809	-483
992.888	-1329
992.967	-1535
993.046	-1166
993.125	-1555
993.203	-1195
993.282	-708
993.361	-1247
993.440	-1277
993.519	-1921
993.597	-900
993.676	-943
993.755	-1078
993.834	-1425
993.912	-2127
993.991	-463
994.069	-1283
994.148	-1286
994.226	-756
994.305	-331
994.384	-1295
994.462	-295
994.540	-1942
994.619	-1223
994.697	-1007
994.776	-1040
994.854	-297
994.932	-947
995.011	-1145
995.089	-1367
995.167	-1093
995.245	-758
995.324	-1276
995.402	-319
995.480	-1396
995.558	-660
995.636	-1505
995.714	-974
995.792	-163
995.870	-1316
995.948	-850
996.026	-2243
996.104	-1648
996.182	-1210
996.260	-1494
996.338	-1103
996.416	-1981
996.494	-1435
996.572	-393
996.649	-1223
996.727	-1078
996.805	-1621
996.883	-1235
996.960	-416
997.038	-728
997.116	-631
997.193	-2167
997.271	-469
997.348	-753
997.426	-1569
997.504	-1574
997.581	-362
997.658	-155
997.736	-1245
997.813	-1655
997.891	-463
997.968	-1654
998.046	-1436
998.123	-1028
998.200	-1626
998.277	-1367
998.355	-1167
998.432	-1834
998.509	-1347
998.586	-1147
998.663	-313
998.741	-1876
998.818	-1693
998.895	-1366
998.972	324
999.049	-223
999.126	-1469
999.203	-464
999.280	-1080
999.357	-1853
999.434	-1048
999.511	-854
999.587	-865
999.664	-1126
999.741	-1264
999.818	-956
999.895	-1637
999.971	-1232
1000.048	-1582
1000.125	-401
1000.202	-1099
1000.278	-967
1000.355	-1262
1000.431	-572
1000.508	-1341
1000.584	-706
1000.661	-727
1000.738	-1219
1000.814	-1246
1000.890	-1443
1000.967	-1992
1001.043	-929
1001.120	-1995
1001.196	-1011
1001.272	-1781
1001.349	-631
1001.425	-429
1001.501	-866
1001.577	-1956
1001.654	-475
1001.730	-973
1001.806	-1849
1001.882	-1834
1001.958	-842
1002.034	-336
1002.110	-1026
1002.186	-1487
1002.262	-1145
1002.338	-2122
1002.414	-573
1002.490	-687
1002.566	-1869
1002.642	-1610
1002.718	-1196
1002.794	-917
1002.870	-1202
1002.945	-1171
1003.021	-1475
1003.097	-1353
1003.173	-218
1003.248	-2536
1003.324	-1537
1003.400	-334
1003.475	-1524
1003.551	-1136
1003.626	-1316
1003.702	-1452
1003.777	-1563
1003.853	-534
1003.928	-1514
1004.004	-799
1004.079	-1229
1004.155	-573
1004.230	-2136
1004.305	370
1004.381	-1526
1004.456	-725
1004.531	-819
1004.607	-1630
1004.682	-1117
1004.757	-1198
1004.832	-1362
1004.907	-1512
1004.982	-943
1005.057	-1829
1005.133	-1737
1005.208	-1114
1005.283	-875
1005.358	-1039
1005.433	-1636
1005.508	-865
1005.583	-2043
1005.657	-1643
1005.732	-1826
1005.807	-2138
1005.882	-1830
1005.957	-1336
1006.032	-676
1006.106	-1178
1006.181	-604
1006.256	-1275
1006.331	-1831
1006.405	-1450
1006.480	-1323
1006.554	-1142
1006.629	-1662
1006.704	-1358
1006.778	-1248
1006.853	-512
1006.927	-1799
1007.002	-1971
1007.076	-1393
1007.150	-851
1007.225	-1993
1007.299	-726
1007.373	-1982
1007.448	-1366
1007.522	-996
1007.596	-425
1007.671	-1835
1007.745	-1473
1007.819	-1847
1007.893	-1806
1007.967	-768
1008.041	-2369
1008.115	-1081
1008.190	-2074
1008.264	-1071
1008.338	-2036
1008.412	-1635
1008.486	-1645
1008.560	-1264
1008.633	-1860
1008.707	-1642
1008.781	-951
1008.855	-1347
1008.929	-1692
1009.003	-2112
1009.076	-1476
1009.150	-1109
1009.224	-976
1009.298	-1238
1009.371	-2272
1009.445	-927
1009.519	-1056
1009.592	-2290
1009.666	-1201
1009.739	-1050
1009.813	-1993
1009.886	-697
1009.960	-2358
1010.033	-1130
1010.107	-679
1010.180	-2765
1010.253	-1662
1010.327	-1334
1010.400	-1884
1010.473	-1170
1010.547	-1387
1010.620	-1838
1010.693	-1860
1010.766	-1544
1010.840	-619
1010.913	-1039
1010.986	-2608
1011.059	-1328
1011.132	-1267
1011.205	-1025
1011.278	-1675
1011.351	-1379
1011.424	-2002
1011.497	-2473
1011.570	-2055
1011.643	-2326
1011.716	-2949
1011.789	-2016
1011.862	-543
1011.934	-1020
1012.007	-2710
1012.080	-1743
1012.153	-2164
1012.225	-1199
1012.298	-2205
1012.371	-1128
1012.443	-1702
1012.516	-2002
1012.588	-685
1012.661	-1066
1012.733	-2427
1012.806	-1426
1012.879	-2456
1012.951	-1463
1013.023	-1378
1013.096	-1171
1013.168	-1345
1013.241	-1569
1013.313	-1255
1013.385	-1766
1013.458	-1952
1013.530	-826
1013.602	-2655
1013.674	-1887
1013.746	-2503
1013.819	-2206
1013.891	-1059
1013.963	-1859
1014.035	-1992
1014.107	-1886
1014.179	-1100
1014.251	-1273
1014.323	-2022
1014.395	-1476
1014.467	-1149
1014.539	-1133
1014.611	-2153
1014.683	-1178
1014.754	-1487
1014.826	-1540
1014.898	-1379
1014.970	-2588
1015.042	-1416
1015.113	-1978
1015.185	-1752
1015.257	-1576
1015.328	-1590
1015.400	-1548
1015.471	-2255
1015.543	-2939
1015.615	-1709
1015.686	-2024
1015.757	-1282
1015.829	-1340
1015.901	-1169
1015.972	-1841
1016.043	-1557
1016.115	-1370
1016.186	-2292
1016.257	-2128
1016.328	-1065
1016.400	-1418
1016.471	-1768
1016.542	-2046
1016.613	-2219
1016.685	-1182
1016.756	-1479
1016.827	-1937
1016.898	-1805
1016.969	-1323
1017.040	-1692
1017.111	-2302
1017.182	-1526
1017.253	-2074
1017.324	-1452
1017.395	-1956
1017.466	-1584
1017.537	-1766
1017.608	-2104
1017.678	-2190
1017.749	-2320
1017.820	-1484
1017.891	-1998
1017.961	-1871
1018.032	-1067
1018.103	-1758
1018.173	-1600
1018.244	-2191
1018.315	-2026
1018.385	-1663
1018.456	-2218
1018.526	-1941
1018.597	-2064
1018.667	-1446
1018.738	-2024
1018.808	-1321
1018.878	-1499
1018.949	-1473
1019.019	-2151
1019.089	-1563
1019.160	-1873
1019.230	-1869
1019.300	-1643
1019.371	-2221
1019.441	-1553
1019.511	-1584
1019.581	-2318
1019.651	-1239
1019.721	-1554
1019.791	-1865
1019.861	-2247
1019.931	-2226
1020.001	-1982
1020.071	-2018
1020.141	-1482
1020.211	-1897
1020.281	-2686
1020.351	-2292
1020.421	-1620
1020.491	-1978
1020.560	-1479
1020.630	-1685
1020.700	-1683
1020.770	-2447
1020.839	-1543
1020.909	-2875
1020.979	-1789
1021.048	-1810
1021.118	-1040
1021.187	-2303
1021.257	-1129
1021.326	-1584
1021.396	-1961
1021.465	-1231
1021.535	-2836
1021.604	-1848
1021.674	-1799
1021.743	-1526
1021.812	-2329
1021.882	-1331
1021.951	-1258
1022.020	-1407
1022.089	-832
1022.159	-1608
1022.228	-1318
1022.297	-1993
1022.366	-1715
1022.435	-1539
1022.504	-1863
1022.573	-1840
1022.642	-1688
1022.711	-2339
1022.781	-1820
1022.849	-1377
1022.918	-3003
1022.987	-1205
1023.056	-2165
1023.125	-1044
1023.194	-2103
1023.263	-1725
1023.331	-1546
1023.400	-2413
1023.469	-2691
1023.538	-1633
1023.606	-1694
1023.675	-1981
1023.744	-1872
1023.812	-2302
1023.881	-2054
1023.949	-1994
1024.018	-1523
1024.086	-1494
1024.155	-2124
1024.223	-2549
1024.292	-1847
1024.360	-1476
1024.429	-1293
1024.497	-2394
1024.565	-949
1024.634	-1196
1024.702	-2885
1024.770	-2359
1024.838	-2269
1024.907	-1527
1024.975	-1831
1025.043	-1246
1025.111	-2220
1025.179	-1277
1025.247	-2312
1025.315	-1653
1025.383	-1670
1025.451	-2241
1025.519	-1886
1025.587	-981
1025.655	-1841
1025.723	-1885
1025.791	-1902
1025.859	-1211
1025.927	-1227
1025.995	-1898
1026.062	-2150
1026.130	-2342
1026.198	-1902
1026.266	-1629
1026.333	-1158
1026.401	-2305
1026.469	-1381
1026.536	-1314
1026.604	-1932
1026.671	-1987
1026.739	-1761
1026.806	-2134
1026.874	-2200
1026.941	-1544
1027.009	-1914
1027.076	-1824
1027.144	-1229
1027.211	-2280
1027.278	-2226
1027.345	-2049
1027.413	-1687
1027.480	-1339
1027.547	-1552
1027.614	-1884
1027.682	-1277
1027.749	-1790
1027.816	-1783
1027.883	-1338
1027.950	-963
1028.017	-1845
1028.084	-1658
1028.151	-1925
1028.218	-1758
1028.285	-2671
1028.352	-2230
1028.419	-1008
1028.486	-1533
1028.553	-2021
1028.619	-2580
1028.686	-2459
1028.753	-2159
1028.820	-2145
1028.886	-1704
1028.953	-1598
1029.020	-1938
1029.086	-2374
1029.153	-1815
1029.220	-2377
1029.286	-1712
1029.353	-1184
1029.419	-1598
1029.486	-1717
1029.552	-1881
1029.619	-1721
1029.685	-1350
1029.751	-1642
1029.818	-1474
1029.884	-2163
1029.951	-1071
1030.017	-1578
1030.083	-1891
1030.149	-1925
1030.216	-2219
1030.282	-1780
1030.348	-1824
1030.414	-2590
1030.480	-2772
1030.546	-1407
1030.612	-1622
1030.678	-2742
1030.744	-1997
1030.810	-1596
1030.876	-2182
1030.942	-1426
1031.008	-1626
1031.074	-2548
1031.140	-1860
1031.206	-1280
1031.272	-2808
1031.337	-1574
1031.403	-1522
1031.469	-1879
1031.534	-1375
1031.600	-1417
1031.666	-1576
1031.731	-1558
1031.797	-1040
1031.863	-2030
1031.928	-1473
1031.994	-1432
1032.059	-1899
1032.125	-1477
1032.190	-2219
1032.256	-2285
1032.321	-1713
1032.386	-2184
1032.452	-2301
1032.517	-1711
1032.582	-959
1032.647	-1231
1032.713	-1683
1032.778	-1535
1032.843	-2139
1032.908	-1516
1032.974	-720
1033.039	-938
1033.104	-1510
1033.169	-2332
1033.234	-1424
1033.299	-1773
1033.364	-1858
1033.429	-1439
1033.494	-1828
1033.559	-1439
1033.624	-1954
1033.688	-1141
1033.753	-2087
1033.818	-1672
1033.883	-1811
1033.948	-1777
1034.013	-1672
1034.077	-2153
1034.142	-1371
1034.207	-1921
1034.271	-879
1034.336	-1086
1034.400	-1104
1034.465	-924
1034.530	-863
1034.594	-2287
1034.658	-2219
1034.723	-1562
1034.787	-1747
1034.852	-1836
1034.916	-2226
1034.981	-2070
1035.045	-1998
1035.109	-1978
1035.173	-1679
1035.238	-2377
1035.302	-1681
1035.366	-1697
1035.430	-2289
1035.495	-2237
1035.559	-1167
1035.623	-2408
1035.687	-1809
1035.751	-1852
1035.815	-2400
1035.879	-1828
1035.943	-1494
1036.007	-2094
1036.071	-1274
1036.135	-1814
1036.198	-1413
1036.262	-2506
1036.326	-2109
1036.390	-1842
1036.454	-791
1036.517	-1353
1036.581	-1502
1036.645	-994
1036.709	-1216
1036.772	-1947
1036.836	-1661
1036.900	-1381
1036.963	-1171
1037.026	-2386
1037.090	-2339
1037.154	-1514
1037.217	-1271
1037.280	-2590
1037.344	-2605
1037.407	-2461
1037.471	-1173
1037.534	-3203
1037.597	-1576
1037.661	-1889
1037.724	-1668
1037.787	-1398
1037.850	-1704
1037.913	-2233
1037.977	-1893
1038.040	-2248
1038.103	-2106
1038.166	-1592
1038.229	-2446
1038.292	-1856
1038.355	-1941
1038.418	-2432
1038.481	-1829
1038.544	-2412
1038.607	-2338
1038.670	-1938
1038.732	-1862
1038.795	-1857
1038.858	-2060
1038.921	-1925
1038.984	-1424
1039.046	-2475
1039.109	-1816
1039.172	-2297
1039.234	-1704
1039.297	-2064
1039.360	-1760
1039.422	-1973
1039.485	-1870
1039.547	-1872
1039.610	-2147
1039.672	-1969
1039.734	-2410
1039.797	-2115
1039.859	-2036
1039.922	-1670
1039.984	-1581
1040.046	-1718
1040.109	-1653
1040.171	-2020
1040.233	-2151
1040.295	-2044
1040.358	-1542
1040.420	-1636
1040.482	-1946
1040.544	-2174
1040.606	-2138
1040.668	-2061
1040.730	-2080
1040.792	-2010
1040.854	-1999
1040.916	-2723
1040.978	-1947
1041.040	-1654
1041.102	-2519
1041.164	-2181
1041.225	-1990
1041.287	-2253
1041.349	-1423
1041.411	-2077
1041.472	-1608
1041.534	-1812
1041.596	-2172
1041.657	-2260
1041.719	-2001
1041.781	-2378
1041.842	-2533
1041.904	-2355
1041.965	-1751
1042.027	-2540
1042.088	-2691
1042.150	-2151
1042.211	-1589
1042.272	-1968
1042.334	-2068
1042.395	-1642
1042.456	-1795
1042.518	-1497
1042.579	-1631
1042.640	-1433
1042.701	-2419
1042.763	-1498
1042.824	-2038
1042.885	-1796
1042.946	-1588
1043.007	-2189
1043.068	-1772
1043.129	-1787
1043.190	-2094
1043.251	-1731
1043.312	-1906
1043.373	-1870
1043.434	-2117
1043.495	-1541
1043.556	-1958
1043.616	-1466
1043.677	-1846
1043.738	-2224
1043.799	-2364
1043.859	-2314
1043.920	-2520
1043.981	-2551
1044.041	-1407
1044.102	-1304
1044.162	-1954
1044.223	-2602
1044.284	-2485
1044.344	-1546
1044.405	-1847
1044.465	-1998
1044.525	-1464
1044.586	-1798
1044.646	-2058
1044.707	-1943
1044.767	-1509
1044.827	-2006
1044.887	-3163
1044.948	-920
1045.008	-1908
1045.068	-2201
1045.128	-2423
1045.188	-1041
1045.249	-1845
1045.309	-2172
1045.369	-1358
1045.429	-1919
1045.489	-1966
1045.549	-1394
1045.609	-1756
1045.669	-1857
1045.729	-1908
1045.789	-1288
1045.848	-1737
1045.908	-2004
1045.968	-1597
1046.028	-1344
1046.088	-1820
1046.147	-941
1046.207	-2125
1046.267	-1952
1046.326	-1149
1046.386	-1377
1046.446	-1270
1046.505	-1038
1046.565	-929
1046.624	-686
1046.684	-1046
1046.743	-1109
1046.803	-415
1046.862	-1263
1046.922	0
