'Start Wavelength	183.907
'End Wavelength	1046.922
'Gate Delay	5.000
'Gate Width (ms)	1.050
'Laser Output Level	0.000
'X Position	0.000
'Y Position	0.000
'Z Position	0.000
'Grid Point Number	1.000
'Shot Number	100.000
183.907	-110.000
183.977	68.000
184.047	-45
184.116	737
184.186	-516
184.256	-128
184.325	-263
184.395	-18
184.465	-477
184.534	-292
184.604	146
184.674	-306
184.743	161
184.813	537
184.883	254
184.952	-346
185.022	-290
185.092	-793
185.161	-306
185.231	-51
185.301	246
185.370	27
185.440	-65
185.509	-500
185.579	293
185.649	73
185.718	133
185.788	247
185.857	163
185.927	-104
185.996	-688
186.066	407
186.136	-683
186.205	-69
186.275	-444
186.344	-193
186.414	29
186.483	-463
186.553	2
186.622	-23
186.692	-811
186.761	-531
186.831	-94
186.900	231
186.970	-385
187.039	342
187.109	-79
187.178	-346
187.248	-174
187.317	194
187.387	-129
187.456	-327
187.526	-252
187.595	-548
187.664	160
187.734	27
187.803	-4
187.873	-664
187.942	-727
188.012	-323
188.081	314
188.150	152
188.220	-607
188.289	-31
188.358	-580
188.428	236
188.497	-409
188.567	-134
188.636	-459
188.705	25
188.775	-137
188.844	-297
188.913	-456
188.983	-271
189.052	-377
189.121	-193
189.191	-334
189.260	473
189.329	-79
189.399	88
189.468	161
189.537	135
189.606	25
189.676	-7
189.745	-39
189.814	391
189.883	345
189.953	-273
190.022	-471
190.091	-652
190.161	778
190.230	-598
190.299	-64
190.368	-482
190.437	-960
190.507	-40
190.576	-101
190.645	3
190.714	240
190.783	-156
190.853	11
190.922	-418
190.991	121
191.060	-140
191.129	8
191.198	-622
191.268	-325
191.337	-532
191.406	-171
191.475	-196
191.544	305
191.613	459
191.682	-100
191.752	-369
191.821	-971
191.890	-480
191.959	-421
192.028	-758
192.097	-130
192.166	-125
192.235	-925
192.304	-211
192.373	-99
192.442	-790
192.511	-184
192.580	-627
192.650	85
192.719	-767
192.788	-358
192.857	-526
192.926	-322
192.995	-339
193.064	-448
193.133	-132
193.202	-677
193.271	-548
193.340	-571
193.409	324
193.478	-575
193.547	-865
193.615	-289
193.684	-198
193.753	-652
193.822	-793
193.891	-357
193.960	-277
194.029	-712
194.098	-288
194.167	-558
194.236	-447
194.305	542
194.374	-1011
194.443	-110
194.512	-315
194.580	-595
194.649	226
194.718	33
194.787	534
194.856	-1026
194.925	-177
194.994	-326
195.062	-266
195.131	-1054
195.200	-503
195.269	-386
195.338	202
195.407	-662
195.475	-993
195.544	646
195.613	121
195.682	-188
195.751	387
195.819	-557
195.888	263
195.957	-222
196.026	243
196.094	-357
196.163	-366
196.232	-455
196.301	-769
196.369	71
196.438	-676
196.507	229
196.576	-414
196.644	-856
196.713	-327
196.782	-197
196.850	-632
196.919	-250
196.988	-417
197.056	-879
197.125	-1251
197.194	-118
197.262	-725
197.331	-169
197.400	-651
197.468	-280
197.537	-26
197.606	-859
197.674	-608
197.743	-309
197.812	-704
197.880	-68
197.949	-751
198.017	-813
198.086	-17
198.155	-467
198.223	-636
198.292	-432
198.360	220
198.429	-378
198.497	-226
198.566	-628
198.635	-127
198.703	388
198.772	204
198.840	-241
198.909	-765
198.977	-718
199.046	-489
199.114	-435
199.183	-466
199.251	48
199.320	-657
199.388	115
199.457	-862
199.525	280
199.594	-65
199.662	-1061
199.731	-1089
199.799	268
199.867	21
199.936	-533
200.004	-266
200.073	-173
200.141	-263
200.210	101
200.278	-336
200.346	-589
200.415	-445
200.483	-545
200.552	-260
200.620	-203
200.688	-604
200.757	-424
200.825	-602
200.893	-388
200.962	-332
201.030	-170
201.098	-602
201.167	34
201.235	-423
201.303	-390
201.372	-596
201.440	-897
201.508	-236
201.577	-649
201.645	-806
201.713	-210
201.781	-173
201.850	-419
201.918	686
201.986	-434
202.055	-321
202.123	-283
202.191	-597
202.259	-165
202.327	-601
202.396	-901
202.464	-554
202.532	-461
202.600	-334
202.669	-1073
202.737	-523
202.805	265
202.873	134
202.941	17
203.009	-670
203.078	-708
203.146	-479
203.214	-375
203.282	-456
203.350	66
203.418	-938
203.487	96
203.555	64
203.623	-1188
203.691	-879
203.759	-985
203.827	-110
203.895	-1337
203.963	-511
204.031	-689
204.099	-1225
204.168	-764
204.236	-272
204.304	-828
204.372	-351
204.440	-187
204.508	-713
204.576	-1141
204.644	-286
204.712	-322
204.780	-554
204.848	-496
204.916	-517
204.984	-665
205.052	-156
205.120	-267
205.188	-21
205.256	246
205.324	60
205.392	-467
205.460	-188
205.528	-474
205.596	-468
205.664	-716
205.732	-243
205.799	168
205.867	153
205.935	-232
206.003	-997
206.071	-357
206.139	-401
206.207	-152
206.275	-483
206.343	145
206.411	-783
206.478	-298
206.546	-684
206.614	-565
206.682	-262
206.750	-951
206.818	-631
206.885	-669
206.953	-476
207.021	-287
207.089	-429
207.157	-1189
207.225	-815
207.292	-329
207.360	-543
207.428	-222
207.496	-621
207.563	-425
207.631	-37
207.699	-294
207.767	-360
207.834	-607
207.902	-547
207.970	-1040
208.038	61
208.105	-735
208.173	186
208.241	-322
208.309	-568
208.376	-482
208.444	-831
208.512	-789
208.579	-288
208.647	-42
208.715	-632
208.782	-457
208.850	-662
208.918	-884
208.985	-78
209.053	-517
209.120	97
209.188	-76
209.256	-869
209.323	-1043
209.391	-527
209.459	433
209.526	172
209.594	-589
209.661	-372
209.729	-228
209.796	63
209.864	-145
209.932	-673
209.999	34
210.067	-500
210.134	-132
210.202	-841
210.269	32
210.337	-786
210.404	-227
210.472	-347
210.539	-414
210.607	-445
210.674	-507
210.742	-666
210.809	-295
210.877	-667
210.944	-877
211.012	-377
211.079	-31
211.146	-581
211.214	-229
211.281	-776
211.349	-930
211.416	-921
211.484	-616
211.551	-1119
211.618	-268
211.686	-303
211.753	-311
211.821	-252
211.888	-485
211.955	-467
212.023	-773
212.090	-1300
212.157	-91
212.225	18
212.292	-873
212.359	346
212.427	554
212.494	32
212.561	-941
212.629	-388
212.696	-679
212.763	-667
212.831	-882
212.898	-388
212.965	-431
213.032	-1155
213.100	-166
213.167	-437
213.234	-653
213.301	-130
213.369	-1075
213.436	-494
213.503	-630
213.570	-959
213.638	-217
213.705	-1167
213.772	-830
213.839	-1273
213.906	-399
213.973	-327
214.041	-566
214.108	-598
214.175	-552
214.242	-396
214.309	153
214.376	-101
214.444	-263
214.511	-573
214.578	-357
214.645	-398
214.712	-1081
214.779	-778
214.846	-229
214.913	-497
214.980	-441
215.048	-350
215.115	234
215.182	-759
215.249	-648
215.316	-502
215.383	-683
215.450	-87
215.517	-326
215.584	-569
215.651	436
215.718	-96
215.785	68
215.852	-765
215.919	-268
215.986	-596
216.053	-505
216.120	-1359
216.187	-757
216.254	51
216.321	-608
216.388	-496
216.455	-712
216.522	-391
216.589	-140
216.656	-358
216.722	-431
216.789	-660
216.856	-619
216.923	-171
216.990	153
217.057	-596
217.124	164
217.191	284
217.258	-408
217.324	-543
217.391	-601
217.458	-798
217.525	-765
217.592	-739
217.659	-682
217.725	-418
217.792	-876
217.859	-107
217.926	-612
217.993	-405
218.059	235
218.126	-708
218.193	-843
218.260	-158
218.327	-824
218.393	-538
218.460	-478
218.527	-537
218.594	-468
218.660	-411
218.727	-131
218.794	-403
218.860	-154
218.927	-208
218.994	153
219.061	-1120
219.127	-393
219.194	-117
219.261	-370
219.327	-965
219.394	-423
219.461	-745
219.527	-1151
219.594	-818
219.661	-723
219.727	-903
219.794	-681
219.860	-1159
219.927	-489
219.994	-259
220.060	-751
220.127	-131
220.193	-457
220.260	-1275
220.326	194
220.393	-589
220.460	-31
220.526	-536
220.593	320
220.659	-130
220.726	-565
220.792	-908
220.859	-425
220.925	-333
220.992	607
221.058	79
221.125	-253
221.191	578
221.258	-696
221.324	-372
221.391	-687
221.457	-722
221.524	73
221.590	-484
221.657	177
221.723	-100
221.789	-534
221.856	-466
221.922	-339
221.989	-330
222.055	-984
222.121	-879
222.188	292
222.254	-758
222.321	0
222.387	-752
222.453	-168
222.520	-500
222.586	-461
222.652	-47
222.719	-786
222.785	-9
222.851	-980
222.918	-1128
222.984	-358
223.050	-873
223.116	-472
223.183	-771
223.249	-603
223.315	-897
223.382	-538
223.448	-522
223.514	-1455
223.580	-930
223.647	-519
223.713	-1118
223.779	-688
223.845	-120
223.911	-325
223.978	-724
224.044	-308
224.110	-951
224.176	-743
224.242	-686
224.309	-384
224.375	-880
224.441	-282
224.507	-1011
224.573	-667
224.639	-1423
224.705	-771
224.772	-961
224.838	-550
224.904	-11
224.970	-1027
225.036	-226
225.102	-916
225.168	-567
225.234	-713
225.300	-835
225.366	-184
225.432	-1250
225.499	-345
225.565	-858
225.631	-674
225.697	-58
225.763	-814
225.829	-399
225.895	-411
225.961	-761
226.027	-198
226.093	-995
226.159	-531
226.225	504
226.291	564
226.357	640
226.423	-625
226.489	-1184
226.554	-1108
226.620	-670
226.686	-930
226.752	109
226.818	196
226.884	1583
226.950	997
227.016	-712
227.082	-283
227.148	-1245
227.214	-799
227.279	-571
227.345	-32
227.411	-631
227.477	-702
227.543	-932
227.609	-345
227.674	-762
227.740	-580
227.806	-369
227.872	-924
227.938	-174
228.003	-17
228.069	-983
228.135	-173
228.201	-819
228.267	-345
228.332	-865
228.398	-823
228.464	-712
228.530	-1219
228.595	-798
228.661	-878
228.727	-634
228.792	-920
228.858	-798
228.924	-1120
228.990	-72
229.055	-901
229.121	-644
229.187	-1097
229.252	-674
229.318	-1071
229.384	-1184
229.449	-89
229.515	-1303
229.581	-884
229.646	-280
229.712	-415
229.777	-442
229.843	-429
229.909	-449
229.974	-557
230.040	-851
230.105	-569
230.171	-1705
230.236	-515
230.302	94
230.368	-1161
230.433	-310
230.499	-166
230.564	-256
230.630	-682
230.695	-139
230.761	82
230.826	-1093
230.892	-2
230.957	-472
231.023	-623
231.088	333
231.154	-469
231.219	-568
231.284	-674
231.350	-1558
231.415	-834
231.481	-598
231.546	133
231.612	-136
231.677	-661
231.742	-1423
231.808	447
231.873	-581
231.939	-961
232.004	-259
232.069	-455
232.135	-433
232.200	-467
232.265	-121
232.331	-486
232.396	-1000
232.461	-791
232.527	-951
232.592	-420
232.657	-891
232.723	-746
232.788	-1093
232.853	-735
232.918	-668
232.984	68
233.049	-1174
233.114	-1142
233.179	-880
233.245	-336
233.310	-826
233.375	-871
233.440	-1058
233.506	-875
233.571	-1060
233.636	-61
233.701	-1028
233.766	-586
233.832	-1351
233.897	-711
233.962	-1785
234.027	59
234.092	-678
234.157	-740
234.222	-901
234.288	-157
234.353	-662
234.418	-516
234.483	-77
234.548	-909
234.613	-936
234.678	-767
234.743	-996
234.808	248
234.873	-1078
234.938	-8
235.004	-995
235.069	-774
235.134	-681
235.199	-205
235.264	-966
235.329	-1100
235.394	-919
235.459	-1097
235.524	-1043
235.589	-960
235.654	-782
235.719	-1602
235.784	-392
235.849	-1234
235.913	-600
235.978	-866
236.043	-268
236.108	-1359
236.173	-873
236.238	-401
236.303	-755
236.368	-679
236.433	-715
236.498	-663
236.563	-715
236.627	-95
236.692	2114
236.757	680
236.822	-322
236.887	-366
236.952	-781
237.017	-1450
237.081	-581
237.146	-1134
237.211	-318
237.276	1287
237.341	2540
237.405	637
237.470	-38
237.535	-1400
237.600	-605
237.664	-794
237.729	-856
237.794	-1091
237.859	-716
237.923	-277
237.988	-456
238.053	-69
238.118	-391
238.182	-18
238.247	429
238.312	-1283
238.376	-139
238.441	-1791
238.506	-927
238.570	-1180
238.635	-152
238.700	-761
238.764	-986
238.829	-104
238.893	-323
238.958	-595
239.023	-1014
239.087	-1143
239.152	-986
239.216	-479
239.281	-686
239.346	-1358
239.410	-747
239.475	-728
239.539	-512
239.604	-1905
239.668	-238
239.733	-801
239.797	-687
239.862	-455
239.926	-614
239.991	-964
240.055	-453
240.120	-703
240.184	-1626
240.249	-845
240.313	-674
240.378	-1640
240.442	-922
240.507	-635
240.571	-1307
240.635	-866
240.700	-1213
240.764	-1321
240.829	-1420
240.893	-1549
240.957	-890
241.022	-847
241.086	-1096
241.151	-1444
241.215	-1126
241.279	-466
241.344	-587
241.408	-528
241.472	-798
241.537	-456
241.601	-950
241.665	-1287
241.730	-1265
241.794	-287
241.858	-155
241.922	-1430
241.987	-675
242.051	-793
242.115	-1578
242.179	-611
242.244	-1622
242.308	-371
242.372	-939
242.436	-728
242.501	-605
242.565	-553
242.629	-1141
242.693	-545
242.757	-935
242.822	-911
242.886	-856
242.950	-434
243.014	-1126
243.078	-1094
243.142	-377
243.206	-1512
243.271	-482
243.335	-188
243.399	-566
243.463	291
243.527	1390
243.591	-719
243.655	-405
243.719	-564
243.783	-408
243.847	-701
243.911	-1182
243.975	-775
244.040	-1321
244.104	-521
244.168	-888
244.232	-995
244.296	-1133
244.360	-598
244.424	-195
244.488	-979
244.552	-673
244.615	-1883
244.679	-824
244.743	-1422
244.807	-1112
244.871	-936
244.935	-1114
244.999	-1370
245.063	-594
245.127	-619
245.191	-83
245.255	-807
245.319	-1074
245.383	-1166
245.446	-496
245.510	-2082
245.574	-855
245.638	-375
245.702	-1508
245.766	-1067
245.829	-970
245.893	-871
245.957	-1511
246.021	-1105
246.085	-1231
246.149	-716
246.212	-195
246.276	-1065
246.340	-1156
246.404	-811
246.467	-628
246.531	-1960
246.595	513
246.659	-788
246.722	-1729
246.786	-1062
246.850	-593
246.913	-899
246.977	-1689
247.041	-1392
247.104	-1152
247.168	-267
247.232	309
247.295	-948
247.359	-424
247.423	-1090
247.486	-674
247.550	-678
247.614	-610
247.677	-855
247.741	-766
247.804	-821
247.868	-373
247.932	-1355
247.995	-8
248.059	-369
248.122	-1347
248.186	-106
248.249	-709
248.313	2017
248.376	1313
248.440	-630
248.503	-1769
248.567	-181
248.630	-449
248.694	-47
248.757	929
248.821	986
248.884	384
248.948	-661
249.011	98
249.075	1962
249.138	680
249.202	-1144
249.265	-1684
249.328	-594
249.392	-1337
249.455	-433
249.519	-546
249.582	-839
249.645	-56
249.709	-627
249.772	-949
249.835	-1150
249.899	-1342
249.962	-577
250.025	-1303
250.089	-597
250.152	194
250.215	-518
250.279	-977
250.342	163
250.405	-782
250.468	-1691
250.532	-1071
250.595	39
250.658	1912
250.721	2637
250.785	-651
250.848	768
250.911	-1230
250.974	389
251.038	-783
251.101	202
251.164	-816
251.227	-57
251.290	-345
251.354	-327
251.417	3089
251.480	1408
251.543	1197
251.606	6614
251.669	2120
251.732	618
251.795	568
251.859	1293
251.922	2796
251.985	688
252.048	203
252.111	-351
252.174	-340
252.237	195
252.300	1423
252.363	2601
252.426	4299
252.489	257
252.552	27
252.615	-1255
252.678	-387
252.741	578
252.804	1540
252.867	4038
252.930	1718
252.993	-294
253.056	164
253.119	-952
253.182	-894
253.245	-1256
253.308	-242
253.371	-709
253.434	-1072
253.497	-106
253.559	78
253.622	-343
253.685	-740
253.748	-1130
253.811	-1104
253.874	71
253.937	-1238
254.000	-1269
254.062	-752
254.125	-138
254.188	305
254.251	-1058
254.314	-1468
254.376	-1121
254.439	-106
254.502	-1167
254.565	-1312
254.628	443
254.690	-500
254.753	-890
254.816	-1310
254.878	-1497
254.941	-37
255.004	-1112
255.067	-1124
255.129	-941
255.192	-893
255.255	-1488
255.317	-256
255.380	-614
255.443	-685
255.505	-1029
255.568	-1352
255.631	-1469
255.693	-736
255.756	-1899
255.819	-940
255.881	-1056
255.944	-1001
256.006	-1258
256.069	-1369
256.132	-1325
256.194	-1657
256.257	-444
256.319	-1341
256.382	-1083
256.444	-625
256.507	-507
256.569	-975
256.632	-923
256.694	-1379
256.757	976
256.819	3201
256.882	-584
256.944	-756
257.007	-221
257.069	-1981
257.132	-706
257.194	-55
257.257	-987
257.319	-1124
257.381	-1319
257.444	405
257.506	4299
257.569	1831
257.631	-42
257.693	-554
257.756	-851
257.818	-1231
257.880	-737
257.943	-780
258.005	-1725
258.067	-1582
258.130	-898
258.192	-1030
258.254	-1144
258.317	-1030
258.379	-883
258.441	-873
258.503	-989
258.566	-634
258.628	-267
258.690	-1394
258.753	-181
258.815	-1138
258.877	-798
258.939	-1218
259.001	-796
259.064	-1053
259.126	-1957
259.188	-747
259.250	-906
259.312	-1433
259.375	-531
259.437	-1325
259.499	-1187
259.561	-1339
259.623	-1021
259.685	-1930
259.747	-690
259.809	-1141
259.872	-440
259.934	-127
259.996	403
260.058	-985
260.120	-1402
260.182	-849
260.244	-505
260.306	-1385
260.368	-947
260.430	-1771
260.492	-530
260.554	-921
260.616	-520
260.678	-422
260.740	-831
260.802	-1595
260.864	-733
260.926	-1332
260.988	-639
261.050	-1153
261.112	-1662
261.174	-102
261.236	-837
261.298	-1701
261.359	-837
261.421	-559
261.483	-1930
261.545	-900
261.607	-1551
261.669	-1075
261.731	-869
261.793	-1264
261.854	-2032
261.916	-536
261.978	-676
262.040	-1166
262.102	-947
262.164	-1991
262.225	-364
262.287	-741
262.349	-2149
262.411	-1336
262.472	-1165
262.534	-1113
262.596	-1385
262.658	-819
262.719	-1244
262.781	-1122
262.843	-1072
262.904	-1179
262.966	-99
263.028	-1065
263.090	-544
263.151	1253
263.213	-466
263.275	-1497
263.336	-1477
263.398	-332
263.459	-1422
263.521	-1211
263.583	-829
263.644	-756
263.706	-1451
263.767	-1614
263.829	-1023
263.891	-1794
263.952	-1494
264.014	-1124
264.075	-1198
264.137	-643
264.198	-858
264.260	-2033
264.321	-1020
264.383	-915
264.444	552
264.506	-1554
264.567	-1460
264.629	-577
264.690	-1057
264.752	-1418
264.813	-1502
264.875	-1678
264.936	-1234
264.998	-2060
265.059	-1675
265.120	-997
265.182	-574
265.243	983
265.305	-243
265.366	-1251
265.427	-405
265.489	-893
265.550	-2065
265.611	-1023
265.673	-1636
265.734	-1595
265.795	-1272
265.857	-2240
265.918	-1142
265.979	197
266.040	2660
266.102	96
266.163	-804
266.224	-1301
266.286	-1341
266.347	-2148
266.408	-1618
266.469	-885
266.530	-1291
266.592	-1698
266.653	-1491
266.714	-1121
266.775	-1167
266.836	-1800
266.898	-2041
266.959	-1538
267.020	-1562
267.081	-202
267.142	-2140
267.203	-1318
267.264	-1926
267.326	-353
267.387	-1003
267.448	-2212
267.509	-932
267.570	-1809
267.631	-1488
267.692	-1136
267.753	-1178
267.814	-2268
267.875	-798
267.936	-500
267.997	-1119
268.058	-1082
268.119	-1654
268.180	-1931
268.241	-1213
268.302	-1079
268.363	-1607
268.424	-2293
268.485	-889
268.546	-1644
268.607	-1191
268.668	-1721
268.729	-2048
268.790	-1738
268.851	-1334
268.912	-1904
268.972	-669
269.033	-1628
269.094	-2336
269.155	-1228
269.216	-885
269.277	-2344
269.338	-854
269.398	-1680
269.459	-2203
269.520	-1086
269.581	-1190
269.642	-531
269.702	-1795
269.763	-1132
269.824	-1781
269.885	-1739
269.945	-837
270.006	-1348
270.067	-1303
270.128	-1295
270.188	-850
270.249	-2556
270.310	-1760
270.370	-1528
270.431	-1035
270.492	-1127
270.553	-1472
270.613	-1314
270.674	-849
270.734	-1653
270.795	-1734
270.856	-910
270.916	-2189
270.977	-1482
271.038	-668
271.098	-1264
271.159	-975
271.219	-1538
271.280	-1138
271.340	-1351
271.401	-2409
271.462	-1802
271.522	-1275
271.583	-1423
271.643	-828
271.704	-1922
271.764	-1888
271.825	-1243
271.885	1327
271.946	221
272.006	-959
272.066	755
272.127	497
272.187	-1387
272.248	-2233
272.308	-758
272.369	-195
272.429	-1087
272.489	-1184
272.550	-1258
272.610	-523
272.671	-1956
272.731	-1280
272.791	-1684
272.852	-1567
272.912	-702
272.972	-1409
273.033	-811
273.093	-1866
273.153	-637
273.214	-1090
273.274	-1625
273.334	261
273.394	24
273.455	-943
273.515	-282
273.575	-517
273.635	-1205
273.696	-199
273.756	-280
273.816	-1271
273.876	-1645
273.936	-1143
273.997	-684
274.057	-1853
274.117	-1819
274.177	-1026
274.237	1102
274.297	418
274.358	-758
274.418	241
274.478	-296
274.538	-1158
274.598	-1435
274.658	-1219
274.718	-1460
274.778	-1299
274.838	-1539
274.898	-1680
274.958	-470
275.018	928
275.078	-1333
275.138	-859
275.198	-1604
275.258	-1164
275.318	-1245
275.378	-1483
275.438	-1204
275.498	-871
275.558	-567
275.618	102
275.678	-840
275.738	-484
275.798	-880
275.858	-1597
275.918	-2166
275.978	-1556
276.038	-1200
276.098	-1787
276.157	-1748
276.217	-371
276.277	-1347
276.337	-1280
276.397	-1865
276.457	-1522
276.517	-1000
276.576	-1772
276.636	-1846
276.696	-1674
276.756	-674
276.815	-1425
276.875	-2186
276.935	-1091
276.995	-1901
277.055	-1062
277.114	-1032
277.174	-1356
277.234	-878
277.293	-725
277.353	-1455
277.413	-744
277.472	-1806
277.532	-1514
277.592	-902
277.651	-1083
277.711	-550
277.771	-1472
277.830	386
277.890	-972
277.950	-598
278.009	871
278.069	-314
278.128	-334
278.188	-718
278.248	-530
278.307	-472
278.367	-1047
278.426	-1555
278.486	-2020
278.545	-2424
278.605	-1192
278.664	-1819
278.724	-1817
278.783	-875
278.843	390
278.902	-1678
278.962	-2296
279.021	-1478
279.081	-1351
279.140	-1551
279.199	-1041
279.259	-1338
279.318	-1030
279.378	-828
279.437	-97
279.496	2383
279.556	7657
279.615	2164
279.675	-252
279.734	-645
279.793	-691
279.853	1213
279.912	-792
279.971	-1287
280.031	-1260
280.090	-575
280.149	-786
280.208	-141
280.268	3876
280.327	2848
280.386	-462
280.445	-1089
280.505	-1152
280.564	-733
280.623	-1090
280.682	-1241
280.742	-510
280.801	-1123
280.860	-1492
280.919	-2015
280.978	-1700
281.037	-1820
281.097	-1832
281.156	-1631
281.215	-1590
281.274	-1208
281.333	732
281.392	-1395
281.451	-1192
281.510	-1705
281.569	-1718
281.628	-1696
281.688	-1508
281.747	-905
281.806	-1609
281.865	-851
281.924	-1890
281.983	-1723
282.042	-1190
282.101	-1171
282.160	-1018
282.219	-1457
282.278	-1374
282.337	-1724
282.396	-1150
282.454	-1057
282.513	-1871
282.572	6
282.631	-1682
282.690	-1353
282.749	-1923
282.808	-1333
282.867	-1440
282.926	-1270
282.985	-2012
283.043	-1137
283.102	-1016
283.161	-1563
283.220	-622
283.279	-404
283.338	-1834
283.396	-1885
283.455	-1464
283.514	-729
283.573	-1144
283.631	-1408
283.690	-1132
283.749	-2309
283.808	-948
283.866	-908
283.925	-2108
283.984	-1090
284.043	-1644
284.101	-1421
284.160	-2336
284.219	-1507
284.277	-1204
284.336	-1445
284.395	289
284.453	-909
284.512	-1734
284.570	-1056
284.629	-594
284.688	-1943
284.746	-1323
284.805	-599
284.863	-1682
284.922	-604
284.981	-1208
285.039	-351
285.098	963
285.156	5742
285.215	16576
285.273	12618
285.332	4459
285.390	1769
285.449	751
285.507	-319
285.566	-246
285.624	-1385
285.683	-1637
285.741	-1123
285.799	-1224
285.858	-1809
285.916	-1618
285.975	-1345
286.033	-1740
286.091	-1539
286.150	-1500
286.208	-1887
286.267	-1254
286.325	-1929
286.383	-958
286.442	-1772
286.500	-1490
286.558	-691
286.616	-1676
286.675	-1429
286.733	-1972
286.791	-1864
286.850	-1374
286.908	-1634
286.966	-839
287.024	-1417
287.083	-1576
287.141	-1386
287.199	-1420
287.257	-1311
287.315	-1422
287.374	-1337
287.432	-874
287.490	-2051
287.548	-1784
287.606	-1707
287.664	-1144
287.723	-1148
287.781	-1162
287.839	-1619
287.897	-707
287.955	-1043
288.013	-1382
288.071	226
288.129	8598
288.187	18858
288.245	4792
288.303	-89
288.361	-803
288.419	-447
288.477	-868
288.535	-1901
288.593	-1437
288.651	-1709
288.709	-2008
288.767	-1551
288.825	-1640
288.883	-1863
288.941	-1790
288.999	-1212
289.057	-1438
289.115	-1193
289.173	-1890
289.231	-1285
289.289	-1830
289.346	-2195
289.404	-1504
289.462	-1480
289.520	-1059
289.578	-1421
289.636	-1432
289.694	-1823
289.751	-1414
289.809	-1910
289.867	-1613
289.925	-1249
289.983	-1700
290.040	-1702
290.098	-1976
290.156	-2017
290.214	-1438
290.271	-2088
290.329	-1434
290.387	-2119
290.444	-1893
290.502	-1839
290.560	-1478
290.617	-1849
290.675	-2300
290.733	-2108
290.790	-1387
290.848	-1633
290.906	-2145
290.963	-1402
291.021	-1772
291.078	-1520
291.136	-1445
291.194	-943
291.251	-309
291.309	-1301
291.366	-1740
291.424	-2045
291.481	-2011
291.539	-2462
291.596	-1198
291.654	-1935
291.711	-1214
291.769	-1395
291.826	-1294
291.884	-1918
291.941	-1414
291.999	-2476
292.056	-1097
292.114	-2147
292.171	-1208
292.228	-1765
292.286	-1946
292.343	-1615
292.401	-1280
292.458	-1537
292.515	-2266
292.573	-1222
292.630	-1116
292.687	-1510
292.745	-1675
292.802	-1940
292.859	-872
292.917	432
292.974	-1633
293.031	-787
293.089	-1652
293.146	-1098
293.203	-2162
293.260	-1578
293.318	-1990
293.375	-1537
293.432	-1939
293.489	-1624
293.546	-1406
293.604	-1269
293.661	316
293.718	1373
293.775	-8
293.832	-1664
293.889	-1428
293.947	-1214
294.004	-1924
294.061	-1408
294.118	-747
294.175	397
294.232	1860
294.289	-1259
294.346	-1827
294.403	-1783
294.460	-2070
294.517	-2648
294.574	-1315
294.631	-1711
294.688	-1760
294.745	-680
294.802	3316
294.859	2362
294.916	-91
294.973	-1581
295.030	-716
295.087	-1388
295.144	-1586
295.201	-1428
295.258	-1229
295.315	-1686
295.372	322
295.429	1309
295.486	-365
295.542	-1040
295.599	1163
295.656	1657
295.713	948
295.770	427
295.827	-801
295.883	-707
295.940	-2255
295.997	-1343
296.054	-1170
296.111	-1470
296.167	-1106
296.224	-2081
296.281	-2001
296.338	-2099
296.394	-1394
296.451	-1542
296.508	218
296.564	576
296.621	17
296.678	2372
296.734	2688
296.791	-320
296.848	-769
296.904	-1552
296.961	333
297.018	1784
297.074	929
297.131	-485
297.187	-779
297.244	-1332
297.301	3158
297.357	3553
297.414	118
297.470	-1367
297.527	-1508
297.583	-2075
297.640	-1202
297.696	-2021
297.753	-1680
297.809	-2140
297.866	-1930
297.922	-1884
297.979	-2279
298.035	-2057
298.092	-1500
298.148	830
298.204	-468
298.261	-1009
298.317	602
298.374	2260
298.430	468
298.486	-1933
298.543	-1822
298.599	-1524
298.656	-1393
298.712	-683
298.768	1244
298.824	-531
298.881	-1592
298.937	-2343
298.993	-1466
299.050	-1534
299.106	-1470
299.162	-1212
299.218	-1050
299.275	-1397
299.331	-1175
299.387	-777
299.443	2176
299.500	1899
299.556	-633
299.612	-988
299.668	-1700
299.724	-1853
299.780	-1333
299.837	-1750
299.893	-1145
299.949	533
300.005	1675
300.061	1562
300.117	2684
300.173	7
300.229	-1204
300.285	-1086
300.341	-192
300.397	-1804
300.453	-1223
300.510	-1619
300.566	-2216
300.622	-1755
300.678	-1184
300.734	-48
300.790	1115
300.845	1096
300.901	184
300.957	-48
301.013	-486
301.069	-1550
301.125	-961
301.181	-1562
301.237	-606
301.293	-1607
301.349	-1640
301.405	-2118
301.461	-1571
301.516	-1542
301.572	-1172
301.628	-1890
301.684	-888
301.740	-701
301.796	789
301.851	20
301.907	870
301.963	1006
302.019	3099
302.074	9958
302.130	8997
302.186	3225
302.242	607
302.297	-1030
302.353	-272
302.409	80
302.464	-253
302.520	154
302.576	2289
302.631	2726
302.687	347
302.743	-784
302.798	-1773
302.854	-1251
302.910	-871
302.965	-1517
303.021	-474
303.076	282
303.132	-240
303.187	159
303.243	-1128
303.299	-1762
303.354	-1340
303.410	-1558
303.465	-1938
303.521	-2131
303.576	-890
303.632	-1675
303.687	-288
303.743	2522
303.798	910
303.853	-135
303.909	-1202
303.964	-1729
304.020	-1060
304.075	-1004
304.130	-552
304.186	412
304.241	1442
304.297	-431
304.352	-816
304.358	-874
304.407	-1339
304.449	-1509
304.463	-1569
304.518	-1422
304.539	-1458
304.573	-1523
304.629	-1312
304.630	-1309
304.684	-1183
304.720	766
304.739	1763
304.794	2354
304.811	1841
304.850	505
304.902	-230
304.905	-271
304.960	-1489
304.992	-1255
305.015	-1087
305.071	-411
305.083	-620
305.126	-1426
305.173	-966
305.181	-865
305.236	-1035
305.264	-694
305.292	-432
305.347	-971
305.354	-990
305.402	-1012
305.445	-662
305.457	-573
305.512	-1501
305.535	-1200
305.567	-779
305.622	-524
305.626	-493
305.678	145
305.716	1931
305.733	2683
305.788	3307
305.807	2655
305.843	1316
305.897	2559
305.898	2578
305.953	2825
305.988	1549
306.008	759
306.063	-153
306.078	-246
306.118	-351
306.168	-420
306.173	-424
306.228	-661
306.259	-883
306.283	-1038
306.338	-1024
306.349	-982
306.393	-731
306.440	-558
306.448	-565
306.503	-460
306.530	-599
306.558	-600
306.613	322
306.620	357
306.668	707
306.711	2108
306.723	2391
306.778	1532
306.801	995
306.833	371
306.888	-79
306.892	-82
306.943	-96
306.982	-419
306.997	-519
307.052	-529
307.072	-471
307.107	-387
307.162	-550
307.163	-546
307.217	279
307.253	43
307.272	-224
307.327	152
307.343	86
307.381	88
307.434	-18
307.436	-1
307.491	637
307.524	1761
307.546	2312
307.600	2574
307.614	2271
307.655	1064
307.704	174
307.710	120
307.765	350
307.795	358
307.819	541
307.874	1454
307.885	1523
307.929	1320
307.975	880
307.984	937
308.038	1913
308.065	2866
308.093	4823
308.148	11241
308.156	12820
308.202	24952
308.246	32123
308.257	31087
308.312	16741
308.336	11238
308.366	8081
308.421	4341
308.426	4051
308.475	2258
308.517	1540
308.530	1418
308.585	1203
308.607	1023
308.639	660
308.694	141
308.697	149
308.748	1262
308.787	2026
308.803	2130
308.857	2302
308.877	2001
308.912	1259
308.967	984
308.967	982
309.021	1914
309.058	2432
309.076	3078
309.130	6319
309.148	7839
309.185	15917
309.238	30944
309.239	31174
309.293	39641
309.328	40283
309.348	34231
309.402	15579
309.418	10689
309.457	6798
309.508	3430
309.511	3321
309.566	2589
309.598	2366
309.620	2389
309.674	2418
309.688	2508
309.729	2568
309.778	2070
309.783	1984
309.837	1473
309.868	905
309.892	1112
309.946	2510
309.959	2889
310.001	4205
310.049	5331
310.055	5182
310.109	3185
310.139	1953
310.163	1370
310.218	780
310.229	554
310.272	290
310.319	682
310.326	668
310.381	116
310.409	-92
310.435	-51
310.489	30
310.499	9
310.543	27
310.589	389
310.598	448
310.652	486
310.679	436
310.706	258
310.760	-37
310.769	-56
310.814	84
310.859	140
310.868	130
310.923	-127
310.948	-174
310.977	98
311.031	446
311.038	506
311.085	402
311.128	248
311.139	288
311.193	474
311.218	531
311.247	596
311.301	742
311.308	752
311.356	619
311.398	405
311.410	387
311.464	418
311.488	371
311.518	184
311.572	-162
311.578	-196
311.626	88
311.668	295
311.680	391
311.734	805
311.758	967
311.788	591
311.842	-100
311.847	-175
311.896	336
311.937	791
311.950	750
312.004	525
312.027	427
312.058	491
312.112	595
312.117	605
312.165	292
312.207	24
312.297	584
312.386	1305
312.476	721
312.566	907
312.656	892
312.745	818
312.835	625
312.925	935
313.015	443
313.104	115
313.194	300
313.284	718
313.374	-147
313.463	716
313.553	7
313.643	12
313.732	327
313.822	81
313.912	875
314.001	154
314.091	183
314.180	597
314.270	597
314.360	419
314.449	350
314.539	-494
314.628	-18
314.718	110
314.808	511
314.897	394
314.987	198
315.076	377
315.166	860
315.255	134
315.345	371
315.434	651
315.524	922
315.613	616
315.703	1026
315.792	105
315.881	1074
315.971	-278
316.060	1305
316.150	987
316.239	794
316.328	361
316.418	68
316.507	-2
316.597	302
316.686	773
316.775	518
316.865	1605
316.954	1175
317.043	-239
317.133	155
317.222	149
317.311	715
317.400	-472
317.490	629
317.579	-18
317.668	540
317.757	-162
317.847	435
317.936	777
318.025	957
318.114	96
318.203	605
318.293	687
318.382	1756
318.471	1155
318.560	1582
318.649	5524
318.738	1289
318.828	-274
318.917	1077
319.006	40
319.095	2299
319.184	5617
319.273	4617
319.362	1640
319.451	1357
319.540	184
319.629	723
319.718	1278
319.807	1516
319.896	1432
319.985	8228
320.074	3948
320.163	109
320.252	627
320.341	1259
320.430	423
320.519	544
320.608	521
320.697	795
320.786	225
320.875	90
320.964	-64
321.053	260
321.142	1181
321.230	1498
321.319	1428
321.408	2509
321.497	1116
321.586	1648
321.675	1062
321.764	1757
321.852	1382
321.941	1419
322.030	593
322.119	1024
322.207	2626
322.296	2752
322.385	1385
322.474	794
322.562	2309
322.651	2507
322.740	1420
322.829	1634
322.917	924
323.006	958
323.095	172
323.183	71
323.272	113
323.361	1649
323.449	6505
323.538	3185
323.626	3308
323.715	3318
323.804	857
323.892	3434
323.981	2845
324.069	1109
324.158	1552
324.246	2598
324.335	572
324.424	639
324.512	382
324.601	735
324.689	997
324.778	4126
324.866	1316
324.954	1073
325.043	-221
325.131	342
325.220	1120
325.308	1614
325.397	911
325.485	585
325.574	176
325.662	-64
325.750	-187
325.839	435
325.927	634
326.015	335
326.104	-63
326.192	1024
326.280	390
326.369	602
326.457	-131
326.545	836
326.634	-211
326.722	201
326.810	544
326.898	429
326.987	-16
327.075	455
327.163	538
327.251	392
327.340	746
327.428	1402
327.516	-81
327.604	-248
327.692	525
327.781	-4
327.869	317
327.957	283
328.045	-31
328.133	457
328.221	488
328.309	188
328.397	222
328.485	311
328.574	518
328.662	1155
328.750	907
328.838	111
328.926	-170
329.014	-106
329.102	-120
329.190	603
329.278	716
329.366	403
329.454	-172
329.542	485
329.630	-26
329.718	-144
329.806	486
329.893	299
329.981	-136
330.069	1041
330.157	3756
330.245	15002
330.333	10308
330.421	2288
330.509	1041
330.597	1126
330.684	1587
330.772	534
330.860	1352
330.948	1264
331.036	628
331.123	410
331.211	705
331.299	364
331.387	8
331.475	1622
331.562	128
331.650	-433
331.738	-226
331.825	-46
331.913	31
332.001	74
332.089	172
332.176	383
332.264	1186
332.352	2325
332.439	-42
332.527	-61
332.614	-712
332.702	178
332.790	-193
332.877	578
332.965	1065
333.052	-53
333.140	94
333.228	-23
333.315	-627
333.403	562
333.490	541
333.578	460
333.665	359
333.753	673
333.840	-657
333.928	1101
334.015	723
334.103	1329
334.190	7297
334.278	3516
334.365	812
334.452	-320
334.540	-552
334.627	43
334.715	15
334.802	1001
334.889	5114
334.977	9639
335.064	1163
335.151	-289
335.239	-373
335.326	125
335.413	2515
335.501	7626
335.588	380
335.675	185
335.762	276
335.850	749
335.937	27
336.024	1211
336.111	6445
336.199	4370
336.286	158
336.373	192
336.460	-855
336.547	-172
336.635	312
336.722	364
336.809	-126
336.896	-219
336.983	1761
337.070	4822
337.157	8403
337.245	5341
337.332	4203
337.419	300
337.506	-294
337.593	-71
337.680	1059
337.767	4768
337.854	1669
337.941	1978
338.028	1441
338.115	-78
338.202	856
338.289	328
338.376	3542
338.463	1781
338.550	1451
338.637	3704
338.724	507
338.811	1786
338.898	40
338.984	-215
339.071	-519
339.158	217
339.245	556
339.332	992
339.419	210
339.506	-81
339.593	-774
339.679	-89
339.766	-381
339.853	-542
339.940	312
340.027	-26
340.113	-221
340.200	214
340.287	-223
340.374	-394
340.460	634
340.547	277
340.634	131
340.720	1544
340.807	1013
340.894	-905
340.980	-174
341.067	-876
341.154	380
341.240	-112
341.327	-96
341.414	264
341.500	-149
341.587	-392
341.674	-791
341.760	321
341.847	384
341.933	-452
342.020	-570
342.106	33
342.193	-440
342.279	-420
342.366	93
342.452	255
342.539	-828
342.625	197
342.712	1657
342.798	1447
342.885	-421
342.971	-236
343.058	-936
343.144	-1107
343.230	-493
343.317	-229
343.403	-454
343.490	-9
343.576	-1072
343.662	-251
343.749	-107
343.835	186
343.921	94
344.008	4120
344.094	18833
344.180	4699
344.267	325
344.353	2118
344.439	3679
344.525	839
344.612	71
344.698	30
344.784	-267
344.870	-558
344.957	-36
345.043	469
345.129	-408
345.215	428
345.301	-568
345.387	-353
345.474	-650
345.560	-610
345.646	-957
345.732	-657
345.818	-338
345.904	-430
345.990	68
346.076	-284
346.162	400
346.249	148
346.335	-299
346.421	-609
346.507	-120
346.593	5266
346.679	1045
346.765	-402
346.851	-747
346.937	-463
347.023	-327
347.108	-913
347.194	-686
347.280	-172
347.366	321
347.452	217
347.538	5181
347.624	5576
347.710	3661
347.796	444
347.882	-454
347.967	-1385
348.053	-693
348.139	-465
348.225	-1056
348.311	-746
348.397	-333
348.482	-1232
348.568	-443
348.654	-925
348.740	-1010
348.825	-801
348.911	-186
348.997	1571
349.083	7370
349.168	570
349.254	-967
349.340	-658
349.425	-542
349.511	-420
349.597	-1025
349.682	-98
349.768	2111
349.854	1211
349.939	-386
350.025	-1104
350.110	-258
350.196	-888
350.282	-715
350.367	-711
350.453	-566
350.538	-363
350.624	-923
350.709	-489
350.795	-268
350.880	-1342
350.966	-630
351.051	-109
351.137	-389
351.222	-889
351.308	-471
351.393	1788
351.479	178
351.564	-681
351.649	-832
351.735	-595
351.820	-351
351.906	-1030
351.991	-414
352.076	433
352.162	2290
352.247	-102
352.332	-785
352.418	-287
352.503	145
352.588	2576
352.673	1906
352.759	-370
352.844	-932
352.929	-964
353.014	-674
353.100	-100
353.185	-555
353.270	-184
353.355	-44
353.441	7
353.526	-1089
353.611	-888
353.696	227
353.781	-79
353.866	-1150
353.952	-249
354.037	25
354.122	499
354.207	269
354.292	342
354.377	-758
354.462	-590
354.547	-338
354.632	202
354.717	-809
354.802	-531
354.887	-527
354.972	-141
355.057	-856
355.142	-1153
355.227	-379
355.312	-361
355.397	-22
355.482	1045
355.567	887
355.652	-131
355.737	271
355.822	2177
355.907	3321
355.991	106
356.076	-1051
356.161	-622
356.246	-944
356.331	-54
356.416	-289
356.501	4609
356.585	9408
356.670	80
356.755	130
356.840	-487
356.924	2018
357.009	17169
357.094	8725
357.179	94
357.263	-284
357.348	-159
357.433	-187
357.517	-104
357.602	-433
357.687	-195
357.771	-91
357.856	1160
357.941	971
358.025	2032
358.110	16551
358.195	12876
358.279	100
358.364	-110
358.448	749
358.533	5478
358.617	4310
358.702	4066
358.787	1823
358.871	16
358.956	-341
359.040	-961
359.125	-432
359.209	-471
359.294	4
359.378	1257
359.462	-397
359.547	103
359.631	-836
359.716	-1168
359.800	-65
359.885	-194
359.969	-1256
360.053	-416
360.138	-759
360.222	150
360.306	-234
360.391	-95
360.475	-55
360.559	1540
360.644	1408
360.728	1155
360.812	2436
360.896	11645
360.981	4463
361.065	929
361.149	-202
361.233	-326
361.318	-561
361.402	-190
361.486	-870
361.570	-698
361.654	-631
361.739	-179
361.823	3741
361.907	13494
361.991	2038
362.075	-155
362.159	-77
362.243	523
362.327	-806
362.411	313
362.495	-246
362.580	-207
362.664	-749
362.748	-270
362.832	-813
362.916	-966
363.000	270
363.084	3078
363.168	13215
363.252	3947
363.336	-675
363.420	-320
363.503	3400
363.587	7684
363.671	128
363.755	-1040
363.839	-114
363.923	-1243
364.007	-148
364.091	-36
364.175	-34
364.258	8327
364.342	5598
364.426	778
364.510	-541
364.594	51
364.677	183
364.761	7380
364.845	9255
364.929	1306
365.013	-108
365.096	-310
365.180	-350
365.264	942
365.347	10316
365.431	5594
365.515	275
365.598	-349
365.682	-461
365.766	-344
365.849	149
365.933	-437
366.017	-46
366.100	-310
366.184	-1159
366.267	-321
366.351	-123
366.435	-1690
366.518	-1662
366.602	-746
366.685	-499
366.769	-1376
366.852	319
366.936	446
367.019	-677
367.103	-1005
367.186	43
367.270	-965
367.353	-1290
367.436	-690
367.520	-676
367.603	-290
367.687	-1245
367.770	-519
367.853	251
367.937	1326
368.020	3861
368.104	390
368.187	-1068
368.270	-324
368.353	-278
368.437	710
368.520	1322
368.603	1593
368.687	1000
368.770	4316
368.853	228
368.936	25
369.020	358
369.103	-713
369.186	-1086
369.269	-1116
369.352	-696
369.436	387
369.519	-168
369.602	-926
369.685	-678
369.768	-316
369.851	-507
369.934	-890
370.018	-553
370.101	-614
370.184	-177
370.267	-561
370.350	-305
370.433	676
370.516	2849
370.599	6561
370.682	-588
370.765	1056
370.848	1523
370.931	5456
371.014	2320
371.097	-309
371.180	-444
371.263	-374
371.346	-1381
371.429	-783
371.511	-1360
371.594	-789
371.677	222
371.760	387
371.843	350
371.926	3220
372.009	16146
372.091	6383
372.174	1126
372.257	6626
372.340	2409
372.423	525
372.505	1401
372.588	-370
372.671	817
372.754	4969
372.836	3755
372.919	17
373.002	4057
373.085	841
373.167	-441
373.250	318
373.332	5541
373.415	6323
373.498	21202
373.580	10198
373.663	5120
373.746	15225
373.828	2272
373.911	-458
373.993	-173
374.076	2893
374.159	5179
374.241	726
374.324	3202
374.406	3574
374.489	2777
374.571	17577
374.654	9392
374.736	931
374.819	8329
374.901	13251
374.983	19101
375.066	3346
375.148	-941
375.231	1413
375.313	8425
375.395	2706
375.478	-500
375.560	-568
375.643	-481
375.725	925
375.807	10385
375.890	12392
375.972	2608
376.054	-32
376.136	970
376.219	754
376.301	1310
376.383	9856
376.465	4961
376.548	-107
376.630	279
376.712	6066
376.794	4241
376.877	26
376.959	-1111
377.041	-617
377.123	-64
377.205	544
377.287	-1518
377.369	-902
377.452	-708
377.534	-790
377.616	-1170
377.698	-954
377.780	-1576
377.862	-800
377.944	-1585
378.026	-1267
378.108	-1409
378.190	-1799
378.272	-804
378.354	-892
378.436	-1690
378.518	-1500
378.600	757
378.682	-58
378.764	1692
378.846	2151
378.928	-739
379.010	-396
379.091	-310
379.173	-1623
379.255	-1021
379.337	-1163
379.419	-571
379.501	3473
379.583	1973
379.664	-1001
379.746	-934
379.828	1382
379.910	2528
379.991	3729
380.073	-546
380.155	-894
380.237	-684
380.318	-1177
380.400	-1312
380.482	-1219
380.564	-203
380.645	-1135
380.727	-916
380.809	33
380.890	-1474
380.972	-1129
381.053	-1134
381.135	-346
381.217	-967
381.298	2803
381.380	1071
381.461	-681
381.543	4576
381.624	10702
381.706	1630
381.787	-674
381.869	-635
381.951	351
382.032	12434
382.113	13740
382.195	567
382.276	740
382.358	-99
382.439	5874
382.521	7874
382.602	15047
382.684	6326
382.765	6060
382.846	6782
382.928	4945
383.009	2205
383.090	-202
383.172	4662
383.253	14149
383.334	5166
383.416	9360
383.497	6990
383.578	235
383.659	160
383.741	3406
383.822	18479
383.903	14084
383.984	3205
384.066	10899
384.147	7010
384.228	584
384.309	-663
384.390	-847
384.471	-1215
384.553	-519
384.634	-898
384.715	-494
384.796	-1140
384.877	-983
384.958	340
385.039	3267
385.120	421
385.201	-229
385.282	-750
385.363	-10
385.444	-681
385.525	167
385.606	3663
385.687	7079
385.768	218
385.849	-317
385.930	3527
386.011	15222
386.092	4257
386.173	-92
386.254	-906
386.335	-195
386.416	-928
386.496	-40
386.577	2360
386.658	226
386.739	-873
386.820	26
386.901	-779
386.981	-674
387.062	-922
387.143	-1296
387.224	489
387.304	3204
387.385	-508
387.466	-645
387.547	124
387.627	-533
387.708	-569
387.789	4107
387.869	8225
387.950	2490
388.031	-535
388.111	-1545
388.192	383
388.273	1487
388.353	-248
388.434	-1227
388.514	-826
388.595	5065
388.676	9658
388.756	4160
388.837	1503
388.917	724
388.998	-1122
389.078	-495
389.159	-779
389.239	-1377
389.320	-561
389.400	-1730
389.480	-239
389.561	2844
389.641	1915
389.722	-764
389.802	-1227
389.883	-175
389.963	3792
390.043	2653
390.124	-404
390.204	-33
390.284	2042
390.365	1068
390.445	518
390.525	5139
390.605	6723
390.686	821
390.766	-179
390.846	-133
390.927	-1442
391.007	-1214
391.087	-341
391.167	-1184
391.247	-1505
391.328	-658
391.408	-266
391.488	14
391.568	-1468
391.648	-1649
391.728	-731
391.808	-119
391.888	-1132
391.969	320
392.049	2308
392.129	1305
392.209	-494
392.289	3976
392.369	1364
392.449	906
392.529	-677
392.609	-929
392.689	-620
392.769	2444
392.849	3431
392.929	901
393.009	3864
393.089	3620
393.169	-411
393.248	-272
393.328	13953
393.408	29106
393.488	5948
393.568	-704
393.648	-518
393.728	-1120
393.807	-986
393.887	-194
393.967	-311
394.047	-205
394.127	-770
394.206	283
394.286	3844
394.366	34748
394.446	64127
394.525	16406
394.605	1711
394.685	578
394.764	1721
394.844	3592
394.924	3397
395.003	55
395.083	-1348
395.163	-774
395.242	-453
395.322	-478
395.402	-1375
395.481	131
395.561	-95
395.640	4119
395.720	2732
395.799	5226
395.879	5671
395.958	1929
396.038	6920
396.117	46427
396.197	84043
396.276	24903
396.356	4474
396.435	1504
396.515	1020
396.594	250
396.673	650
396.753	1557
396.832	15887
396.912	18972
396.991	4027
397.070	597
397.150	-1216
397.229	-827
397.308	-1214
397.388	-919
397.467	-1612
397.546	-782
397.625	-2603
397.705	194
397.784	-1363
397.863	-1123
397.942	-1449
398.022	-1052
398.101	-980
398.180	4678
398.259	2944
398.338	-589
398.417	-1141
398.497	-848
398.576	-1092
398.655	-1555
398.734	-979
398.813	-991
398.892	-741
398.971	5471
399.050	3276
399.129	-998
399.208	-892
399.287	-251
399.366	-1347
399.445	-1669
399.524	-1136
399.603	-1489
399.682	-1328
399.761	-1224
399.840	5156
399.919	6826
399.998	479
400.077	-1942
400.156	-1982
400.235	-417
400.313	-1508
400.392	-1297
400.471	-102
400.550	1754
400.629	-681
400.708	-889
400.786	-1138
400.865	-1132
400.944	-572
401.023	488
401.102	-1592
401.180	-1010
401.259	-1650
401.338	-871
401.416	-1572
401.495	-1145
401.574	-972
401.652	-1409
401.731	-1292
401.810	-1495
401.888	-1265
401.967	-1457
402.046	-1989
402.124	-616
402.203	-1428
402.281	-1243
402.360	-623
402.438	124
402.517	-821
402.596	-1374
402.674	-1274
402.753	-605
402.831	-1099
402.910	-1357
402.988	-1605
403.066	134
403.145	639
403.223	-60
403.302	-368
403.380	328
403.459	-294
403.537	-1090
403.615	-939
403.694	-1726
403.772	-1179
403.850	-882
403.929	-1502
404.007	-1605
404.085	-182
404.164	-1581
404.242	-1373
404.320	442
404.398	3967
404.477	5829
404.555	7856
404.633	12360
404.711	3855
404.789	3280
404.868	-803
404.946	-1948
405.024	-1387
405.102	-1246
405.180	-1789
405.258	-2411
405.336	-762
405.415	-2367
405.493	-906
405.571	-748
405.649	-1871
405.727	-1545
405.805	-1125
405.883	-1316
405.961	-1019
406.039	-1015
406.117	-2393
406.195	-993
406.273	-741
406.351	6008
406.429	5629
406.507	309
406.585	-1124
406.663	-1240
406.740	-1198
406.818	-962
406.896	-1532
406.974	-633
407.052	-2165
407.130	2175
407.208	6112
407.285	561
407.363	-1975
407.441	-910
407.519	-910
407.596	-1444
407.674	-1771
407.752	-951
407.830	968
407.907	-979
407.985	-1443
408.063	-758
408.141	-1927
408.218	-627
408.296	-1205
408.373	-1528
408.451	-650
408.529	-1941
408.606	-2269
408.684	-1524
408.762	-2060
408.839	-1814
408.917	-2166
408.994	-1313
409.072	-1593
409.149	-1595
409.227	-1308
409.304	-1758
409.382	-1772
409.459	-1458
409.537	-1065
409.614	-1229
409.692	-1257
409.769	-1359
409.846	-875
409.924	-943
410.001	-1982
410.079	-1176
410.156	-1330
410.233	-1381
410.311	-852
410.388	-1635
410.465	-1010
410.543	-1460
410.620	-1465
410.697	-786
410.775	-956
410.852	-1946
410.929	-482
411.006	-988
411.083	-2022
411.161	-1715
411.238	-992
411.315	-1392
411.392	-2018
411.469	-1831
411.547	-1317
411.624	-2159
411.701	-2072
411.778	-2038
411.855	-1636
411.932	-952
412.009	-1437
412.086	-1322
412.163	-1656
412.240	-1033
412.317	-1351
412.394	-1579
412.471	-1757
412.548	-1514
412.625	-1657
412.702	-1189
412.779	-1073
412.856	-1112
412.933	-1799
413.010	-1095
413.087	-1212
413.164	-902
413.241	774
413.318	-1420
413.395	-1242
413.471	-1012
413.548	-1420
413.625	-611
413.702	-2868
413.779	-1451
413.855	-1451
413.932	-1765
414.009	-2224
414.086	-742
414.162	-1363
414.239	-896
414.316	-873
414.393	2437
414.469	-684
414.546	-1432
414.623	-1917
414.699	-1091
414.776	-1573
414.853	-1978
414.929	-1318
415.006	-1299
415.082	-1483
415.159	-1787
415.236	-1181
415.312	-998
415.389	-583
415.465	-1268
415.542	-853
415.618	-1472
415.695	-744
415.771	-1566
415.848	-1619
415.924	-1293
416.000	-1566
416.077	-1271
416.153	-1821
416.230	-1744
416.306	-1749
416.383	-1418
416.459	-758
416.535	-2270
416.612	-1744
416.688	-1601
416.764	-1720
416.841	-2490
416.917	-1557
416.993	-1026
417.069	-1891
417.146	-1716
417.222	-1592
417.298	-1650
417.374	-2181
417.451	-988
417.527	-1686
417.603	-1814
417.679	-1403
417.755	-1153
417.831	-1903
417.908	-1791
417.984	-1525
418.060	-1918
418.136	-1423
418.212	-1504
418.288	-1335
418.364	-1170
418.440	-2081
418.516	-1245
418.592	-1687
418.668	-1235
418.744	-1356
418.820	-436
418.896	-1245
418.972	-1986
419.048	-1322
419.124	-1173
419.200	-2081
419.276	-1136
419.352	-1834
419.428	-1204
419.504	-2290
419.579	-1855
419.655	-1475
419.731	-1478
419.807	-923
419.883	-1468
419.959	-1152
420.034	-894
420.110	-1712
420.186	-339
420.262	1368
420.337	-825
420.413	-1938
420.489	-1388
420.565	-1221
420.640	-1805
420.716	-1501
420.792	-2349
420.867	-1088
420.943	-1665
421.019	-1358
421.094	-1064
421.170	-1817
421.245	-990
421.321	-1354
421.397	-2201
421.472	-1207
421.548	-1526
421.623	-1143
421.699	-1236
421.774	-1987
421.850	-1464
421.925	-1689
422.001	-1514
422.076	-1484
422.152	-2065
422.227	-1739
422.302	-1224
422.378	-1878
422.453	-1559
422.529	-984
422.604	2705
422.679	19344
422.755	14727
422.830	1071
422.905	-1143
422.981	-1511
423.056	-2029
423.131	-1166
423.207	-1447
423.282	-1671
423.357	-658
423.432	-1870
423.508	-1000
423.583	-1822
423.658	-334
423.733	-1663
423.808	-1479
423.883	-1228
423.959	-1789
424.034	-2154
424.109	-1101
424.184	-1821
424.259	-1876
424.334	-1116
424.409	-1564
424.484	-2069
424.559	-452
424.634	-1777
424.709	-1653
424.784	-1956
424.859	-1735
424.934	-2661
425.009	-955
425.084	514
425.159	-938
425.234	-1343
425.309	-1463
425.384	-1146
425.459	-728
425.534	-1403
425.609	-1997
425.683	-1998
425.758	-1298
425.833	-1531
425.908	-787
425.983	-1638
426.058	902
426.132	466
426.207	-2077
426.282	-1560
426.357	-1679
426.431	-1703
426.506	-1577
426.581	-1173
426.655	-1544
426.730	-1232
426.805	-1052
426.879	-1199
426.954	-1012
427.029	-1615
427.103	-640
427.178	4461
427.253	3202
427.327	-979
427.402	-1664
427.476	-551
427.551	-464
427.625	-1771
427.700	-1114
427.774	-2236
427.849	-346
427.923	-1985
427.998	-1778
428.072	-2217
428.147	-998
428.221	-1515
428.296	-498
428.370	-962
428.444	-1748
428.519	-1520
428.593	-1501
428.667	-612
428.742	-1182
428.816	-1130
428.890	980
428.965	756
429.039	-512
429.113	-714
429.188	-1024
429.262	-2076
429.336	-1290
429.410	-825
429.485	-784
429.559	-1282
429.633	-877
429.707	-1624
429.781	-2068
429.855	-628
429.930	1124
430.004	899
430.078	2070
430.152	2887
430.226	264
430.300	1177
430.374	-1141
430.448	-1026
430.522	-865
430.596	2935
430.670	2705
430.744	107
430.818	6601
430.892	1793
430.966	-1573
431.040	-918
431.114	-1753
431.188	-1735
431.262	-1555
431.336	-1191
431.410	-1333
431.484	-296
431.557	549
431.631	-2126
431.705	-1241
431.779	-1544
431.853	-522
431.927	-982
432.000	-1215
432.074	-1839
432.148	-1223
432.222	-2219
432.295	-1472
432.369	-1695
432.443	-1803
432.516	-997
432.590	4675
432.664	2992
432.737	-1459
432.811	-1859
432.885	-1518
432.958	-809
433.032	-1271
433.106	-1620
433.179	-1459
433.253	-1708
433.326	-1776
433.400	-1630
433.473	-1257
433.547	-2460
433.620	-1712
433.694	-2176
433.767	-908
433.841	-1323
433.914	-788
433.988	-1689
434.061	-1053
434.134	-2702
434.208	-1371
434.281	-2004
434.355	-1073
434.428	-1237
434.501	-2341
434.575	-1521
434.648	-1741
434.721	-1673
434.795	-1709
434.868	-2034
434.941	-1451
435.014	-1920
435.088	-1596
435.161	-1719
435.234	-1249
435.307	-1932
435.381	-1101
435.454	-1746
435.527	-1817
435.600	-2118
435.673	-1035
435.746	-1841
435.819	-1553
435.892	-1418
435.966	-1056
436.039	-2005
436.112	-1038
436.185	-1631
436.258	-547
436.331	-2579
436.404	-2217
436.477	-1870
436.550	-2049
436.623	-1504
436.696	-1971
436.769	-1339
436.842	-1588
436.915	-1593
436.987	-1039
437.060	-1380
437.133	-2208
437.206	-2064
437.279	-1474
437.352	-2407
437.425	-1672
437.498	-1244
437.570	-1550
437.643	-1285
437.716	-1049
437.789	-1604
437.861	-1601
437.934	-1022
438.007	-471
438.080	-1798
438.152	-1521
438.225	-1416
438.298	-356
438.370	10529
438.443	7591
438.516	-311
438.588	-1433
438.661	-1887
438.734	-1572
438.806	-1670
438.879	-1045
438.951	-2128
439.024	-229
439.096	-1693
439.169	-726
439.241	-1996
439.314	-1854
439.386	-1665
439.459	-1067
439.531	-1624
439.604	-1680
439.676	-874
439.749	-1562
439.821	-1442
439.893	-1049
439.966	-1781
440.038	-1904
440.110	-1064
440.183	-1493
440.255	-2023
440.327	-1194
440.400	-792
440.472	3565
440.544	5473
440.617	-88
440.689	-653
440.761	-775
440.833	-612
440.905	-788
440.978	-1052
441.050	-1974
441.122	-1183
441.194	-1780
441.266	-1342
441.338	-1533
441.411	-1839
441.483	-398
441.555	1518
441.627	169
441.699	-706
441.771	-1331
441.843	-836
441.915	-2137
441.987	-1056
442.059	-1525
442.131	-1590
442.203	-1101
442.275	-1083
442.347	-869
442.419	-1661
442.491	-1412
442.563	-540
442.635	651
442.706	-266
442.778	231
442.850	-743
442.922	-1875
442.994	-1254
443.066	-665
443.137	-1124
443.209	-1763
443.281	-1747
443.353	-1300
443.425	-710
443.496	366
443.568	762
443.640	-1198
443.711	-1068
443.783	-1524
443.855	-1599
443.926	-1518
443.998	-1581
444.070	-1652
444.141	-1016
444.213	-843
444.285	-933
444.356	-1546
444.428	-1369
444.499	-1374
444.571	-948
444.642	-787
444.714	-1740
444.785	-986
444.857	-1425
444.928	-1093
445.000	-230
445.071	-988
445.143	-947
445.214	-615
445.285	-1651
445.357	213
445.428	-36
445.500	1945
445.571	2448
445.642	616
445.714	-303
445.785	469
445.856	-952
445.928	-1081
445.999	-869
446.070	-1898
446.141	-1037
446.213	-947
446.284	-1735
446.355	-1631
446.426	-1649
446.497	-1100
446.569	-1921
446.640	-1162
446.711	-1415
446.782	-624
446.853	-1352
446.924	-507
446.995	-1112
447.066	-1715
447.138	-640
447.209	-969
447.280	-2381
447.351	-1730
447.422	-1671
447.493	-1187
447.564	-1793
447.635	-1955
447.706	-925
447.777	-1575
447.847	-772
447.918	-1989
447.989	-747
448.060	-634
448.131	-911
448.202	-558
448.273	-966
448.344	-1158
448.414	-1553
448.485	-1425
448.556	-1243
448.627	-1288
448.698	-1886
448.768	-1870
448.839	-1403
448.910	-559
448.981	-1243
449.051	-961
449.122	-1358
449.193	-1693
449.263	-1471
449.334	-1475
449.405	-1534
449.475	-355
449.546	-649
449.616	-785
449.687	-893
449.758	-774
449.828	-1147
449.899	-1826
449.969	-1412
450.040	-1460
450.110	-1206
450.181	-1024
450.251	-1534
450.322	-1196
450.392	-1112
450.463	-790
450.533	-1874
450.604	-797
450.674	-1724
450.744	-1635
450.815	-1275
450.885	-652
450.955	-1176
451.026	-1825
451.096	-1391
451.166	-1536
451.237	-1129
451.307	68
451.377	-155
451.447	-1258
451.518	-2055
451.588	-1080
451.658	-1093
451.728	-565
451.799	-467
451.869	1175
451.939	-455
452.009	-1481
452.079	-929
452.149	-1970
452.219	-1547
452.289	414
452.360	251
452.430	-1281
452.500	-1092
452.570	-513
452.640	-1596
452.710	-779
452.780	-107
452.850	0
452.920	-324
452.990	-468
453.060	-1024
453.129	-790
453.199	-1064
453.269	-31
453.339	4344
453.409	8751
453.479	4431
453.549	9683
453.619	11549
453.688	5990
453.758	9
453.828	-960
453.898	-948
453.968	-1609
454.037	-299
454.087	-997
454.107	-1293
454.168	-1207
454.177	-1202
454.247	-1185
454.249	-1180
454.316	-1347
454.330	-1259
454.386	-888
454.411	-866
454.456	-954
454.492	-311
454.525	264
454.574	-211
454.595	-434
454.655	-1198
454.665	-1330
454.734	-622
454.736	-603
454.804	-188
454.817	-253
454.873	-670
454.898	-77
454.943	933
454.979	289
455.013	-243
455.060	-644
455.082	-848
455.141	-876
455.152	-864
455.221	-538
455.222	-482
455.291	2568
455.303	2560
455.360	2335
455.384	4586
455.430	7816
455.465	7197
455.499	6822
455.546	3207
455.569	1518
455.627	944
455.638	873
455.707	-1165
455.708	-1153
455.777	-551
455.789	-626
455.846	-817
455.869	-673
455.916	-478
455.950	-887
455.985	-1296
456.031	-1042
456.054	-948
456.112	-1442
456.124	-1511
456.193	-882
456.193	-891
456.262	-656
456.274	-586
456.332	-134
456.355	-357
456.401	-901
456.436	-999
456.470	-1084
456.516	-965
456.540	-915
456.597	-1294
456.609	-1379
456.678	-1011
456.678	-1016
456.747	-649
456.759	-764
456.817	-1258
456.840	-1167
456.886	-1118
456.920	-1286
456.955	-1268
457.001	-691
457.024	-565
457.082	-787
457.093	-797
457.162	-705
457.163	-699
457.232	-1048
457.243	-1094
457.301	-947
457.324	-764
457.370	-656
457.405	-802
457.439	-829
457.485	-648
457.508	-633
457.566	-779
457.577	-794
457.646	-508
457.647	-505
457.715	-842
457.727	-769
457.784	-315
457.808	-172
457.853	-86
457.889	-502
457.922	-773
457.969	-399
457.991	-280
458.050	-354
458.060	-374
458.129	22
458.130	13
458.198	-915
458.211	-872
458.267	-510
458.292	-486
458.336	-519
458.372	-517
458.405	-397
458.453	-516
458.474	-654
458.533	-461
458.543	-374
458.611	71
458.614	108
458.680	258
458.694	33
458.749	-525
458.775	-653
458.818	-1074
458.855	-891
458.887	-532
458.936	-358
458.955	-319
459.016	-468
459.024	-486
459.093	-243
459.097	-224
459.162	-359
459.177	-439
459.230	-72
459.257	26
459.299	-221
459.338	-145
459.368	19
459.418	-26
459.437	-202
459.499	-397
459.505	-372
459.574	-400
459.579	-395
459.643	-216
459.659	-190
459.711	-199
459.740	-218
459.780	-303
459.820	-10
459.849	88
459.900	-48
459.917	-46
459.981	96
459.986	132
460.054	-41
460.061	-9
460.123	-217
460.141	-217
460.191	137
460.222	336
460.260	373
460.302	300
460.328	366
460.382	775
460.397	761
460.462	-185
460.465	-197
460.534	215
460.543	269
460.602	1051
460.623	1462
460.671	3150
460.703	4549
460.739	4268
460.783	4059
460.808	3964
460.864	1866
460.876	1555
460.944	-186
460.945	-198
461.013	-252
461.024	-239
461.081	-485
461.104	-428
461.150	85
461.184	128
461.218	-58
461.264	82
461.286	240
461.345	28
461.355	-73
461.423	139
461.425	129
461.491	118
461.505	209
461.559	435
461.585	408
461.628	1223
461.665	1869
461.696	1870
461.745	2581
461.764	2415
461.825	1054
461.832	965
461.901	59
461.905	-9
461.969	230
461.985	404
462.037	344
462.065	269
462.105	298
462.145	486
462.173	823
462.225	970
462.241	1108
462.305	2424
462.310	2362
462.378	783
462.385	574
462.446	434
462.465	557
462.514	107
462.545	-227
462.582	232
462.625	761
462.650	492
462.705	-176
462.718	-79
462.785	277
462.786	275
462.854	268
462.865	316
462.922	1182
462.945	1394
462.990	675
463.025	186
463.058	507
463.104	779
463.126	504
463.184	212
463.194	306
463.262	339
463.264	355
463.330	326
463.344	203
463.398	940
463.424	1619
463.466	926
463.504	46
463.533	263
463.583	585
463.601	466
463.663	108
463.669	156
463.737	759
463.743	781
463.805	847
463.823	1002
463.873	2123
463.903	2738
463.940	2716
463.982	2734
464.008	2414
464.062	1540
464.076	1410
464.142	644
464.144	644
464.211	780
464.221	817
464.279	964
464.301	886
464.347	765
464.381	871
464.414	946
464.461	864
464.482	936
464.540	1437
464.550	1381
464.617	846
464.620	822
464.685	1386
464.699	1526
464.753	1704
464.779	1770
464.820	2020
464.859	2213
464.888	2045
464.938	1758
464.956	1871
465.018	2313
465.023	2280
465.091	1755
465.098	1688
465.158	1451
465.177	1425
465.226	1743
465.257	1913
465.293	2127
465.336	2338
465.361	2059
465.416	1359
465.428	1477
465.495	2426
465.496	2437
465.563	3500
465.575	3696
465.631	4926
465.654	5564
465.698	3641
465.734	1790
465.765	1756
465.813	1660
465.833	1562
465.893	1466
465.900	1539
465.968	2098
465.972	2135
466.035	1784
466.052	1678
466.102	1891
466.131	2021
466.170	1764
466.210	1473
466.237	1695
466.290	2138
466.304	2042
466.369	1602
466.372	1604
466.439	1558
466.449	1560
466.506	1915
466.528	2033
466.573	2621
466.607	3074
466.641	3841
466.687	4862
466.708	5446
466.766	7115
466.775	6754
466.842	3980
466.845	3840
466.909	3328
466.925	3225
466.977	3204
467.004	3159
467.044	2814
467.083	2531
467.111	2814
467.163	3298
467.178	3418
467.242	3917
467.245	3868
467.312	2779
467.321	2636
467.379	2811
467.400	2867
467.446	2881
467.480	2890
467.559	2842
467.638	2171
467.717	2677
467.796	2484
467.875	2801
467.955	1933
468.034	2365
468.113	5363
468.192	9019
468.271	2744
468.350	1696
468.429	1760
468.508	1914
468.588	980
468.667	1894
468.746	1707
468.825	2919
468.904	1598
468.983	2774
469.062	2154
469.141	4186
469.220	2057
469.299	2677
469.378	911
469.456	3469
469.535	2570
469.614	2486
469.693	2242
469.772	3037
469.851	2396
469.930	3100
470.009	1873
470.088	2227
470.166	1189
470.245	2148
470.324	1450
470.403	2640
470.482	1115
470.560	2115
470.639	1668
470.718	1781
470.797	1895
470.875	1754
470.954	1655
471.033	2271
471.111	1667
471.190	1728
471.269	1153
471.347	1179
471.426	1261
471.505	2053
471.583	2198
471.662	2858
471.740	1644
471.819	2805
471.898	1317
471.976	937
472.055	1333
472.133	1021
472.212	1757
472.290	1799
472.369	1068
472.447	1990
472.526	710
472.604	1968
472.683	2314
472.761	1558
472.839	927
472.918	1035
472.996	1312
473.075	2200
473.153	1377
473.231	1852
473.310	963
473.388	1885
473.466	1105
473.545	1667
473.623	1157
473.701	3433
473.780	1542
473.858	1682
473.936	1028
474.014	1770
474.093	1215
474.171	2303
474.249	2365
474.327	1780
474.405	944
474.484	1414
474.562	801
474.640	1217
474.718	948
474.796	1531
474.874	850
474.952	1346
475.030	983
475.108	1320
475.187	1079
475.265	1880
475.343	986
475.421	1630
475.499	1279
475.577	2257
475.655	1977
475.733	3200
475.811	2951
475.889	3029
475.966	3059
476.044	1171
476.122	1559
476.200	3013
476.278	753
476.356	1233
476.434	780
476.512	1386
476.590	1583
476.667	1350
476.745	900
476.823	1710
476.901	547
476.979	1423
477.056	658
477.134	1199
477.212	583
477.290	1667
477.367	611
477.445	1125
477.523	760
477.601	1190
477.678	1049
477.756	1666
477.834	914
477.911	1122
477.989	1404
478.066	1138
478.144	55
478.222	1075
478.299	840
478.377	1320
478.454	1002
478.532	1001
478.609	693
478.687	1109
478.764	388
478.842	1976
478.919	312
478.997	899
479.074	828
479.152	1606
479.229	1549
479.307	1217
479.384	104
479.461	1168
479.539	482
479.616	1401
479.694	968
479.771	1638
479.848	271
479.926	1779
480.003	1242
480.080	1143
480.157	-47
480.235	633
480.312	165
480.389	1065
480.467	1155
480.544	1457
480.621	905
480.698	1109
480.775	522
480.853	1166
480.930	1246
481.007	1455
481.084	510
481.161	1347
481.238	771
481.315	1083
481.392	438
481.470	716
481.547	580
481.624	1249
481.701	-84
481.778	440
481.855	1352
481.932	1359
482.009	1988
482.086	1982
482.163	-74
482.240	1070
482.317	728
482.393	1128
482.470	561
482.547	1495
482.624	535
482.701	87
482.778	90
482.855	-9
482.932	408
483.009	909
483.085	727
483.162	1081
483.239	243
483.316	1487
483.393	-128
483.469	932
483.546	285
483.623	1289
483.699	974
483.776	1084
483.853	-105
483.930	1660
484.006	3360
484.083	7470
484.160	5081
484.236	10149
484.313	7327
484.389	5226
484.466	3479
484.543	4820
484.619	2531
484.696	4509
484.772	3672
484.849	4225
484.925	3620
485.002	4240
485.078	4001
485.155	3991
485.231	2684
485.308	3951
485.384	2982
485.461	3937
485.537	4058
485.614	6642
485.690	3220
485.766	3323
485.843	3723
485.919	4331
485.995	3847
486.072	2979
486.148	2950
486.224	2553
486.301	1797
486.377	3824
486.453	2884
486.530	3428
486.606	4955
486.682	6118
486.758	5668
486.835	5589
486.911	3770
486.987	5866
487.063	5375
487.139	6899
487.215	4895
487.292	3466
487.368	3345
487.444	2927
487.520	3753
487.596	3521
487.672	2566
487.748	3970
487.824	3647
487.900	4094
487.976	1956
488.052	3658
488.128	2341
488.204	2725
488.280	2085
488.356	3100
488.432	3958
488.508	7620
488.584	3274
488.660	3350
488.736	2644
488.812	2499
488.888	2601
488.964	3285
489.039	4442
489.115	8380
489.191	5097
489.267	2572
489.343	2091
489.418	2737
489.494	1706
489.570	1588
489.646	2314
489.722	2139
489.797	1319
489.873	3333
489.949	4491
490.024	4963
490.100	2021
490.176	1643
490.251	1760
490.327	3308
490.403	1632
490.478	2623
490.554	1867
490.629	1771
490.705	1221
490.781	1921
490.856	1306
490.932	1640
491.007	1605
491.083	2100
491.158	552
491.234	2053
491.309	3515
491.385	4363
491.460	959
491.536	1571
491.611	1236
491.686	1970
491.762	1652
491.837	2686
491.913	4275
491.988	6411
492.063	8875
492.139	3187
492.214	1791
492.289	1913
492.365	770
492.440	1628
492.515	541
492.590	1377
492.666	752
492.741	2070
492.816	1462
492.891	2264
492.967	1205
493.042	1591
493.117	1480
493.192	1698
493.267	3897
493.342	14583
493.418	26667
493.493	5182
493.568	995
493.643	509
493.718	1139
493.793	1262
493.868	1902
493.943	1388
494.018	267
494.093	1105
494.168	74
494.243	1771
494.318	834
494.393	1377
494.468	615
494.543	772
494.618	559
494.693	419
494.768	-462
494.842	1725
494.917	296
494.992	1025
495.067	535
495.142	475
495.217	574
495.292	1240
495.366	-379
495.441	2171
495.516	1407
495.591	1929
495.665	4273
495.740	14283
495.815	6298
495.890	1324
495.964	151
496.039	1575
496.114	118
496.188	1068
496.263	632
496.338	1614
496.412	232
496.487	2152
496.561	2289
496.636	1411
496.710	1434
496.785	1697
496.860	1323
496.934	1689
497.009	1008
497.083	1259
497.158	629
497.232	2322
497.307	1900
497.381	2746
497.455	2023
497.530	2881
497.604	1330
497.679	2911
497.753	2564
497.827	4973
497.902	4895
497.976	6158
498.050	9616
498.125	35698
498.199	47549
498.273	9135
498.348	5764
498.422	6008
498.496	3954
498.570	4851
498.645	2695
498.719	2644
498.793	2226
498.867	4200
498.941	4641
499.016	11531
499.090	41971
499.164	18633
499.238	2902
499.312	2134
499.386	1731
499.460	2551
499.534	1026
499.609	2530
499.683	2617
499.757	3145
499.831	5025
499.905	24341
499.979	28248
500.053	3783
500.127	2891
500.201	1887
500.275	933
500.349	2146
500.422	1691
500.496	1465
500.570	3973
500.644	11795
500.718	26519
500.792	7238
500.866	1255
500.940	2187
501.013	1760
501.087	1337
501.161	1516
501.235	3493
501.309	6016
501.382	20399
501.456	22369
501.530	4228
501.603	5351
501.677	3482
501.751	-24
501.825	2629
501.898	1570
501.972	7677
502.046	5220
502.119	1138
502.193	1751
502.266	8534
502.340	4856
502.413	4141
502.487	6998
502.561	5046
502.634	994
502.708	1040
502.781	1
502.855	959
502.928	-57
503.002	-11
503.075	202
503.149	236
503.222	834
503.295	879
503.369	892
503.442	1058
503.516	3566
503.589	13659
503.662	9791
503.736	2964
503.809	6066
503.882	5692
503.956	6726
504.029	8592
504.102	990
504.175	2222
504.249	865
504.322	330
504.395	573
504.468	107
504.542	549
504.615	770
504.688	395
504.761	-205
504.834	377
504.907	1199
504.980	702
505.053	586
505.127	-263
505.200	2039
505.273	215
505.346	962
505.419	-201
505.492	1177
505.565	-456
505.638	-140
505.711	-520
505.784	-190
505.857	-453
505.930	538
506.003	-831
506.076	1806
506.149	-893
506.221	199
506.294	796
506.367	2008
506.440	10927
506.513	6600
506.586	171
506.659	-139
506.731	-144
506.804	899
506.877	-251
506.950	873
507.022	-528
507.095	558
507.168	310
507.241	613
507.313	-145
507.386	66
507.459	65
507.531	36
507.604	-651
507.677	737
507.749	-823
507.822	246
507.894	528
507.967	3315
508.040	1104
508.112	1246
508.185	269
508.257	1294
508.330	1012
508.402	1236
508.475	532
508.547	511
508.620	121
508.692	2219
508.765	751
508.837	731
508.909	-135
508.982	176
509.054	1054
509.127	1081
509.199	-19
509.271	-92
509.344	-411
509.416	779
509.488	221
509.560	830
509.633	468
509.705	1184
509.777	118
509.849	1540
509.922	378
509.994	1325
510.066	728
510.138	577
510.210	2991
510.283	2147
510.355	1548
510.427	980
510.499	1164
510.571	1547
510.643	1101
510.715	2070
510.787	1279
510.859	1676
510.931	966
511.003	1590
511.076	1421
511.148	1607
511.219	211
511.291	2215
511.363	1202
511.435	888
511.507	712
511.579	1605
511.651	406
511.723	873
511.795	668
511.867	921
511.939	595
512.010	1321
512.082	565
512.154	1453
512.226	1183
512.298	2502
512.369	2678
512.441	1849
512.513	1630
512.585	1289
512.656	1031
512.728	1143
512.800	389
512.871	1102
512.943	463
513.015	463
513.086	923
513.158	1351
513.230	566
513.301	783
513.373	1709
513.444	949
513.516	906
513.588	781
513.659	1114
513.731	1108
513.802	-126
513.874	1865
513.945	3037
514.016	1730
514.088	1236
514.159	225
514.231	656
514.302	2335
514.374	1756
514.445	667
514.516	2036
514.588	2088
514.659	1215
514.730	2784
514.802	1785
514.873	1010
514.944	2320
515.016	1553
515.087	735
515.158	1454
515.229	1653
515.301	1640
515.372	3583
515.443	1421
515.514	1035
515.585	1294
515.656	1109
515.728	1220
515.799	1182
515.870	821
515.941	1477
516.012	595
516.083	1003
516.154	1624
516.225	2412
516.296	1080
516.367	1233
516.438	1265
516.509	1328
516.580	1612
516.651	4971
516.722	17518
516.793	10850
516.864	3159
516.935	2385
517.006	2814
517.077	2701
517.148	6781
517.219	14744
517.289	32273
517.360	13948
517.431	7454
517.502	969
517.573	1735
517.643	1126
517.714	1785
517.785	533
517.856	837
517.926	1897
517.997	1773
518.068	1482
518.138	3295
518.209	3470
518.280	9672
518.350	44118
518.421	21772
518.492	2259
518.562	1488
518.633	738
518.703	284
518.774	1190
518.845	1148
518.915	857
518.986	1644
519.056	1334
519.127	2969
519.197	3700
519.268	10820
519.338	9212
519.408	1949
519.479	1930
519.549	1026
519.620	887
519.690	942
519.760	1031
519.831	1202
519.901	63
519.971	1456
520.042	993
520.112	540
520.182	1536
520.253	1209
520.323	370
520.393	1364
520.463	1999
520.534	630
520.604	3990
520.674	2096
520.744	866
520.814	2678
520.885	3133
520.955	2779
521.025	13960
521.095	7272
521.165	818
521.235	1242
521.305	71
521.375	337
521.445	345
521.515	957
521.585	115
521.655	-97
521.725	1004
521.795	1286
521.865	-954
521.935	1442
522.005	314
522.075	130
522.145	360
522.215	3
522.285	896
522.355	1492
522.424	2673
522.494	2663
522.564	684
522.634	2041
522.704	5887
522.774	2208
522.843	63
522.913	885
522.983	535
523.053	250
523.122	-666
523.192	776
523.262	1601
523.331	3049
523.401	903
523.471	312
523.540	270
523.610	-406
523.680	108
523.749	725
523.819	-172
523.888	622
523.958	-56
524.027	813
524.097	-316
524.166	372
524.236	-822
524.305	640
524.375	246
524.444	212
524.514	579
524.583	481
524.653	-371
524.722	303
524.791	-659
524.861	797
524.930	239
524.999	-541
525.069	183
525.138	13
525.207	-944
525.277	185
525.346	-320
525.415	862
525.484	-253
525.554	481
525.623	-174
525.692	1264
525.761	-187
525.830	374
525.900	-268
525.969	788
526.038	323
526.107	313
526.176	823
526.245	1024
526.314	490
526.383	1100
526.452	-424
526.522	3518
526.591	3482
526.660	2778
526.729	1417
526.797	2518
526.867	2755
526.935	18304
527.004	18148
527.073	5717
527.142	-328
527.211	299
527.280	-366
527.349	340
527.418	-258
527.487	935
527.555	-1107
527.624	-293
527.693	-635
527.762	727
527.831	-657
527.899	-89
527.968	-296
528.037	-510
528.106	216
528.174	402
528.243	-619
528.312	972
528.380	1223
528.449	127
528.518	1474
528.586	-838
528.655	-534
528.723	657
528.792	-805
528.861	-552
528.929	-801
528.998	407
529.066	-511
529.135	735
529.203	-1040
529.272	-130
529.340	154
529.409	922
529.477	-1073
529.545	-1045
529.614	221
529.682	-128
529.751	-823
529.819	2114
529.887	-445
529.956	-766
530.024	-394
530.092	-401
530.161	1075
530.229	223
530.297	-1091
530.365	678
530.434	-1414
530.502	-706
530.570	173
530.638	-1110
530.707	471
530.775	1289
530.843	-511
530.911	-212
530.979	-255
531.047	417
531.115	209
531.183	-405
531.252	42
531.320	113
531.388	-641
531.456	601
531.524	-1234
531.592	274
531.660	91
531.728	27
531.796	-566
531.864	331
531.932	821
532.000	-369
532.067	-269
532.135	714
532.203	387
532.271	182
532.339	835
532.407	2653
532.475	1514
532.542	1242
532.610	475
532.678	348
532.746	4373
532.814	16978
532.881	4148
532.949	757
533.017	225
533.084	39
533.152	-272
533.220	377
533.287	-880
533.355	-162
533.423	-630
533.490	-475
533.558	-242
533.625	125
533.693	-798
533.761	569
533.828	-537
533.896	398
533.963	1714
534.031	2029
534.098	1120
534.166	1024
534.233	27
534.300	1209
534.368	260
534.435	-100
534.503	397
534.570	307
534.637	-721
534.705	484
534.772	261
534.840	316
534.907	795
534.974	931
535.041	-224
535.109	-219
535.176	-1391
535.243	1037
535.310	-780
535.378	-592
535.445	-239
535.512	980
535.579	364
535.646	-82
535.714	-632
535.781	125
535.848	350
535.915	1571
535.982	386
536.049	745
536.116	603
536.183	169
536.250	-554
536.317	-183
536.384	-197
536.451	570
536.518	188
536.585	-386
536.652	620
536.719	951
536.786	-195
536.853	569
536.920	578
536.987	1252
537.053	-370
537.120	6197
537.187	6750
537.254	527
537.321	-1122
537.388	1321
537.454	-785
537.521	-241
537.588	384
537.654	809
537.721	37
537.788	678
537.855	-504
537.921	-248
537.988	-561
538.055	453
538.121	-298
538.188	257
538.254	-101
538.321	869
538.388	1069
538.454	391
538.521	-401
538.587	389
538.654	-154
538.720	-5
538.787	-339
538.853	853
538.920	948
538.986	1323
539.053	-855
539.119	578
539.185	-460
539.252	948
539.318	-451
539.385	809
539.451	-719
539.517	723
539.583	874
539.650	1106
539.716	4800
539.782	1897
539.849	-138
539.915	668
539.981	-714
540.047	660
540.114	77
540.180	826
540.246	-880
540.312	-99
540.378	469
540.444	1652
540.510	538
540.576	5654
540.643	1601
540.709	67
540.775	-217
540.841	425
540.907	91
540.973	946
541.039	-173
541.105	789
541.171	-615
541.237	33
541.303	702
541.369	1124
541.435	-63
541.500	988
541.566	-781
541.632	736
541.698	-756
541.764	464
541.830	-527
541.896	-120
541.961	249
542.027	709
542.093	15
542.159	427
542.224	-329
542.290	1192
542.356	590
542.421	2491
542.487	1114
542.553	516
542.618	913
542.684	484
542.750	-721
542.815	1559
542.881	962
542.947	4318
543.012	4279
543.078	109
543.143	-48
543.209	821
543.274	-299
543.340	632
543.405	1343
543.471	3222
543.536	83
543.602	190
543.667	-1266
543.732	1769
543.798	-1021
543.863	620
543.928	-222
543.994	14
544.059	-558
544.124	692
544.190	-1061
544.255	968
544.320	-722
544.386	373
544.451	376
544.516	671
544.581	-468
544.646	2358
544.712	6330
544.777	1314
544.842	860
544.907	513
544.972	701
545.037	675
545.102	656
545.168	-242
545.233	605
545.298	1770
545.363	343
545.428	1117
545.493	1544
545.558	3550
545.623	1455
545.688	414
545.753	-54
545.818	514
545.883	-292
545.947	591
546.012	63
546.077	336
546.142	1085
546.207	-186
546.272	588
546.337	1053
546.401	169
546.466	769
546.531	-639
546.596	1495
546.661	-274
546.725	1880
546.790	-897
546.855	790
546.919	-326
546.984	715
547.049	-334
547.113	862
547.178	-922
547.243	831
547.307	1164
547.372	745
547.436	47
547.501	714
547.565	716
547.630	1395
547.695	-304
547.759	622
547.823	-347
547.888	485
547.952	174
548.017	1050
548.081	49
548.146	951
548.210	728
548.274	944
548.339	172
548.403	714
548.468	34
548.532	388
548.596	-27
548.660	1049
548.725	196
548.789	53
548.853	594
548.917	1420
548.982	73
549.046	1612
549.110	-2
549.174	1452
549.238	-16
549.303	-649
549.367	858
549.431	-121
549.495	192
549.559	107
549.623	236
549.687	561
549.751	387
549.815	696
549.879	1106
549.943	-590
550.007	995
550.071	897
550.135	584
550.199	356
550.263	223
550.327	1248
550.391	228
550.455	810
550.519	368
550.582	435
550.646	540
550.710	503
550.774	544
550.838	439
550.901	315
550.965	1777
551.029	-117
551.093	1913
551.156	1034
551.220	2256
551.284	2881
551.347	2501
551.411	2165
551.475	4603
551.538	488
551.602	729
551.666	-484
551.729	168
551.793	322
551.856	17
551.920	-248
551.983	571
552.047	228
552.110	1873
552.174	-685
552.237	1117
552.301	354
552.364	923
552.428	84
552.491	-160
552.554	419
552.618	103
552.681	576
552.745	-197
552.808	719
552.871	1726
552.934	515
552.998	724
553.061	359
553.124	96
553.187	761
553.251	1957
553.314	1888
553.377	2145
553.440	4675
553.503	12261
553.567	32446
553.630	6473
553.693	-93
553.756	-270
553.819	343
553.882	1306
553.945	650
554.008	375
554.071	-616
554.134	992
554.197	44
554.260	32
554.323	1190
554.386	711
554.449	423
554.512	803
554.575	-259
554.638	1240
554.701	-392
554.764	782
554.827	66
554.889	815
554.952	-617
555.015	-152
555.078	-664
555.141	1168
555.203	-358
555.266	-93
555.329	152
555.391	-194
555.454	498
555.517	-12
555.580	263
555.642	630
555.705	-178
555.768	907
555.830	593
555.893	609
555.955	188
556.018	1029
556.080	-279
556.143	989
556.206	-78
556.268	813
556.330	87
556.393	1054
556.455	-11
556.518	1295
556.580	990
556.643	825
556.705	644
556.767	-376
556.830	801
556.892	710
556.955	333
557.017	1276
557.079	602
557.142	1384
557.204	175
557.266	1885
557.328	299
557.391	1066
557.453	-102
557.515	1103
557.577	-263
557.639	986
557.701	1080
557.764	-118
557.826	50
557.888	838
557.950	444
558.012	304
558.074	-125
558.136	838
558.198	966
558.260	728
558.322	83
558.384	555
558.446	1412
558.508	913
558.570	599
558.632	1645
558.694	2917
558.756	2875
558.818	2067
558.880	9590
558.942	3037
559.003	1724
559.065	747
559.127	859
559.189	234
559.251	1022
559.312	348
559.374	1708
559.436	3915
559.498	4790
559.559	-80
559.621	1313
559.683	653
559.744	1683
559.806	2268
559.868	5170
559.929	1214
559.991	1485
560.052	-52
560.114	2136
560.176	2150
560.237	1105
560.299	1662
560.360	1089
560.422	793
560.483	1236
560.545	312
560.606	817
560.667	1019
560.729	94
560.790	289
560.852	796
560.913	366
560.974	914
561.036	157
561.097	787
561.158	985
561.220	1467
561.281	181
561.342	345
561.403	1142
561.465	1144
561.526	2113
561.587	4531
561.648	686
561.709	1037
561.771	770
561.832	154
561.893	-187
561.954	1346
562.015	499
562.076	1154
562.137	754
562.198	731
562.259	1418
562.320	583
562.381	1659
562.442	563
562.503	1573
562.564	900
562.625	766
562.686	1634
562.747	97
562.808	1829
562.869	892
562.930	1213
562.991	640
563.051	998
563.112	359
563.173	1454
563.234	98
563.294	1280
563.355	1535
563.416	1949
563.477	670
563.537	1370
563.598	1880
563.659	919
563.720	884
563.780	1527
563.841	870
563.901	1441
563.962	1231
564.023	961
564.083	1427
564.144	1775
564.204	570
564.265	974
564.325	1013
564.386	3592
564.446	3304
564.507	800
564.567	992
564.628	2417
564.688	611
564.749	1163
564.809	2090
564.869	2505
564.930	727
564.990	1779
565.050	294
565.111	1631
565.171	771
565.231	1653
565.292	832
565.352	1603
565.412	1910
565.472	1602
565.532	829
565.593	1417
565.653	1368
565.713	2270
565.773	1626
565.833	1925
565.893	3100
565.953	2675
566.013	2003
566.074	3539
566.134	2787
566.194	3574
566.254	4516
566.314	4009
566.374	2437
566.434	3210
566.494	2782
566.554	3921
566.614	3185
566.673	3264
566.733	4417
566.793	4380
566.853	4344
566.913	4759
566.973	4078
567.033	5323
567.092	3933
567.152	4833
567.212	3686
567.272	5337
567.331	4600
567.391	5971
567.451	5644
567.511	6429
567.570	5741
567.630	6066
567.690	3717
567.749	5282
567.809	5509
567.868	7068
567.928	6817
567.988	9050
568.047	10016
568.107	12635
568.166	16136
568.226	22656
568.285	30916
568.345	32009
568.404	28016
568.464	24901
568.523	23477
568.582	23650
568.642	25027
568.701	29443
568.761	37013
568.820	53043
568.879	57960
568.939	48698
568.998	39562
569.057	33167
569.116	27453
569.176	22449
569.235	18883
569.294	16605
569.353	13294
569.413	13474
569.472	10760
569.531	10326
569.590	8761
569.649	8937
569.708	7116
569.767	7485
569.827	6742
569.886	5800
569.945	5556
570.004	6046
570.063	5099
570.122	4516
570.181	4401
570.240	4565
570.299	4285
570.358	4697
570.417	3225
570.475	3369
570.534	3528
570.593	4606
570.652	3549
570.711	3813
570.770	2287
570.829	3700
570.887	3041
570.946	3445
571.005	2242
571.064	3016
571.122	2163
571.181	3382
571.240	2423
571.299	2610
571.357	2141
571.416	2812
571.475	3449
571.533	3130
571.592	1839
571.650	1538
571.709	1546
571.768	3118
571.826	2755
571.885	2043
571.943	2392
572.002	2009
572.060	1689
572.119	2305
572.177	2064
572.236	2624
572.294	2722
572.352	2427
572.411	2162
572.469	2500
572.528	1933
572.586	2865
572.644	2283
572.703	2751
572.761	1923
572.819	2023
572.877	1739
572.936	2279
572.994	1940
573.052	2419
573.110	2099
573.169	2495
573.227	1332
573.285	2780
573.343	1914
573.401	2281
573.459	2011
573.517	1909
573.576	2133
573.634	2947
573.692	1914
573.750	1924
573.808	1946
573.866	3733
573.924	2753
573.982	2442
574.040	1512
574.098	2212
574.155	2216
574.213	2614
574.271	1569
574.329	2352
574.387	2020
574.445	2561
574.503	2219
574.560	2025
574.618	1993
574.676	1541
574.734	1119
574.792	3055
574.849	1912
574.907	2610
574.965	1357
575.022	1805
575.080	1659
575.138	2637
575.195	1835
575.253	3016
575.311	1875
575.368	2565
575.426	956
575.483	2468
575.541	1985
575.598	2600
575.656	1934
575.713	2656
575.771	2499
575.828	2859
575.886	1840
575.943	2406
576.001	2602
576.058	2624
576.115	2659
576.173	2401
576.230	2900
576.287	3429
576.345	2567
576.402	3160
576.459	2168
576.517	2637
576.574	2610
576.631	3460
576.688	2336
576.746	2521
576.803	2444
576.860	3132
576.917	2756
576.974	2615
577.031	2831
577.089	3035
577.146	1900
577.203	3209
577.260	2505
577.317	3370
577.374	2959
577.431	3597
577.488	2978
577.545	3052
577.602	3130
577.659	3916
577.716	3495
577.773	4558
577.830	3308
577.886	4302
577.943	2585
578.000	3667
578.057	3620
578.114	5122
578.171	5591
578.227	6683
578.284	7851
578.341	6825
578.398	5385
578.454	4994
578.511	4360
578.568	5550
578.625	3470
578.681	3712
578.738	3626
578.794	3657
578.851	2317
578.908	3878
578.964	4061
579.021	4770
579.077	3326
579.134	3185
579.190	3383
579.247	3935
579.303	3308
579.360	2953
579.416	3026
579.473	4561
579.529	3561
579.586	3880
579.642	4116
579.698	4385
579.755	4007
579.811	4629
579.867	3508
579.924	5958
579.980	5400
580.036	6571
580.093	7241
580.149	9908
580.205	13552
580.261	12529
580.317	8832
580.374	7622
580.430	7573
580.486	7243
580.542	5161
580.598	6052
580.619	5741
580.654	5207
580.692	5333
580.710	5408
580.765	4973
580.767	4965
580.823	4819
580.838	4815
580.879	4822
580.911	4781
580.935	4761
580.984	4344
580.991	4292
581.047	4859
581.057	4964
581.103	5476
581.130	5703
581.159	5955
581.203	5503
581.215	5387
581.270	6405
581.276	6309
581.326	5486
581.349	5522
581.382	5558
581.422	5772
581.438	5884
581.494	5065
581.494	5056
581.550	4586
581.567	4903
581.606	5590
581.640	5148
581.661	4847
581.713	5838
581.717	5929
581.773	4898
581.786	4950
581.829	5101
581.859	4649
581.885	4298
581.932	4738
581.940	4815
581.996	5207
582.004	5208
582.052	5257
582.077	4759
582.107	4135
582.150	4760
582.163	4997
582.219	5646
582.223	5612
582.274	5069
582.296	4985
582.330	4919
582.368	5005
582.386	5024
582.441	5399
582.441	5401
582.497	6184
582.514	5915
582.552	5266
582.587	5812
582.608	6229
582.659	5855
582.663	5798
582.719	6453
582.732	6117
582.774	5316
582.805	5472
582.830	5542
582.877	5780
582.885	5828
582.941	5702
582.950	5737
582.996	5898
583.023	6270
583.052	6720
583.095	6700
583.107	6696
583.162	8447
583.168	8582
583.218	9988
583.240	9718
583.273	9060
583.313	8498
583.328	8328
583.384	8453
583.385	8418
583.439	7290
583.458	7308
583.494	7401
583.531	6673
583.549	6290
583.603	6776
583.605	6795
583.660	6642
583.676	6883
583.715	7314
583.748	6474
583.770	6052
583.820	7003
583.825	7070
583.881	6640
583.893	6700
583.936	7026
583.965	6429
583.991	5816
584.038	6942
584.046	7160
584.101	7162
584.110	7103
584.156	6735
584.183	6750
584.211	6829
584.255	7180
584.266	7218
584.321	6572
584.328	6683
584.376	7663
584.400	7639
584.431	7564
584.472	7578
584.486	7615
584.541	7384
584.545	7401
584.596	7556
584.617	7630
584.651	7701
584.689	8000
584.706	8164
584.761	8544
584.762	8546
584.816	7947
584.834	7852
584.871	7704
584.906	8337
584.926	8640
584.978	8503
584.980	8497
585.035	9080
585.051	8980
585.090	8772
585.123	9288
585.145	9464
585.195	9034
585.200	9040
585.254	10068
585.267	10333
585.309	10974
585.340	11382
585.364	11821
585.412	11812
585.419	11612
585.473	10578
585.484	10368
585.528	10294
585.556	10506
585.583	10736
585.628	11081
585.637	11241
585.692	12933
585.700	13227
585.747	14515
585.772	15131
585.801	14886
585.845	12196
585.856	11646
585.910	11763
585.917	11668
585.965	11289
585.989	11773
586.019	12335
586.061	12126
586.074	12019
586.128	12252
586.133	12334
586.183	13028
586.205	13152
586.237	13292
586.277	13560
586.292	13658
586.346	14303
586.349	14317
586.401	13953
586.421	14431
586.455	15240
586.493	15464
586.509	15618
586.564	16882
586.565	16945
586.618	18902
586.637	19710
586.672	20335
586.709	19109
586.727	18023
586.781	17193
586.781	17159
586.835	17378
586.853	17933
586.889	18507
586.925	19090
586.944	19472
586.996	19627
586.998	19569
587.052	20219
587.068	20382
587.106	21237
587.140	21684
587.161	21764
587.212	23110
587.215	23091
587.269	23059
587.284	23439
587.323	24751
587.356	25211
587.377	25384
587.427	27675
587.431	27750
587.485	28553
587.499	29047
587.539	30284
587.571	31266
587.593	31951
587.643	34670
587.648	34799
587.702	36447
587.715	37196
587.755	39099
587.786	40772
587.810	41836
587.858	44060
587.864	44216
587.917	48369
587.930	49474
587.971	52509
588.001	54991
588.025	56669
588.073	61359
588.079	61888
588.133	69093
588.145	71110
588.187	76952
588.217	81603
588.241	85449
588.288	94907
588.295	95945
588.348	107440
588.360	110625
588.402	122357
588.431	131113
588.456	138378
588.503	155717
588.510	158010
588.564	181037
588.575	186753
588.617	210408
588.646	226770
588.671	244895
588.718	282126
588.725	290098
588.778	354852
588.789	367589
588.832	452510
588.861	508250
588.886	559443
588.932	653156
588.939	650650
588.993	613108
589.004	608026
589.047	631522
589.075	645783
589.100	598131
589.147	501382
589.154	488718
589.207	381785
589.218	359433
589.261	325707
589.290	305201
589.314	303044
589.361	303433
589.368	308274
589.421	356875
589.433	367645
589.475	456032
589.504	515359
589.528	557824
589.576	633951
589.582	630609
589.635	595935
589.647	588580
589.689	493449
589.718	420757
589.742	367961
589.790	256678
589.795	250303
589.849	193066
589.861	180725
589.902	154532
589.932	137136
589.955	126519
590.004	107485
590.009	105301
590.062	88349
590.075	85068
590.115	76967
590.146	71440
590.168	67071
590.218	59787
590.222	59010
590.275	54001
590.289	53107
590.328	49286
590.360	46894
590.381	44968
590.431	41356
590.435	40884
590.488	37655
590.503	37038
590.541	34854
590.574	33162
590.594	31855
590.645	30129
590.647	29876
590.700	27916
590.716	27623
590.753	25637
590.787	24263
590.806	23773
590.859	23012
590.859	22827
590.912	21375
590.930	21110
590.965	20399
591.001	19880
591.018	19124
591.071	17482
591.072	17602
591.124	17736
591.143	17920
591.177	16987
591.214	16290
591.230	16145
591.283	16141
591.285	16248
591.336	15012
591.356	14711
591.389	14439
591.427	14310
591.442	13948
591.495	13078
591.498	13110
591.547	12859
591.569	12939
591.600	12503
591.640	12056
591.653	11837
591.706	11424
591.711	11457
591.759	11391
591.782	11556
591.811	11425
591.853	11418
591.864	11251
591.917	10782
591.924	10787
591.969	10472
591.995	10473
592.022	10004
592.066	9314
592.075	9263
592.127	9594
592.137	9717
592.180	9832
592.208	10040
592.233	9818
592.279	9569
592.285	9347
592.338	8109
592.350	7884
592.390	8312
592.421	8807
592.443	8296
592.491	7365
592.495	7316
592.548	7636
592.562	7795
592.600	7678
592.633	7705
592.653	7616
592.704	7521
592.705	7549
592.775	6870
592.846	6501
592.916	6779
592.987	7199
593.058	6754
593.128	6417
593.199	6671
593.270	6522
593.341	5732
593.411	6040
593.482	6009
593.553	6439
593.623	5620
593.694	5796
593.764	5745
593.835	5255
593.906	5133
593.976	5765
594.047	4707
594.117	5885
594.188	5528
594.258	5074
594.329	5005
594.399	4986
594.470	4855
594.540	5222
594.611	4193
594.681	4961
594.751	5218
594.822	4825
594.892	4389
594.963	4716
595.033	4879
595.103	5282
595.174	5464
595.244	6616
595.314	8666
595.384	5564
595.455	4833
595.525	4799
595.595	4538
595.665	5021
595.736	4845
595.806	4566
595.876	4432
595.946	4593
596.016	4381
596.087	4984
596.157	4499
596.227	4079
596.297	3964
596.367	4421
596.437	4216
596.507	5961
596.577	7060
596.647	5220
596.717	4134
596.787	4196
596.857	4210
596.927	4645
596.997	4321
597.067	4644
597.137	5574
597.207	5653
597.277	4154
597.347	4243
597.417	3431
597.487	4235
597.557	3991
597.626	3707
597.696	3748
597.766	5115
597.836	6130
597.906	5439
597.975	3595
598.045	3704
598.115	4199
598.185	3663
598.254	4051
598.324	4375
598.394	4260
598.464	4264
598.533	3569
598.603	3399
598.672	3775
598.742	3927
598.812	4402
598.881	3944
598.951	3956
599.020	3666
599.090	3240
599.159	4363
599.229	3367
599.299	3843
599.368	3613
599.437	3348
599.507	3806
599.576	4011
599.646	4282
599.715	5301
599.785	4289
599.854	3811
599.924	3651
599.993	4338
600.062	3432
600.132	3626
600.201	3581
600.270	3897
600.340	3131
600.409	3198
600.478	3641
600.547	3625
600.617	3730
600.686	3836
600.755	2675
600.824	4326
600.894	3488
600.963	3580
601.032	3093
601.101	3279
601.170	2656
601.239	2928
601.308	3294
601.378	3488
601.447	3152
601.516	3108
601.585	2281
601.654	2318
601.723	3137
601.792	3308
601.861	3499
601.930	6500
601.999	4894
602.068	2979
602.137	2956
602.206	3698
602.275	3202
602.343	3811
602.412	3882
602.481	3200
602.550	2917
602.619	3224
602.688	3296
602.756	3408
602.825	3099
602.894	2757
602.963	2728
603.032	2631
603.100	2917
603.169	3515
603.238	2817
603.307	3648
603.375	2573
603.444	2550
603.513	2398
603.581	2761
603.650	2394
603.719	2915
603.787	2665
603.856	2760
603.924	2886
603.993	3301
604.061	2070
604.130	2799
604.198	3548
604.267	2932
604.335	2399
604.404	3330
604.472	2744
604.541	3139
604.609	1990
604.678	2340
604.746	2712
604.815	2146
604.883	2220
604.951	3584
605.020	2690
605.088	2137
605.156	1988
605.225	2984
605.293	1784
605.361	2641
605.429	2599
605.498	2889
605.566	2362
605.634	2742
605.702	2727
605.771	3175
605.839	2512
605.907	3065
605.975	2374
606.043	3107
606.111	2380
606.180	3579
606.248	4275
606.316	7783
606.384	3422
606.452	3999
606.520	3432
606.588	3634
606.656	2814
606.724	2545
606.792	2537
606.860	2242
606.928	1919
606.996	2270
607.064	2253
607.132	2598
607.200	1614
607.267	2634
607.335	2350
607.403	2303
607.471	1223
607.539	1764
607.607	2711
607.674	1986
607.742	2744
607.810	2660
607.878	2015
607.946	1979
608.013	2461
608.081	2755
608.149	2093
608.216	2608
608.284	2519
608.352	2249
608.419	1888
608.487	3624
608.555	3053
608.622	3190
608.690	1768
608.757	2666
608.825	1418
608.893	2360
608.960	3211
609.028	3251
609.095	3252
609.163	3882
609.230	3076
609.298	2308
609.365	1685
609.432	2134
609.500	2559
609.567	2877
609.635	2510
609.702	2850
609.769	3128
609.837	3305
609.904	2026
609.971	2238
610.039	3030
610.106	3109
610.173	5506
610.241	13420
610.308	24084
610.375	25721
610.442	6715
610.509	3252
610.577	2810
610.644	2730
610.711	2487
610.778	2657
610.845	1997
610.912	2751
610.980	3423
611.047	7607
611.114	7456
611.181	3148
611.248	1565
611.315	2254
611.382	2366
611.449	2693
611.516	2187
611.583	2660
611.650	1944
611.717	2699
611.784	1541
611.851	2660
611.918	2513
611.984	2633
612.051	4229
612.118	6358
612.185	14557
612.252	19434
612.319	3605
612.386	2693
612.452	2614
612.519	2829
612.586	2835
612.653	3932
612.719	2134
612.786	1705
612.853	2086
612.919	1969
612.986	2069
613.053	2003
613.120	1567
613.186	1951
613.253	3179
613.319	2181
613.386	1294
613.453	2269
613.519	2223
613.586	2898
613.652	3274
613.719	3224
613.785	3279
613.852	1895
613.918	1976
613.985	3205
614.051	5840
614.118	17175
614.184	32163
614.250	7423
614.317	2548
614.383	2322
614.449	1706
614.516	1670
614.582	2022
614.648	2435
614.715	2308
614.781	1721
614.847	2381
614.914	2733
614.980	2062
615.046	2595
615.112	1673
615.179	2430
615.245	3229
615.311	3832
615.377	7956
615.443	15153
615.509	7207
615.575	3302
615.642	2324
615.708	3122
615.774	3257
615.840	3338
615.906	4733
615.972	8565
616.038	17238
616.104	32880
616.170	27272
616.236	34374
616.302	9818
616.368	5182
616.434	2451
616.500	3693
616.565	3090
616.631	3725
616.697	3038
616.763	3650
616.829	2850
616.895	4739
616.961	5867
617.026	3817
617.092	2565
617.158	2994
617.224	1531
617.289	2937
617.355	2629
617.421	2395
617.487	2672
617.552	2296
617.618	1919
617.684	2525
617.749	2700
617.815	2651
617.880	2317
617.946	2102
618.012	1788
618.077	2427
618.143	1769
618.208	2447
618.274	1799
618.339	2108
618.405	1865
618.470	2790
618.536	1738
618.601	2446
618.667	2118
618.732	2723
618.798	2207
618.863	2279
618.928	2575
618.994	2648
619.059	2492
619.124	3250
619.190	3830
619.255	2307
619.320	2434
619.386	2179
619.451	2187
619.516	2567
619.581	1719
619.647	2400
619.712	2302
619.777	2454
619.842	1884
619.907	2610
619.972	2000
620.038	2324
620.103	2222
620.168	1870
620.233	1689
620.298	1916
620.363	2002
620.428	2380
620.493	1857
620.558	2558
620.623	1180
620.688	2094
620.753	2080
620.818	1998
620.883	2050
620.948	2386
621.013	1562
621.078	2610
621.143	715
621.207	3548
621.272	2352
621.337	2577
621.402	2178
621.467	3005
621.532	3316
621.596	3767
621.661	3913
621.726	2375
621.791	2000
621.855	3048
621.920	2337
621.985	2627
622.049	3146
622.114	3878
622.179	2574
622.243	3155
622.308	1982
622.373	3095
622.437	3114
622.502	2065
622.566	2535
622.631	2631
622.695	2530
622.760	2695
622.824	2446
622.889	2986
622.953	2095
623.018	4286
623.082	5404
623.147	2964
623.211	2055
623.276	2772
623.340	2000
623.404	2648
623.469	1626
623.533	3060
623.597	2085
623.662	2954
623.726	2282
623.790	2676
623.854	2135
623.919	3058
623.983	2042
624.047	3220
624.111	2167
624.176	1901
624.240	2137
624.304	3549
624.368	1982
624.432	3061
624.496	1874
624.560	2190
624.625	2323
624.689	2273
624.753	2330
624.817	2222
624.881	1792
624.945	2305
625.009	1889
625.073	2551
625.137	2292
625.201	3270
625.265	3757
625.329	2187
625.393	1656
625.456	2830
625.520	2161
625.584	3118
625.648	3543
625.712	4427
625.776	11055
625.839	18297
625.903	10407
625.967	3105
626.031	4528
626.095	9050
626.158	5358
626.222	2710
626.286	1551
626.349	1704
626.413	1645
626.477	2916
626.540	2179
626.604	1678
626.668	1892
626.731	2208
626.795	2080
626.858	2142
626.922	2108
626.986	1723
627.049	1239
627.113	2585
627.176	1171
627.240	1475
627.303	1532
627.366	1729
627.430	1387
627.493	1150
627.557	2295
627.620	2209
627.684	1669
627.747	2075
627.810	621
627.874	2512
627.937	717
628.000	1976
628.064	1826
628.127	2344
628.190	728
628.253	2007
628.317	1644
628.380	1782
628.443	1391
628.506	2242
628.569	1676
628.632	1365
628.696	1465
628.759	1037
628.822	1054
628.885	1579
628.948	1268
629.011	1497
629.074	1489
629.137	1219
629.200	1966
629.263	1132
629.326	1132
629.389	1116
629.452	1294
629.515	1610
629.578	1450
629.641	1066
629.704	976
629.767	1087
629.830	1068
629.892	1599
629.955	1154
630.018	1663
630.081	943
630.144	1470
630.207	989
630.269	1913
630.332	731
630.395	1294
630.458	1496
630.520	1024
630.583	943
630.646	758
630.708	1429
630.771	1407
630.834	818
630.896	1531
630.959	52
631.021	1565
631.084	1178
631.146	1482
631.209	2330
631.272	1366
631.334	1551
631.397	914
631.459	158
631.522	1173
631.584	1068
631.646	1147
631.709	1253
631.771	1470
631.834	2311
631.896	796
631.958	975
632.021	865
632.083	511
632.145	1499
632.208	980
632.270	1971
632.332	189
632.395	438
632.457	1005
632.519	971
632.581	723
632.643	493
632.706	1299
632.768	331
632.830	-850
632.892	777
632.954	484
633.016	1042
633.078	344
633.141	121
633.203	314
633.265	1168
633.327	785
633.389	271
633.451	1225
633.513	1351
633.575	899
633.637	1005
633.698	420
633.760	685
633.822	502
633.884	1015
633.946	817
634.008	1009
634.070	670
634.132	1287
634.193	2351
634.255	967
634.317	99
634.379	1265
634.441	145
634.502	1228
634.564	426
634.626	411
634.687	1040
634.749	1346
634.811	645
634.873	-53
634.934	746
634.996	1059
635.057	1183
635.119	647
635.181	-609
635.242	430
635.304	-348
635.365	1718
635.427	121
635.488	407
635.550	184
635.611	782
635.673	-562
635.734	1065
635.796	932
635.857	944
635.918	-185
635.980	1293
636.041	676
636.102	1369
636.164	-76
636.225	1408
636.286	156
636.348	345
636.409	234
636.470	192
636.531	672
636.593	990
636.654	811
636.715	534
636.776	119
636.838	484
636.899	642
636.960	344
637.021	175
637.082	-434
637.143	314
637.204	665
637.265	-826
637.326	852
637.387	142
637.448	553
637.509	909
637.570	575
637.631	51
637.692	354
637.753	812
637.814	-163
637.875	239
637.936	1277
637.997	-417
638.058	751
638.119	249
638.179	466
638.240	448
638.301	1268
638.362	237
638.423	167
638.483	96
638.544	339
638.605	-154
638.666	-221
638.726	269
638.787	642
638.848	-473
638.908	96
638.969	52
639.030	798
639.090	-25
639.151	467
639.211	381
639.272	588
639.332	1076
639.393	1355
639.453	214
639.514	348
639.574	429
639.635	624
639.695	121
639.756	206
639.816	374
639.877	487
639.937	709
639.997	1434
640.058	760
640.118	581
640.178	-230
640.239	454
640.299	-1112
640.359	664
640.420	225
640.480	322
640.540	-905
640.600	424
640.661	39
640.721	205
640.781	754
640.841	221
640.901	746
640.961	643
641.021	-27
641.082	-444
641.142	-544
641.202	495
641.262	-659
641.322	771
641.382	-393
641.442	359
641.502	326
641.562	521
641.622	-641
641.682	211
641.742	-65
641.802	785
641.861	431
641.921	90
641.981	-245
642.041	719
642.101	526
642.161	495
642.221	17
642.280	-44
642.340	-272
642.400	-499
642.460	-379
642.519	-779
642.579	-109
642.639	630
642.698	-1170
642.758	1363
642.818	-355
642.877	531
642.937	-500
642.997	-184
643.056	226
643.116	33
643.175	1042
643.235	-370
643.294	-180
643.354	137
643.414	4
643.473	59
643.532	46
643.592	-361
643.651	-229
643.711	831
643.770	1565
643.830	4622
643.889	15512
643.948	10410
644.008	345
644.067	121
644.126	-209
644.186	-156
644.245	-219
644.304	-680
644.363	-105
644.423	-282
644.482	-440
644.541	63
644.600	-1051
644.659	224
644.719	-872
644.778	-44
644.837	-459
644.896	744
644.955	2410
645.014	1690
645.073	1408
645.132	1128
645.191	-195
645.250	-322
645.309	1119
645.368	-326
645.427	-93
645.486	-536
645.545	720
645.604	194
645.663	139
645.722	-484
645.781	-92
645.840	21
645.898	-593
645.957	543
646.016	-211
646.075	964
646.134	1137
646.192	3543
646.251	12102
646.310	4520
646.369	276
646.427	393
646.486	-1283
646.545	-95
646.603	979
646.662	858
646.721	499
646.779	-180
646.838	-934
646.896	-468
646.955	-235
647.014	-321
647.072	-446
647.131	959
647.189	627
647.248	-306
647.306	-214
647.365	534
647.423	-1434
647.481	569
647.540	-1526
647.598	384
647.657	-439
647.715	484
647.773	-615
647.832	-682
647.890	-1306
647.948	-556
648.007	4
648.065	-906
648.123	-904
648.181	1588
648.240	-61
648.298	916
648.356	-318
648.414	-347
648.472	352
648.531	-111
648.589	31
648.647	-398
648.705	-626
648.763	254
648.821	-574
648.879	415
648.937	-240
648.995	-263
649.053	-371
649.111	-358
649.169	460
649.227	-46
649.285	508
649.343	4095
649.401	5444
649.459	2785
649.516	3605
649.574	1949
649.632	6196
649.690	14821
649.748	5470
649.806	1528
649.863	5980
649.921	3715
649.979	497
650.037	688
650.094	-1352
650.152	204
650.210	-720
650.268	186
650.325	-214
650.383	-555
650.440	-1153
650.498	638
650.556	-76
650.613	-140
650.671	-334
650.728	132
650.786	-408
650.843	-96
650.901	-1091
650.958	-675
651.016	213
651.073	-117
651.131	-315
651.188	-1012
651.246	-315
651.303	-297
651.360	-471
651.418	-678
651.475	-306
651.532	-1435
651.590	-458
651.647	-438
651.704	-101
651.762	-59
651.819	-607
651.876	136
651.933	-244
651.990	-261
652.048	-1480
652.105	-385
652.162	633
652.219	-146
652.276	-263
652.333	-231
652.390	-994
652.448	132
652.505	-580
652.562	-491
652.619	149
652.676	1256
652.733	3403
652.790	1027
652.847	-1430
652.904	267
652.961	-514
653.017	-552
653.074	-245
653.131	-174
653.188	-1161
653.245	-111
653.302	-936
653.359	-406
653.415	-244
653.472	-467
653.529	-460
653.586	-173
653.642	-178
653.699	0
653.756	-1569
653.813	-362
653.869	-583
653.926	267
653.983	-1820
654.039	-521
654.096	-468
654.152	177
654.209	-755
654.266	5
654.322	-1154
654.379	-183
654.435	-941
654.492	-411
654.548	284
654.605	736
654.661	491
654.717	-70
654.774	-422
654.830	-634
654.887	-847
654.943	-379
655.000	-654
655.056	-713
655.112	-251
655.168	-505
655.225	-496
655.281	591
655.337	-1269
655.394	820
655.450	-254
655.506	-504
655.562	-479
655.618	1501
655.675	-1150
655.731	-276
655.787	-681
655.843	246
655.899	-852
655.955	345
656.011	-926
656.067	-894
656.123	-359
656.179	-138
656.235	240
656.291	-503
656.347	-304
656.403	-364
656.459	-1245
656.515	-389
656.571	-1180
656.627	109
656.683	-771
656.739	412
656.795	-1177
656.850	-346
656.906	-904
656.962	6
657.018	-534
657.074	141
657.129	-1026
657.185	419
657.241	-258
657.297	-1127
657.352	-614
657.408	-885
657.464	104
657.519	-419
657.575	-1172
657.630	399
657.686	-596
657.742	-968
657.797	-562
657.853	-965
657.908	-214
657.964	-1133
658.019	-570
658.075	-626
658.130	-854
658.186	-608
658.241	-426
658.297	-230
658.352	-1210
658.407	-306
658.463	-1361
658.518	-690
658.573	-1201
658.629	-916
658.684	-635
658.739	180
658.795	-1325
658.850	-362
658.905	-1115
658.960	-173
659.016	-823
659.071	-754
659.126	-1192
659.181	-954
659.236	17
659.291	811
659.346	-457
659.401	-393
659.457	284
659.512	1431
659.567	1194
659.622	307
659.677	-1023
659.732	-497
659.787	-743
659.842	-440
659.897	-217
659.952	-310
660.007	-463
660.061	-452
660.116	-1165
660.171	57
660.226	-255
660.281	-252
660.336	-1953
660.391	-512
660.445	-853
660.500	-126
660.555	-193
660.610	-1103
660.664	-327
660.719	-581
660.774	263
660.828	126
660.883	-630
660.938	-394
660.992	-1054
661.047	-588
661.101	-1084
661.156	-388
661.211	-1307
661.265	-698
661.320	-733
661.374	-769
661.429	-1077
661.483	-318
661.538	-1426
661.592	-468
661.647	-295
661.701	-340
661.755	-409
661.810	-629
661.864	-1695
661.919	-715
661.973	-652
662.027	-200
662.081	-1609
662.136	-1276
662.190	-396
662.244	-51
662.299	-1230
662.353	-609
662.407	-611
662.461	-1587
662.515	-153
662.569	-1393
662.624	-215
662.678	-1126
662.732	343
662.786	-860
662.840	-13
662.894	-967
662.948	-1097
663.002	-771
663.056	-333
663.110	-977
663.164	-479
663.218	-682
663.272	-776
663.326	-51
663.380	-794
663.434	-371
663.488	-1048
663.542	-474
663.595	-880
663.649	-814
663.703	-362
663.757	-693
663.811	-2192
663.864	-824
663.918	-430
663.972	-1052
664.026	-697
664.079	-729
664.133	-411
664.187	-235
664.240	-1512
664.294	-525
664.348	-254
664.401	-1604
664.455	-605
664.508	-1457
664.562	-770
664.615	-618
664.669	-1113
664.722	-231
664.776	-1219
664.829	-1227
664.883	-614
664.936	-932
664.990	-154
665.043	-395
665.097	-1401
665.150	-583
665.203	-1353
665.257	-1024
665.310	-553
665.363	-817
665.417	-783
665.470	-263
665.523	-961
665.576	-123
665.630	-732
665.683	-1336
665.736	-950
665.789	278
665.842	-620
665.895	-836
665.949	-93
666.002	-1319
666.055	-357
666.108	-290
666.161	-1089
666.214	-624
666.267	-363
666.320	34
666.373	-932
666.426	-504
666.479	-1518
666.532	207
666.585	-1239
666.638	-45
666.691	-1188
666.744	-451
666.796	-553
666.849	-228
666.902	-347
666.955	-887
667.008	-140
667.060	-765
667.113	-1079
667.166	-620
667.219	-351
667.271	-118
667.324	-844
667.377	-1224
667.430	-481
667.482	-558
667.535	1062
667.587	-798
667.640	-314
667.693	-1108
667.745	-475
667.798	698
667.850	-731
667.903	-957
667.955	-840
668.008	-907
668.060	-916
668.113	-811
668.165	-232
668.218	-199
668.270	-872
668.322	-867
668.375	-1030
668.427	-70
668.479	-1890
668.532	-1102
668.584	-1129
668.636	-41
668.689	-1148
668.741	-842
668.793	-734
668.845	-1001
668.898	-1227
668.950	-813
669.002	-617
669.054	-867
669.106	-1322
669.158	-757
669.211	-235
669.263	-520
669.315	-343
669.367	396
669.419	-575
669.471	372
669.523	-903
669.575	305
669.627	-671
669.679	-353
669.731	-791
669.783	-16
669.835	-768
669.886	-350
669.938	-413
669.990	-332
670.042	-1303
670.094	-590
670.146	-554
670.197	107
670.249	-383
670.301	53
670.353	292
670.404	1479
670.456	2470
670.508	5726
670.560	9483
670.611	20260
670.663	36725
670.715	71685
670.766	180227
670.818	133863
670.869	18560
670.921	5470
670.972	2353
671.024	1674
671.075	429
671.127	1515
671.178	-591
671.230	-514
671.281	216
671.333	-563
671.384	-1041
671.436	-684
671.487	-243
671.538	-665
671.590	-373
671.641	-211
671.692	-200
671.744	359
671.795	1317
671.846	-619
671.897	-1571
671.949	-607
672.000	-893
672.051	-786
672.102	-70
672.153	-837
672.204	-343
672.256	-701
672.307	-991
672.358	-788
672.409	-633
672.460	-697
672.511	-1433
672.562	-69
672.613	-1054
672.664	-1249
672.715	-1147
672.766	-851
672.817	-623
672.868	-299
672.919	-1122
672.970	-678
673.021	-1194
673.071	-1265
673.122	-544
673.173	16
673.224	-1015
673.275	-1047
673.326	-1083
673.376	-738
673.427	-1534
673.478	-990
673.528	-858
673.579	-857
673.630	-277
673.680	-871
673.731	-1061
673.782	-263
673.832	-992
673.883	-906
673.934	-1602
673.984	-787
674.035	-1159
674.085	-590
674.136	-537
674.186	-1610
674.237	-550
674.287	-193
674.338	-38
674.388	-978
674.438	-1485
674.489	254
674.539	-1051
674.589	-62
674.640	-1786
674.690	-722
674.740	-1061
674.791	-570
674.841	-912
674.891	-1165
674.942	-733
674.992	-566
675.042	-1373
675.092	-540
675.142	-711
675.193	-921
675.243	-1242
675.293	-536
675.343	-2172
675.393	-293
675.443	-750
675.493	-393
675.543	-1522
675.593	-91
675.643	-985
675.693	-532
675.743	-1654
675.793	-180
675.843	-1037
675.893	-667
675.943	-552
675.993	-1497
676.043	-1705
676.093	-671
676.142	-2076
676.192	-446
676.242	-1505
676.292	-679
676.341	-1366
676.391	-398
676.441	-1277
676.491	-986
676.540	-2122
676.590	-1458
676.640	-1129
676.689	-194
676.739	-1416
676.789	-1283
676.838	-1247
676.888	-652
676.937	-967
676.987	-1066
677.037	-1014
677.086	-1147
677.136	-1792
677.185	-1384
677.235	-1103
677.284	-1228
677.333	-1598
677.383	-1236
677.432	-2120
677.482	-418
677.531	-1510
677.580	-1373
677.630	-1082
677.679	-1850
677.728	-1553
677.778	-921
677.827	-1364
677.876	-819
677.925	-2097
677.975	-1237
678.024	-642
678.073	-1332
678.122	-976
678.171	-2341
678.220	-2002
678.269	-835
678.319	-806
678.368	-961
678.417	-1290
678.466	-722
678.515	-1238
678.564	-1361
678.613	-1156
678.662	-1552
678.711	-1488
678.760	-679
678.809	-1244
678.857	-1460
678.906	-1404
678.955	-1031
679.004	-886
679.053	-982
679.102	-1665
679.151	-878
679.199	-1571
679.248	-678
679.297	-1896
679.346	-1050
679.394	-1923
679.443	-1400
679.492	-1425
679.540	-657
679.589	-1599
679.638	-1060
679.686	-1422
679.735	-735
679.784	-1371
679.832	-526
679.881	-1180
679.929	-1115
679.978	-1035
680.026	-1530
680.075	-1544
680.123	-677
680.172	-1894
680.220	-1233
680.268	-1081
680.317	-1194
680.365	-2282
680.414	-706
680.462	-1263
680.510	-449
680.559	-1457
680.607	-703
680.655	-1875
680.703	-1630
680.752	-1299
680.800	-1593
680.848	-1913
680.896	-1319
680.945	-1735
680.993	-1097
681.041	-1425
681.089	-1025
681.137	-1347
681.185	-1217
681.233	-1798
681.258	-1175
681.281	-604
681.329	-1212
681.377	-1813
681.380	-1765
681.425	-1258
681.473	-1332
681.502	-1340
681.521	-1378
681.569	-1456
681.617	-1324
681.624	-1112
681.665	116
681.713	-1187
681.745	-583
681.761	-320
681.809	-726
681.857	-876
681.867	-883
681.904	-991
681.952	-606
681.989	-463
682.000	-444
682.048	-81
682.096	-1130
682.111	-817
682.143	-209
682.191	-635
682.233	-188
682.239	-137
682.286	-866
682.334	-838
682.354	-893
682.382	-1021
682.430	-89
682.476	308
682.477	300
682.525	71
682.572	-1175
682.598	-555
682.620	-69
682.667	-253
682.715	21
682.720	-6
682.763	-342
682.810	-115
682.841	-437
682.857	-643
682.905	480
682.952	-210
682.963	-20
683.000	570
683.047	-440
683.085	761
683.095	1076
683.142	-240
683.190	616
683.206	464
683.237	101
683.284	182
683.328	381
683.332	392
683.379	317
683.426	48
683.449	268
683.473	438
683.521	675
683.568	756
683.571	761
683.615	592
683.662	486
683.693	585
683.709	646
683.757	1193
683.804	751
683.814	816
683.851	943
683.898	714
683.936	978
683.945	1035
683.992	1489
684.039	1008
684.057	1014
684.086	1003
684.133	1223
684.179	660
684.180	631
684.227	823
684.274	353
684.300	1421
684.321	2251
684.368	990
684.415	1343
684.422	1400
684.462	1650
684.509	1227
684.543	1028
684.556	952
684.603	1704
684.649	1244
684.665	1291
684.696	1303
684.743	984
684.786	1456
684.790	1493
684.837	1152
684.883	1662
684.908	1720
684.930	1813
684.977	1858
685.023	1767
685.029	1834
685.070	2103
685.117	1592
685.150	1854
685.164	1955
685.210	1710
685.257	2395
685.272	2313
685.303	2140
685.350	2108
685.393	1834
685.396	1802
685.443	2171
685.490	2221
685.514	2410
685.536	2546
685.583	2154
685.629	2228
685.636	2195
685.675	2005
685.722	2090
685.757	2400
685.768	2477
685.815	2332
685.861	2863
685.878	2755
685.908	2677
685.954	2572
686.000	3029
686.000	3028
686.047	2877
686.093	2459
686.121	2623
686.139	2767
686.185	2839
686.232	2810
686.242	2901
686.278	3110
686.324	2935
686.363	2921
686.370	2916
686.416	2755
686.463	3382
686.484	3089
686.509	2835
686.555	3526
686.601	3188
686.606	3212
686.647	3265
686.693	3114
686.727	3341
686.739	3430
686.785	3146
686.831	3407
686.848	3589
686.877	3943
686.923	2929
686.969	3184
686.969	3184
687.015	2944
687.061	2474
687.090	3067
687.107	3482
687.153	3403
687.199	3494
687.211	3450
687.245	3240
687.291	3667
687.332	3578
687.336	3577
687.382	3425
687.428	3730
687.453	4011
687.474	4146
687.520	3550
687.565	3537
687.574	3449
687.611	3140
687.657	3960
687.695	3556
687.702	3531
687.748	3937
687.794	4560
687.816	4612
687.839	4522
687.885	4076
687.931	3834
687.937	3837
687.976	3830
688.022	3908
688.058	3801
688.067	3808
688.113	3606
688.158	3617
688.179	3772
688.204	3975
688.249	3835
688.295	4462
688.300	4432
688.340	4279
688.386	4997
688.421	4809
688.431	4729
688.477	4364
688.522	4245
688.542	4478
688.567	4776
688.613	4573
688.658	4501
688.663	4482
688.703	4483
688.749	4948
688.784	4864
688.794	4825
688.839	4485
688.884	4440
688.905	4499
688.930	4518
688.975	4237
689.020	4623
689.026	4561
689.065	4379
689.110	4352
689.146	4490
689.155	4508
689.201	4373
689.246	4366
689.267	4352
689.291	4447
689.336	4705
689.381	5187
689.388	5141
689.426	4741
689.471	4690
689.509	4664
689.516	4668
689.561	4730
689.606	4771
689.630	4820
689.651	4968
689.696	4438
689.741	5060
689.750	5115
689.785	5363
689.830	5197
689.871	5254
689.875	5247
689.920	5575
689.965	4881
689.992	4889
690.010	4995
690.054	5502
690.099	5370
690.112	5364
690.144	5446
690.189	5574
690.233	5942
690.233	5955
690.278	6025
690.323	6431
690.354	6579
690.367	6650
690.412	6380
690.457	6740
690.474	6654
690.501	6734
690.546	7209
690.590	7622
690.595	7678
690.635	8239
690.680	8088
690.716	8485
690.724	8685
690.769	9583
690.813	10709
690.836	11080
690.857	12368
690.902	14925
690.946	18038
690.957	18694
690.991	25485
691.035	34452
691.077	43247
691.080	44064
691.124	58173
691.168	71393
691.198	80329
691.213	76108
691.257	63432
691.301	50260
691.318	45282
691.346	39680
691.390	29967
691.434	20134
691.439	19018
691.478	16602
691.522	14306
691.559	11834
691.567	11689
691.611	11062
691.655	10151
691.680	9686
691.699	9518
691.743	8657
691.787	8444
691.800	8225
691.831	7986
691.875	7829
691.919	7777
691.921	7759
691.964	7932
692.008	7927
692.041	7807
692.052	7798
692.096	7689
692.139	7992
692.162	7947
692.183	7810
692.227	7853
692.271	7264
692.282	7247
692.315	7402
692.359	7317
692.402	7301
692.403	7320
692.447	7036
692.490	7622
692.523	7745
692.534	7764
692.578	7926
692.622	7860
692.643	7781
692.666	7706
692.709	7510
692.753	7650
692.763	7628
692.797	7862
692.840	8068
692.884	8460
692.884	8481
692.928	8469
692.971	8147
693.004	8182
693.015	8298
693.059	8657
693.102	8864
693.124	9047
693.146	9251
693.189	9647
693.233	9487
693.245	9591
693.276	10289
693.320	10782
693.363	11692
693.365	11690
693.407	12875
693.450	14207
693.485	15167
693.493	15741
693.537	18538
693.580	21300
693.605	22926
693.624	25645
693.667	31706
693.710	38209
693.725	40414
693.753	53825
693.797	74384
693.840	95393
693.845	97798
693.883	125654
693.926	156325
693.966	184443
693.970	181892
694.013	150981
694.056	120147
694.086	98483
694.099	91935
694.142	70662
694.185	49125
694.206	39071
694.229	36062
694.272	29403
694.315	22916
694.326	21194
694.358	19708
694.401	17788
694.444	15683
694.446	15559
694.487	14790
694.530	13232
694.566	12341
694.573	12277
694.616	11315
694.659	10782
694.686	10257
694.702	10239
694.745	10115
694.787	9860
694.806	9822
694.830	9688
694.873	9177
694.916	8911
694.926	8781
694.959	8657
695.002	8750
695.044	8181
695.046	8158
695.087	8183
695.130	7991
695.166	7875
695.172	7973
695.215	8416
695.258	8607
695.286	8916
695.301	8943
695.343	8878
695.386	8934
695.406	8818
695.428	8697
695.471	8491
695.514	8492
695.526	8429
695.556	8599
695.599	8713
695.641	8857
695.646	8854
695.684	8779
695.726	8629
695.766	8439
695.769	8455
695.811	8502
695.854	8338
695.886	8248
695.896	8249
695.938	8249
695.981	8011
696.005	8003
696.023	8139
696.065	8177
696.108	8283
696.125	8362
696.150	8406
696.192	8357
696.235	8253
696.245	8212
696.277	8260
696.319	8470
696.361	8385
696.365	8361
696.404	8853
696.446	9372
696.485	9823
696.488	9858
696.530	10086
696.572	9941
696.604	10046
696.614	9983
696.656	9543
696.698	9058
696.724	8768
696.740	8867
696.783	8997
696.825	9050
696.844	9128
696.867	9008
696.909	8560
696.951	8191
696.964	8023
696.992	8068
697.034	8304
697.076	8322
697.083	8330
697.118	8378
697.160	8254
697.202	8130
697.203	8103
697.244	8367
697.286	8549
697.323	8657
697.327	8634
697.369	8208
697.411	7748
697.442	7426
697.453	7505
697.494	7582
697.536	7867
697.562	7929
697.578	7925
697.620	7990
697.661	7834
697.682	7831
697.703	7980
697.744	8108
697.786	8326
697.801	8340
697.828	8405
697.869	8578
697.911	8697
697.921	8700
697.952	8485
697.994	8171
698.035	7873
698.040	7803
698.077	7875
698.118	7991
698.160	8135
698.160	8111
698.201	8295
698.243	8417
698.279	8555
698.284	8569
698.325	8414
698.367	8293
698.399	8165
698.408	8205
698.449	8246
698.491	8331
698.518	8336
698.532	8388
698.573	8467
698.614	8585
698.638	8598
698.656	8592
698.697	8568
698.738	8484
698.757	8434
698.779	8627
698.820	8928
698.862	9239
698.877	9329
698.903	9335
698.944	9289
698.985	9246
698.996	9208
699.026	9123
699.067	8961
699.116	8745
699.235	8536
699.354	8530
699.474	8076
699.593	8851
699.713	8962
699.832	8181
699.951	8928
700.070	7944
700.190	8591
700.309	8637
700.428	7246
700.547	8412
700.667	8591
700.786	8831
700.905	8688
701.024	7836
701.143	7859
701.262	7326
701.381	7670
701.500	8092
701.619	8005
701.738	8186
701.857	7492
701.976	7117
702.095	7917
702.214	8179
702.333	8780
702.452	7795
702.571	7271
702.690	8016
702.809	7772
702.928	8251
703.047	7890
703.165	7661
703.284	7496
703.403	7269
703.522	7042
703.640	8055
703.759	7464
703.878	9088
703.997	8134
704.115	7793
704.234	7247
704.353	6942
704.471	7272
704.590	7522
704.708	7499
704.827	6805
704.946	6613
705.064	7644
705.183	7470
705.301	7702
705.420	9423
705.538	11122
705.656	9714
705.775	10011
705.893	16255
706.012	41691
706.130	18957
706.249	9827
706.367	9303
706.485	8894
706.604	8431
706.722	8003
706.840	8759
706.958	10540
707.077	9717
707.195	8853
707.313	8585
707.431	8159
707.549	8095
707.668	7607
707.786	7957
707.904	8113
708.022	7711
708.140	8132
708.258	7672
708.376	7738
708.494	7759
708.612	8261
708.730	8744
708.848	11928
708.966	9416
709.084	10453
709.202	9404
709.320	8766
709.438	8833
709.556	8955
709.674	8738
709.791	9452
709.909	8855
710.027	8652
710.145	8854
710.263	9116
710.380	8822
710.498	8770
710.616	9004
710.733	8621
710.851	8887
710.969	8933
711.086	8431
711.204	9161
711.322	8468
711.439	8569
711.557	9191
711.674	8423
711.792	8954
711.909	9930
712.027	13248
712.144	10333
712.262	7594
712.379	7689
712.497	9954
712.614	11484
712.732	11094
712.849	10335
712.966	9496
713.084	10226
713.201	10988
713.318	10537
713.436	9577
713.553	9705
713.670	10550
713.787	9618
713.905	9599
714.022	9924
714.139	9250
714.256	9537
714.373	9121
714.490	9753
714.608	10359
714.725	14341
714.842	29002
714.959	14063
715.076	9401
715.193	8286
715.310	8957
715.427	9395
715.544	8612
715.661	8342
715.778	7911
715.895	8959
716.011	7977
716.128	7851
716.245	7891
716.362	8143
716.479	8578
716.596	7642
716.713	8164
716.829	8240
716.946	7873
717.063	7953
717.180	7978
717.296	7516
717.413	7809
717.530	7322
717.646	7394
717.763	7892
717.880	7284
717.996	7268
718.113	6404
718.229	7307
718.346	7420
718.462	7383
718.579	7851
718.695	8514
718.812	9906
718.928	9070
719.045	8435
719.161	7087
719.277	6791
719.394	6256
719.510	7295
719.626	7381
719.743	8038
719.859	8155
719.975	7700
720.092	7764
720.208	12352
720.324	11275
720.440	7724
720.557	7488
720.673	8378
720.789	8957
720.905	14106
721.021	16827
721.137	7164
721.253	6682
721.369	6519
721.486	7125
721.602	8005
721.718	8167
721.834	6435
721.950	6275
722.066	6538
722.181	6290
722.297	6256
722.413	7042
722.529	5497
722.645	7184
722.761	6365
722.877	5099
722.993	6046
723.108	6046
723.224	5693
723.340	5157
723.456	6368
723.571	6127
723.687	5037
723.803	6264
723.918	5138
724.034	5251
724.150	6531
724.265	5990
724.381	7004
724.497	11690
724.612	7059
724.728	5139
724.843	5841
724.959	5750
725.074	6735
725.190	10390
725.305	6981
725.421	5346
725.536	4910
725.651	5367
725.767	5696
725.882	5619
725.997	5320
726.113	4892
726.228	5336
726.343	4868
726.459	4431
726.574	4754
726.689	5123
726.804	4744
726.920	5109
727.035	4577
727.150	5405
727.265	4931
727.380	5229
727.495	5377
727.610	5124
727.725	5563
727.841	5603
727.956	10497
728.071	21482
728.186	6338
728.301	4768
728.416	4687
728.531	5195
728.645	4174
728.760	4457
728.875	4794
728.990	4387
729.105	4490
729.220	4541
729.335	5125
729.449	5005
729.564	3732
729.679	4601
729.794	4460
729.908	4402
730.023	4786
730.138	4675
730.253	4238
730.367	4726
730.482	4815
730.596	4091
730.711	3681
730.826	4859
730.940	4513
731.055	4549
731.169	4686
731.284	3696
731.398	4329
731.513	4131
731.627	4559
731.742	4361
731.856	5016
731.970	4571
732.085	4539
732.199	3884
732.313	3847
732.428	4682
732.542	6029
732.656	6363
732.771	4204
732.885	4242
732.999	3884
733.113	4763
733.227	5087
733.342	4050
733.456	2870
733.570	4282
733.684	4025
733.798	4443
733.912	4276
734.026	3283
734.140	3499
734.254	4118
734.368	4477
734.482	6642
734.596	4590
734.710	3628
734.824	3822
734.938	4293
735.052	4067
735.166	4628
735.280	4396
735.393	3925
735.507	4179
735.621	4253
735.735	5109
735.849	5660
735.962	4113
736.076	4009
736.190	3613
736.303	4385
736.417	6090
736.531	3998
736.644	2964
736.758	4574
736.872	3782
736.985	3383
737.099	4120
737.212	3505
737.326	3370
737.439	3581
737.553	3781
737.666	4142
737.780	3567
737.893	3626
738.007	3173
738.120	3169
738.233	3268
738.347	3479
738.460	3718
738.573	3774
738.687	4253
738.800	4440
738.913	3637
739.026	4255
739.140	4059
739.253	5038
739.366	3924
739.479	3711
739.592	3066
739.705	3895
739.818	3225
739.932	4257
740.045	3558
740.158	3712
740.271	3526
740.384	3559
740.497	3037
740.610	3492
740.723	3044
740.836	4024
740.949	3609
741.062	2922
741.174	4234
741.287	3384
741.400	3903
741.513	3634
741.626	3623
741.739	3639
741.851	3897
741.964	3274
742.077	3726
742.189	3343
742.302	3322
742.415	3489
742.527	3645
742.640	3359
742.753	3295
742.865	3293
742.978	2791
743.090	3286
743.203	3173
743.316	3011
743.428	3887
743.541	3264
743.653	2838
743.766	3591
743.878	3457
743.990	3700
744.103	4335
744.215	3542
744.327	3805
744.440	4023
744.552	3437
744.664	3158
744.777	3738
744.889	2853
745.001	4134
745.113	2699
745.226	3834
745.338	3158
745.450	2344
745.562	3455
745.674	3560
745.786	3390
745.898	3517
746.010	4133
746.122	4023
746.234	3896
746.347	4079
746.459	2704
746.570	3308
746.682	3087
746.794	4305
746.906	2928
747.018	3897
747.130	3767
747.242	4241
747.354	3704
747.466	3000
747.577	3779
747.689	3245
747.801	4010
747.913	3825
748.024	3391
748.136	3016
748.248	3938
748.359	3414
748.471	4309
748.583	3867
748.694	3335
748.806	4694
748.918	4497
749.029	3740
749.141	3268
749.252	3959
749.364	3688
749.475	3920
749.587	4836
749.698	4381
749.809	3463
749.921	3873
750.032	3982
750.144	3675
750.255	3756
750.366	3760
750.478	2736
750.589	3872
750.700	4197
750.811	3703
750.923	4499
751.034	4049
751.145	5259
751.256	4005
751.367	4394
751.479	3449
751.590	3040
751.701	4284
751.812	3858
751.923	4412
752.034	3671
752.145	3921
752.256	3109
752.367	3669
752.478	4041
752.589	3774
752.700	3733
752.811	4040
752.922	3883
753.032	3918
753.143	4031
753.254	3607
753.365	4491
753.476	5048
753.586	3400
753.697	3698
753.808	3661
753.919	3810
754.029	4325
754.140	3816
754.251	4263
754.361	3782
754.472	4187
754.582	4781
754.693	4009
754.804	4434
754.914	3986
755.025	4195
755.135	3946
755.246	4631
755.356	4533
755.466	4753
755.577	5023
755.687	4272
755.798	4083
755.908	5057
756.018	4685
756.129	5279
756.239	5059
756.349	5136
756.460	4809
756.570	5103
756.680	4803
756.790	5131
756.900	6037
757.011	4738
757.121	5413
757.231	5845
757.341	5149
757.451	5862
757.561	5796
757.671	5985
757.781	5598
757.891	6751
758.001	5328
758.111	6209
758.221	5104
758.331	6120
758.441	6819
758.551	6820
758.661	6520
758.771	6835
758.880	7004
758.990	6300
759.100	7633
759.210	7588
759.320	7194
759.429	7407
759.539	8380
759.649	7614
759.758	7891
759.868	8201
759.978	7901
760.087	8156
760.197	8816
760.307	8069
760.416	9323
760.526	8653
760.635	9275
760.745	8974
760.854	9338
760.964	10126
761.073	9538
761.182	10698
761.292	11632
761.401	10882
761.511	11086
761.620	11708
761.729	11812
761.839	12586
761.948	13400
762.057	13468
762.166	12420
762.276	13133
762.385	14985
762.494	14899
762.603	15343
762.712	16410
762.822	17277
762.931	17767
763.040	18638
763.149	19165
763.258	19545
763.367	20661
763.476	22002
763.585	22908
763.694	24988
763.803	25504
763.912	28424
764.021	29618
764.130	31414
764.238	33926
764.347	36394
764.456	39078
764.565	42212
764.674	45741
764.783	49281
764.891	55103
765.000	61094
765.109	68521
765.217	77134
765.326	89072
765.435	100552
765.543	119998
765.652	140560
765.761	169171
765.869	205161
765.978	250515
766.086	302545
766.195	352524
766.303	373956
766.412	312540
766.520	200100
766.629	287630
766.737	384218
766.846	374360
766.954	316602
767.062	260927
767.171	209321
767.279	172465
767.387	139595
767.496	115556
767.604	98853
767.712	86912
767.820	75767
767.928	69348
768.037	64128
768.145	59197
768.253	55523
768.361	54511
768.469	53318
768.577	53057
768.685	54967
768.793	57761
768.901	63872
769.009	69524
769.117	82508
769.225	98564
769.333	123342
769.441	160903
769.549	216933
769.657	290359
769.765	347194
769.873	288195
769.981	237032
770.088	350473
770.196	317123
770.304	248797
770.412	187450
770.519	148072
770.627	117515
770.735	96135
770.842	82235
770.950	71040
771.058	60304
771.165	53159
771.273	47181
771.380	43171
771.488	38443
771.595	35616
771.703	32970
771.810	31099
771.918	28423
772.025	25889
772.133	24579
772.240	22924
772.348	21603
772.455	21025
772.562	19346
772.670	18525
772.777	17131
772.884	17035
772.991	16014
773.099	15383
773.206	14959
773.313	14583
773.420	13681
773.528	13100
773.635	12745
773.742	13523
773.849	11470
773.956	11357
774.063	9663
774.170	10764
774.277	10417
774.384	9557
774.491	9710
774.598	9137
774.705	9186
774.812	9286
774.919	8884
775.026	9090
775.133	8638
775.239	8269
775.346	8397
775.453	7708
775.560	8188
775.667	7833
775.773	7492
775.880	7909
775.987	6742
776.093	7278
776.200	6772
776.307	6036
776.413	6876
776.520	5994
776.627	6742
776.733	7048
776.840	6408
776.946	6318
777.053	5903
777.159	6190
777.266	5343
777.372	5736
777.478	5216
777.585	5349
777.691	5423
777.798	5708
777.904	6509
778.010	6120
778.117	6102
778.223	4475
778.329	4225
778.435	4948
778.542	5331
778.648	4074
778.754	4332
778.860	4430
778.966	5032
779.072	4248
779.178	4650
779.284	4236
779.391	4309
779.497	5158
779.603	6333
779.708	8229
779.815	14186
779.920	35208
780.026	113299
780.132	101330
780.238	18454
780.344	9009
780.450	6508
780.556	5436
780.661	4203
780.767	4884
780.873	4148
780.979	3893
781.085	3470
781.190	3707
781.296	3642
781.402	3606
781.507	3184
781.613	2264
781.719	2945
781.824	2780
781.930	2489
782.035	2772
782.141	3018
782.246	3123
782.352	2926
782.457	3060
782.563	2676
782.668	2234
782.773	2588
782.879	2640
782.984	3286
783.090	2728
783.195	3024
783.300	3686
783.405	2366
783.511	2655
783.616	2713
783.721	2508
783.826	2825
783.932	2832
784.037	2589
784.142	2922
784.247	2043
784.352	2663
784.457	1652
784.562	2674
784.667	2504
784.772	2210
784.877	2305
784.982	2560
785.087	2026
785.192	2054
785.297	1714
785.402	2520
785.507	1858
785.611	2384
785.716	1892
785.821	1697
785.926	2119
786.031	1556
786.135	2200
786.240	2403
786.345	1521
786.450	1631
786.554	1733
786.659	1608
786.763	1582
786.868	1603
786.973	1947
787.077	2090
787.182	1537
787.286	1348
787.391	1696
787.495	1779
787.600	2076
787.704	1142
787.809	1604
787.913	1868
788.017	1462
788.122	1979
788.226	1549
788.330	1270
788.435	1681
788.539	894
788.643	1193
788.747	1713
788.852	1352
788.956	1237
789.060	1805
789.164	1372
789.268	1365
789.372	2522
789.476	924
789.580	1713
789.684	1774
789.788	1386
789.892	1142
789.996	954
790.100	1259
790.204	1618
790.308	1426
790.412	1661
790.516	1655
790.620	1786
790.724	2530
790.828	1259
790.931	1165
791.035	1188
791.139	2072
791.242	1344
791.346	1930
791.450	1024
791.554	1216
791.657	679
791.761	846
791.864	1894
791.968	1330
792.072	1920
792.175	1159
792.279	952
792.382	807
792.486	554
792.589	1444
792.693	1154
792.796	1029
792.899	1672
793.003	1357
793.106	1262
793.209	437
793.313	1896
793.416	503
793.519	1901
793.623	766
793.726	1910
793.829	1574
793.932	1437
794.035	664
794.138	1352
794.242	1605
794.345	1750
794.448	3261
794.551	6508
794.654	19231
794.757	65959
794.860	66826
794.963	9575
795.066	2853
795.169	2970
795.272	2131
795.375	1771
795.477	837
795.580	1569
795.683	713
795.786	1050
795.889	24
795.991	1607
796.094	1103
796.197	801
796.300	1844
796.402	824
796.505	866
796.608	-50
796.710	611
796.813	273
796.915	467
797.018	1768
797.120	-132
797.223	1096
797.326	892
797.428	334
797.530	922
797.633	278
797.735	691
797.838	566
797.940	2392
798.042	423
798.145	965
798.247	1138
798.349	347
798.452	1245
798.554	211
798.656	-97
798.758	783
798.860	1072
798.962	-895
799.065	1215
799.167	557
799.269	879
799.371	855
799.473	1573
799.575	568
799.677	854
799.779	1464
799.881	968
799.983	1183
800.085	-16
800.187	916
800.289	-120
800.390	661
800.492	804
800.594	1096
800.696	178
800.798	297
800.899	562
801.001	182
801.103	123
801.205	-18
801.306	216
801.408	251
801.509	374
801.611	478
801.713	500
801.814	481
801.916	631
802.017	787
802.119	352
802.220	397
802.322	44
802.423	642
802.525	641
802.626	651
802.727	370
802.829	1028
802.930	-189
803.031	965
803.133	220
803.234	66
803.335	410
803.436	98
803.538	128
803.639	-308
803.740	1062
803.841	106
803.942	395
804.043	87
804.144	859
804.245	93
804.346	-525
804.447	-438
804.548	861
804.649	518
804.750	1016
804.851	481
804.952	-56
805.053	483
805.154	8
805.255	765
805.355	1148
805.456	-187
805.557	377
805.658	648
805.758	962
805.859	238
805.960	560
806.061	-76
806.161	-65
806.262	399
806.362	-91
806.463	782
806.564	468
806.664	233
806.765	306
806.865	381
806.966	418
807.066	58
807.166	492
807.267	519
807.367	325
807.468	-597
807.568	-145
807.668	297
807.769	510
807.869	158
807.969	303
808.069	413
808.170	292
808.270	-192
808.370	575
808.470	45
808.570	-297
808.670	21
808.770	447
808.870	-68
808.970	10
809.070	677
809.170	-305
809.271	450
809.370	-97
809.470	635
809.570	255
809.670	-87
809.770	-2
809.870	400
809.970	-405
810.070	165
810.169	796
810.269	-449
810.369	458
810.469	-89
810.568	150
810.668	-27
810.768	-141
810.867	28
810.967	-122
811.066	71
811.166	449
811.265	1326
811.365	-167
811.464	100
811.564	-330
811.663	-48
811.763	-45
811.862	792
811.962	699
812.061	343
812.160	294
812.260	227
812.359	266
812.458	836
812.557	1965
812.657	3413
812.756	4215
812.855	929
812.954	710
813.053	1058
813.153	335
813.252	-152
813.351	463
813.450	144
813.549	430
813.648	1349
813.747	254
813.846	109
813.945	851
814.044	-484
814.143	109
814.242	-394
814.341	118
814.439	496
814.538	851
814.637	160
814.736	586
814.835	1055
814.933	807
815.032	416
815.131	309
815.229	57
815.328	1156
815.427	920
815.525	241
815.624	1425
815.722	954
815.821	782
815.919	560
816.018	1717
816.116	1564
816.215	1630
816.313	1642
816.412	1843
816.510	1144
816.609	1603
816.707	2289
816.805	1864
816.904	2328
817.002	2784
817.100	3137
817.198	3374
817.296	3466
817.395	4988
817.493	5804
817.591	5815
817.689	8706
817.787	10953
817.885	15846
817.983	25951
818.081	43923
818.179	84987
818.277	169230
818.375	265082
818.473	202805
818.571	94369
818.669	51296
818.767	35119
818.865	30908
818.963	31068
819.061	37417
819.158	51593
819.256	81981
819.354	143260
819.452	242226
819.549	289419
819.647	226914
819.745	127139
819.842	69244
819.940	43697
820.038	29505
820.135	21283
820.233	16800
820.330	13417
820.428	10115
820.525	9191
820.623	8320
820.720	6157
820.818	6064
820.915	5212
821.012	4209
821.110	3698
821.207	3840
821.304	2703
821.402	2551
821.499	3087
821.596	2417
821.693	3026
821.791	2360
821.888	2151
821.985	1985
822.082	2019
822.179	1986
822.276	969
822.373	1037
822.470	860
822.567	1274
822.664	1353
822.761	805
822.858	304
822.955	803
823.052	770
823.149	900
823.246	136
823.343	758
823.440	1072
823.536	525
823.633	1259
823.730	276
823.827	437
823.923	259
824.020	1226
824.117	-133
824.213	15
824.310	307
824.407	102
824.503	-66
824.600	862
824.696	703
824.793	662
824.889	-495
824.986	-304
825.082	744
825.179	1139
825.275	-30
825.371	1031
825.468	-116
825.564	-58
825.660	265
825.757	107
825.853	230
825.949	-736
826.045	232
826.142	-270
826.238	54
826.334	-94
826.430	-663
826.526	855
826.622	-353
826.718	-547
826.814	-437
826.910	-70
827.006	77
827.102	-717
827.198	276
827.294	-576
827.390	-360
827.486	59
827.582	-1139
827.678	-976
827.774	100
827.869	-919
827.965	406
828.061	-629
828.157	-395
828.252	-462
828.348	-934
828.444	-86
828.539	-1051
828.635	-401
828.731	81
828.826	-386
828.922	-566
829.017	-1487
829.113	194
829.208	-760
829.304	-742
829.399	-451
829.495	-725
829.590	-187
829.685	-559
829.781	-748
829.876	-645
829.971	-142
830.066	-274
830.162	-15
830.257	-886
830.352	-738
830.447	381
830.543	-151
830.638	-1317
830.733	-943
830.828	-709
830.923	-83
831.018	-687
831.113	-504
831.208	-124
831.303	-216
831.398	39
831.493	-951
831.588	-809
831.683	-409
831.778	-76
831.873	-1365
831.967	-422
832.062	-459
832.157	-628
832.252	364
832.346	-826
832.441	-546
832.536	-106
832.631	165
832.725	505
832.820	-580
832.914	-418
833.009	-822
833.104	-78
833.198	-377
833.293	-629
833.387	-547
833.482	-163
833.576	-925
833.670	-519
833.765	-1044
833.859	-185
833.954	-138
834.048	-711
834.142	-239
834.237	-391
834.331	-820
834.425	-607
834.519	-1222
834.613	-318
834.708	37
834.802	-303
834.896	-312
834.990	-293
835.084	-839
835.178	-602
835.272	-619
835.366	-87
835.460	-649
835.554	-1008
835.648	-14
835.742	-808
835.836	-1099
835.930	-732
836.024	-307
836.117	179
836.211	-1074
836.305	-27
836.399	-371
836.493	596
836.586	59
836.680	-792
836.774	-778
836.867	207
836.961	-1044
837.055	-1792
837.148	-1506
837.242	-412
837.335	-402
837.429	-520
837.522	-1027
837.616	-225
837.709	97
837.803	215
837.896	377
837.989	-872
838.083	-699
838.176	-40
838.269	440
838.363	1014
838.456	-1044
838.549	-264
838.642	-412
838.735	559
838.829	788
838.922	-684
839.015	-636
839.108	-686
839.201	-473
839.294	-122
839.387	-700
839.480	-478
839.573	-413
839.666	-213
839.759	-747
839.852	-376
839.945	-964
840.038	-733
840.131	-746
840.223	-751
840.316	-10
840.409	-463
840.502	-984
840.594	-328
840.687	-1008
840.780	-781
840.873	-1284
840.965	-736
841.058	-235
841.150	-246
841.243	-1161
841.336	84
841.428	-894
841.521	-1317
841.613	-67
841.706	-279
841.798	-533
841.890	-1229
841.983	-815
842.075	-1204
842.167	-494
842.260	-317
842.352	-905
842.444	-159
842.537	221
842.629	618
842.721	479
842.813	-151
842.905	-1176
842.997	-466
843.090	-956
843.182	-440
843.274	-1029
843.366	843
843.458	2432
843.550	4482
843.642	1043
843.734	-305
843.826	-574
843.918	222
844.009	-996
844.101	-81
844.193	-177
844.285	-1088
844.377	-431
844.469	333
844.560	-858
844.652	-139
844.744	-410
844.835	228
844.927	134
845.019	-939
845.110	-531
845.202	-1100
845.293	-597
845.385	-613
845.476	-986
845.568	-257
845.659	-618
845.751	-315
845.842	-804
845.934	-649
846.025	-761
846.116	-431
846.208	-377
846.299	-1076
846.390	-644
846.482	-818
846.573	-774
846.664	-126
846.755	-239
846.846	-618
846.937	-1351
847.029	-107
847.120	-1173
847.211	-862
847.302	572
847.393	-352
847.484	-526
847.575	-452
847.666	-505
847.757	-715
847.847	-1051
847.938	193
848.029	-842
848.120	-327
848.211	-1010
848.302	-331
848.392	-633
848.483	-509
848.574	-1296
848.664	-746
848.755	-485
848.846	-558
848.936	-691
849.027	-1446
849.118	-745
849.208	-1017
849.299	-605
849.389	-1099
849.480	-474
849.570	-328
849.661	-731
849.751	-857
849.841	-921
849.932	-402
850.022	-807
850.112	-188
850.203	-713
850.293	-1071
850.383	-976
850.474	-819
850.564	-1067
850.654	-447
850.744	68
850.834	-854
850.924	-971
851.014	-1011
851.104	-731
851.194	-1466
851.284	-1109
851.374	-842
851.464	-615
851.554	-347
851.644	-782
851.734	-343
851.824	-269
851.914	229
852.004	1236
852.094	3547
852.183	1385
852.273	268
852.363	-212
852.452	-778
852.542	-1016
852.632	-1101
852.721	-1337
852.811	-951
852.901	-1118
852.990	-475
853.080	-1417
853.169	-693
853.259	-1062
853.348	-813
853.438	-965
853.527	-1062
853.617	-1088
853.706	-318
853.795	-1012
853.885	-1
853.974	-33
854.063	856
854.152	1148
854.242	1712
854.331	-449
854.420	-665
854.509	-958
854.598	-707
854.687	-539
854.777	-1217
854.866	-679
854.955	-628
855.044	-1252
855.133	-1099
855.222	-637
855.311	-1288
855.400	-970
855.488	-714
855.577	-999
855.666	-451
855.755	-164
855.844	-905
855.933	-301
856.021	526
856.110	-585
856.199	-1367
856.288	-1029
856.376	-349
856.465	-798
856.554	-1126
856.642	-932
856.731	-2015
856.819	-650
856.908	-919
856.996	-1385
857.085	-1334
857.173	-785
857.262	-678
857.350	-565
857.438	-1433
857.527	-159
857.615	-907
857.703	-850
857.792	-1388
857.880	-600
857.968	-1192
858.056	-938
858.145	-1772
858.233	-841
858.321	-1614
858.409	-741
858.497	-1125
858.585	-787
858.673	-483
858.761	-1154
858.849	-1481
858.937	-1308
859.025	-508
859.113	-538
859.201	-1247
859.289	-1095
859.377	-1680
859.465	-1623
859.552	-1024
859.640	-923
859.728	-1485
859.816	-811
859.903	-1092
859.991	-1306
860.079	-950
860.166	-955
860.254	-1096
860.342	-919
860.429	-936
860.517	-1011
860.604	-904
860.692	-421
860.779	-1792
860.867	-1097
860.954	-746
861.042	-391
861.129	-461
861.216	-1095
861.304	-1104
861.391	-1070
861.478	-655
861.565	-1159
861.653	-572
861.740	-1851
861.827	-943
861.914	-1247
862.001	-957
862.089	-225
862.176	-696
862.263	-971
862.350	-1217
862.437	-1357
862.524	-1323
862.611	-479
862.698	-523
862.785	-887
862.871	-1179
862.958	-1257
863.045	-1206
863.132	-1167
863.219	-133
863.306	-1489
863.392	-828
863.479	-1279
863.566	-920
863.652	-742
863.739	-1270
863.826	-689
863.912	-800
863.999	-1962
864.086	-667
864.172	-1192
864.259	-766
864.345	-1285
864.432	-582
864.518	-1196
864.604	-1268
864.691	-1072
864.777	-370
864.863	-752
864.950	-1013
865.036	-1536
865.122	-1018
865.209	-1201
865.295	-1067
865.381	-1554
865.467	-1387
865.553	-564
865.639	-597
865.726	-1117
865.812	-620
865.898	-332
865.984	-1096
866.070	76
866.156	1828
866.242	284
866.328	-1064
866.414	-1140
866.499	-885
866.585	-936
866.671	-1076
866.757	-994
866.843	-1341
866.928	-1146
867.014	-1106
867.100	-128
867.186	-1249
867.271	-1704
867.357	-1220
867.442	-221
867.528	-609
867.614	-1336
867.699	-1644
867.785	75
867.870	-1179
867.956	-1264
868.041	-238
868.127	-1354
868.212	-594
868.297	-1064
868.383	-1077
868.468	-412
868.553	-350
868.639	-919
868.724	239
868.809	470
868.894	472
868.979	-833
869.065	-1427
869.150	-1528
869.235	-1226
869.320	-1394
869.405	-1251
869.490	-1020
869.575	-875
869.660	-668
869.745	-583
869.830	-822
869.915	-1435
870.000	-1235
870.085	-1392
870.169	-922
870.254	-915
870.339	-1482
870.424	-1568
870.509	-904
870.593	-807
870.678	-644
870.763	-731
870.847	-896
870.932	-1315
871.016	-962
871.101	-669
871.186	-1327
871.270	-1523
871.355	-106
871.439	-973
871.523	-1681
871.608	-1659
871.692	-1517
871.777	-967
871.861	-326
871.945	-1802
872.030	-851
872.114	-1294
872.198	-1624
872.282	-1274
872.367	-1811
872.451	-1309
872.535	-1062
872.619	-675
872.703	-1651
872.787	-727
872.871	-1195
872.955	-963
873.039	-610
873.123	-915
873.207	-773
873.291	-1038
873.375	-1084
873.459	-925
873.543	-1240
873.627	-1236
873.711	-1373
873.794	-1143
873.878	-1130
873.962	-1502
874.045	-558
874.129	-1021
874.137	-1067
874.213	-1531
874.245	-1397
874.296	-1183
874.352	-1279
874.380	-1321
874.460	-1144
874.464	-1139
874.547	-965
874.568	-908
874.631	-742
874.676	-792
874.714	-843
874.784	-1114
874.798	-1158
874.881	-885
874.892	-850
874.965	-661
874.999	-1095
875.048	-1657
875.107	-1284
875.131	-1162
875.215	-545
875.215	-545
875.298	-1608
875.323	-1352
875.381	-760
875.430	-842
875.465	-914
875.538	-1306
875.548	-1352
875.631	-1104
875.646	-962
875.714	-277
875.753	-771
875.798	-1354
875.861	-1297
875.881	-1280
875.964	-624
875.968	-664
876.047	-1417
876.076	-1182
876.130	-659
876.183	-1012
876.213	-1289
876.291	-637
876.296	-587
876.379	-1529
876.398	-1369
876.462	-725
876.506	-875
876.545	-1006
876.613	-450
876.628	-377
876.711	-1140
876.721	-1156
876.794	-1018
876.828	-796
876.877	-613
876.935	-1101
876.960	-1245
877.043	-1062
877.043	-1061
877.125	-777
877.150	-563
877.208	-67
877.258	-280
877.291	-405
877.365	-1355
877.374	-1448
877.456	-385
877.472	-401
877.539	-759
877.579	-915
877.622	-1042
877.687	-842
877.704	-731
877.787	-163
877.794	-225
877.869	-1151
877.901	-1024
877.952	-675
878.008	-328
878.034	-217
878.115	-794
878.117	-803
878.199	-985
878.222	-986
878.282	-896
878.329	-574
878.364	-460
878.437	-842
878.447	-824
878.529	-1327
878.544	-1090
878.611	-546
878.651	-633
878.694	-604
878.758	-869
878.776	-894
878.858	-530
878.865	-522
878.941	-679
878.972	-674
879.023	-735
879.078	-849
879.105	-810
879.185	-1000
879.187	-1005
879.269	-1145
879.292	-1035
879.351	-562
879.399	-464
879.433	-444
879.506	-166
879.516	-150
879.598	-1098
879.613	-1068
879.680	-867
879.720	-727
879.762	-554
879.827	-727
879.844	-794
879.926	-952
879.933	-941
880.007	-455
880.040	-265
880.089	-261
880.147	-539
880.171	-589
880.253	-574
880.254	-575
880.335	-557
880.360	-395
880.417	26
880.467	-284
880.499	-453
880.574	313
880.580	390
880.662	286
880.680	195
880.744	-376
880.787	-542
880.825	-594
880.893	-726
880.907	-798
880.989	-561
881.000	-554
881.070	-205
881.106	-348
881.152	-568
881.213	-666
881.233	-730
881.315	-1099
881.319	-1108
881.396	-857
881.426	-679
881.478	-609
881.532	-463
881.559	-267
881.639	-279
881.641	-283
881.722	-430
881.745	-459
881.803	-648
881.852	-874
881.885	-943
881.958	-921
881.966	-903
882.047	-549
882.064	-469
882.129	-287
882.171	-470
882.210	-470
882.277	-289
882.291	-341
882.372	-751
882.383	-757
882.454	-264
882.489	-162
882.535	-351
882.596	-605
882.616	-551
882.697	-576
882.702	-541
882.778	-300
882.808	-297
882.859	-440
882.914	-813
882.940	-664
883.020	108
883.021	111
883.102	-196
883.127	-379
883.183	-531
883.233	-468
883.264	-422
883.339	-224
883.345	-199
883.426	-481
883.445	-358
883.507	-133
883.551	-524
883.587	-695
883.657	-409
883.668	-402
883.749	-399
883.763	-411
883.830	-389
883.869	-617
883.910	-770
883.975	-520
883.991	-527
884.072	-494
884.081	-556
884.152	-455
884.187	-361
884.233	-403
884.292	-237
884.314	-244
884.394	-439
884.398	-454
884.475	-571
884.504	-611
884.555	-520
884.610	-310
884.636	-384
884.716	-1013
884.716	-1011
884.797	-522
884.821	-484
884.877	-615
884.927	-617
884.958	-573
885.033	-467
885.038	-470
885.118	-588
885.139	-648
885.199	-757
885.244	-655
885.279	-549
885.350	-959
885.359	-988
885.439	-421
885.456	-441
885.520	-579
885.561	-519
885.600	-631
885.667	-673
885.680	-568
885.760	-414
885.773	-353
885.840	-434
885.878	-443
885.920	-303
885.984	-253
886.000	-320
886.080	-566
886.089	-599
886.160	-625
886.195	-655
886.240	-703
886.300	-693
886.320	-595
886.400	-255
886.406	-227
886.480	-86
886.511	-196
886.560	-251
886.616	-171
886.640	-222
886.720	-145
886.722	-155
886.800	-28
886.827	13
886.879	-315
886.932	-476
886.959	-249
887.038	249
887.039	246
887.119	-441
887.143	-613
887.198	-527
887.248	-465
887.278	-448
887.354	-360
887.358	-347
887.437	-372
887.459	-323
887.517	-193
887.564	-130
887.596	-136
887.669	-186
887.676	-162
887.755	172
887.774	225
887.835	-352
887.880	-745
887.914	-592
887.985	-406
887.994	-346
888.073	256
888.090	385
888.153	245
888.195	68
888.232	9
888.300	-64
888.311	-27
888.391	182
888.405	218
888.470	166
888.510	126
888.549	202
888.615	373
888.628	289
888.708	-300
888.720	-403
888.787	-65
888.825	149
888.866	52
888.930	-96
888.945	-53
889.024	113
889.035	140
889.103	356
889.140	447
889.182	263
889.245	-37
889.261	-15
889.340	104
889.349	113
889.419	-122
889.454	-238
889.498	-187
889.559	-135
889.577	-125
889.656	-80
889.664	-75
889.735	285
889.768	454
889.814	329
889.873	162
889.978	-357
890.083	-333
890.187	-319
890.292	351
890.397	-213
890.501	34
890.606	265
890.710	58
890.815	434
890.919	-165
891.024	-159
891.128	706
891.233	141
891.337	-76
891.442	-515
891.546	218
891.650	-365
891.755	315
891.859	351
891.963	718
892.068	-793
892.172	-717
892.276	-540
892.380	-451
892.484	139
892.589	145
892.693	-428
892.797	-294
892.901	398
893.005	354
893.109	534
893.213	-71
893.317	-295
893.421	-185
893.525	-174
893.629	-390
893.733	-153
893.837	78
893.941	175
894.045	-141
894.148	-551
894.252	566
894.356	240
894.460	371
894.564	-216
894.667	-65
894.771	-538
894.875	34
894.978	127
895.082	-570
895.186	-93
895.289	125
895.393	338
895.496	358
895.600	-541
895.703	100
895.807	179
895.910	-180
896.014	-294
896.117	11
896.221	27
896.324	-83
896.427	-267
896.531	-14
896.634	-87
896.737	-1231
896.840	-188
896.944	-264
897.047	-395
897.150	-89
897.253	-176
897.356	417
897.460	-427
897.563	-665
897.666	148
897.769	-76
897.872	-138
897.975	-703
898.078	-197
898.181	-574
898.284	472
898.387	-953
898.490	341
898.593	-526
898.695	-82
898.798	-788
898.901	364
899.004	15
899.107	-20
899.209	250
899.312	-566
899.415	-40
899.518	-72
899.620	-485
899.723	-154
899.826	-212
899.928	-69
900.031	260
900.133	-641
900.236	-662
900.338	219
900.441	611
900.543	-275
900.646	273
900.748	-603
900.851	-183
900.953	-27
901.055	-128
901.158	-460
901.260	-66
901.362	-196
901.465	-261
901.567	-585
901.669	805
901.771	-132
901.873	-366
901.976	-774
902.078	-315
902.180	-460
902.282	-923
902.384	273
902.486	-654
902.588	-107
902.690	-667
902.792	-367
902.894	-231
902.996	-150
903.098	-423
903.200	-344
903.302	330
903.404	257
903.505	-466
903.607	22
903.709	-184
903.811	71
903.913	-816
904.014	-39
904.116	-614
904.218	7
904.319	-664
904.421	-730
904.523	384
904.624	-450
904.726	-275
904.827	-730
904.929	-661
905.030	71
905.132	-55
905.233	251
905.335	-123
905.436	-105
905.537	-635
905.639	-380
905.740	153
905.841	-688
905.943	44
906.044	275
906.145	-217
906.247	-93
906.348	6
906.449	-27
906.550	-424
906.651	-86
906.752	126
906.854	-398
906.955	-214
907.056	-190
907.157	-404
907.258	-402
907.359	296
907.460	-74
907.561	-565
907.662	-192
907.762	-77
907.863	-383
907.964	-241
908.065	97
908.166	-37
908.267	-636
908.367	-492
908.468	193
908.569	248
908.670	-142
908.770	534
908.871	-256
908.971	-532
909.072	-120
909.173	-93
909.273	52
909.374	-321
909.474	-114
909.575	211
909.675	-560
909.776	-54
909.876	-4
909.977	-382
910.077	-120
910.177	80
910.278	-328
910.378	-335
910.478	31
910.579	-898
910.679	-472
910.779	-179
910.879	-962
910.980	-280
911.080	126
911.180	-521
911.280	296
911.380	130
911.480	-580
911.580	-658
911.680	863
911.780	-46
911.880	-145
911.980	-391
912.080	-31
912.180	-147
912.280	226
912.380	547
912.480	-486
912.580	-296
912.679	-197
912.779	451
912.879	-73
912.979	-55
913.078	-358
913.178	295
913.278	-419
913.377	-56
913.477	138
913.577	-125
913.676	463
913.776	-847
913.875	39
913.975	-93
914.074	-219
914.174	-741
914.273	-229
914.373	-505
914.472	-209
914.572	267
914.671	9
914.770	-505
914.870	352
914.969	-1018
915.068	415
915.167	-265
915.267	169
915.366	-233
915.465	348
915.564	-1237
915.663	141
915.763	-301
915.862	-591
915.961	524
916.060	-436
916.159	-1297
916.258	24
916.357	-383
916.456	412
916.555	-415
916.654	-832
916.752	33
916.851	592
916.950	-367
917.049	307
917.148	-82
917.247	10
917.345	-186
917.444	249
917.543	-695
917.642	347
917.740	-183
917.839	-132
917.937	-26
918.036	0
918.135	-602
918.233	-17
918.332	-121
918.430	-334
918.529	-202
918.627	-1077
918.726	298
918.824	-9
918.923	-518
919.021	-371
919.119	-226
919.218	-170
919.316	-133
919.414	-527
919.512	-534
919.611	143
919.709	222
919.807	-61
919.905	-325
920.003	563
920.102	476
920.200	-9
920.298	99
920.396	-421
920.494	-388
920.592	80
920.690	-280
920.788	52
920.886	-427
920.984	53
921.082	-534
921.180	477
921.277	-310
921.375	-544
921.473	-1443
921.571	-123
921.669	-279
921.766	-386
921.864	-362
921.962	-273
922.060	1055
922.157	-93
922.255	274
922.352	-208
922.450	-67
922.548	-895
922.645	-26
922.743	-455
922.840	-306
922.938	320
923.035	-160
923.133	-455
923.230	115
923.327	-254
923.425	-108
923.522	-108
923.619	-443
923.717	-551
923.814	154
923.911	-833
924.008	-226
924.106	246
924.203	-742
924.300	-555
924.397	-764
924.494	-33
924.591	-215
924.688	-57
924.786	49
924.883	406
924.979	-6
925.077	304
925.173	-370
925.270	-309
925.367	-614
925.464	-58
925.561	20
925.658	-179
925.755	-672
925.852	-609
925.948	-265
926.045	-688
926.142	-282
926.239	-554
926.335	-32
926.432	25
926.529	-239
926.625	-795
926.722	-125
926.818	117
926.915	-367
927.011	-703
927.108	-922
927.204	-735
927.301	-145
927.397	-183
927.494	79
927.590	22
927.687	-320
927.783	-33
927.879	-909
927.976	-347
928.072	-121
928.168	-74
928.264	-346
928.361	-181
928.457	133
928.553	255
928.649	-230
928.745	-417
928.841	-697
928.937	-324
929.033	-521
929.129	-296
929.225	-836
929.321	-300
929.417	-39
929.513	-405
929.609	-331
929.705	-1047
929.801	-88
929.897	-1252
929.993	-532
930.089	-297
930.184	-867
930.280	-135
930.376	-402
930.471	-218
930.567	170
930.663	23
930.758	-490
930.854	-304
930.950	-363
931.045	-106
931.141	-155
931.236	-1125
931.332	-1127
931.427	37
931.523	-1266
931.618	-153
931.714	-1000
931.809	-128
931.905	-966
932.000	-607
932.095	-1038
932.191	-329
932.286	-688
932.381	-895
932.476	-554
932.572	-659
932.667	-358
932.762	-227
932.857	-339
932.952	-1256
933.047	-849
933.142	-836
933.237	-376
933.332	-438
933.427	-146
933.522	90
933.617	-958
933.712	-344
933.807	-566
933.902	-490
933.997	-776
934.092	-197
934.187	-839
934.282	-385
934.376	-474
934.471	-1043
934.566	-512
934.661	-581
934.755	-430
934.850	-469
934.945	-723
935.039	-866
935.134	-835
935.228	-1179
935.323	-121
935.417	-647
935.512	-629
935.606	-986
935.701	-999
935.795	-714
935.890	-39
935.984	-262
936.079	-673
936.173	-429
936.267	-592
936.362	-737
936.456	60
936.550	-704
936.644	-508
936.738	-487
936.833	-588
936.927	-79
937.021	-1147
937.115	-666
937.209	-459
937.303	-550
937.397	-826
937.491	-1110
937.585	-437
937.679	-449
937.773	-771
937.867	-929
937.961	-1646
938.055	-1037
938.149	-682
938.243	-832
938.337	-629
938.430	-800
938.524	-1468
938.618	-1298
938.712	-176
938.805	-335
938.899	-1497
938.993	-1281
939.086	-1181
939.180	-288
939.274	-759
939.367	-389
939.461	375
939.554	-467
939.648	-1226
939.741	-1425
939.835	-768
939.928	-766
940.022	-430
940.115	-1080
940.208	-888
940.302	-860
940.395	-769
940.488	-1258
940.582	-583
940.675	-451
940.768	-1137
940.861	-501
940.954	-1490
941.048	-1195
941.141	-1361
941.234	-987
941.327	-1215
941.420	-304
941.513	-678
941.606	-860
941.699	-290
941.792	-1098
941.885	-958
941.978	-710
942.071	-1506
942.164	-1518
942.257	-531
942.349	-1682
942.442	-696
942.535	-792
942.628	-1072
942.721	-24
942.813	-1058
942.906	-1044
942.999	-1420
943.091	-670
943.184	-949
943.277	-985
943.369	-1787
943.462	-703
943.554	-878
943.647	-823
943.739	-831
943.832	-56
943.924	-809
944.017	-902
944.109	-1037
944.201	-1462
944.294	-190
944.386	-1124
944.478	-1311
944.571	-987
944.663	-1827
944.755	-428
944.847	-1613
944.940	-792
945.032	-687
945.124	-796
945.216	-970
945.308	-475
945.400	-2228
945.492	-1020
945.584	-510
945.676	-940
945.768	-1205
945.860	-514
945.952	-587
946.044	-1059
946.136	-1250
946.228	-845
946.320	-1847
946.412	-803
946.503	-786
946.595	-805
946.687	-1144
946.779	-1011
946.870	-1411
946.962	-1115
947.054	-876
947.145	-615
947.237	-1345
947.329	-1114
947.420	-1441
947.512	-1106
947.603	-932
947.695	-412
947.786	-896
947.878	-1262
947.969	-764
948.061	-792
948.152	-933
948.243	-502
948.335	-1011
948.426	-811
948.517	-940
948.609	-1134
948.700	-1358
948.791	-769
948.882	-1291
948.973	-1255
949.065	-1078
949.156	-506
949.247	-547
949.338	-1904
949.429	-617
949.520	-899
949.611	-1677
949.702	-955
949.793	-1165
949.884	-582
949.975	-1551
950.066	-1596
950.157	-1150
950.247	-798
950.338	-1194
950.429	-274
950.520	-813
950.611	-1061
950.701	-1714
950.792	-861
950.883	-704
950.973	-1041
951.064	-1620
951.155	-1657
951.245	-515
951.336	-874
951.427	-1062
951.517	-260
951.608	-928
951.698	-594
951.788	-887
951.879	-953
951.969	-899
952.060	-879
952.150	-189
952.240	-733
952.331	-1481
952.421	-776
952.511	-1186
952.602	-873
952.692	-1811
952.782	-186
952.872	-1498
952.962	-601
953.052	-464
953.143	-733
953.233	-1805
953.323	-1220
953.413	-702
953.503	-1397
953.593	-1601
953.683	-752
953.773	-1276
953.863	-1585
953.953	-1056
954.042	-592
954.132	-1221
954.222	-940
954.312	-1251
954.402	-711
954.492	-1610
954.581	-1638
954.671	-1460
954.761	-1404
954.850	-1174
954.940	-600
955.030	-1101
955.119	-1423
955.209	-1001
955.298	-1600
955.388	-820
955.477	-1030
955.567	-1894
955.656	-666
955.746	-1280
955.835	-684
955.925	-807
956.014	-1254
956.103	-1847
956.193	-712
956.282	-322
956.371	-370
956.461	-941
956.550	-1381
956.639	-1696
956.728	-992
956.817	-713
956.906	-1680
956.995	-860
957.085	-675
957.174	-198
957.263	-623
957.352	-754
957.441	-881
957.530	-1211
957.619	-1274
957.708	-1127
957.796	-440
957.885	-1304
957.974	-478
958.063	-836
958.152	-1187
958.241	-401
958.329	-647
958.418	-368
958.507	-951
958.596	-875
958.684	-1371
958.773	-515
958.861	-1556
958.950	-1085
959.039	-990
959.127	-843
959.216	-941
959.304	-1526
959.393	-201
959.481	-1421
959.570	-202
959.658	-1879
959.746	-407
959.835	-1379
959.923	-753
960.011	-1817
960.100	-1519
960.188	-438
960.276	-1255
960.365	-928
960.453	-1156
960.541	-1981
960.629	-1729
960.717	-1897
960.805	-1039
960.893	-1299
960.981	-1831
961.069	-1090
961.158	-1512
961.245	-1263
961.333	-910
961.421	-937
961.509	-1342
961.597	-1317
961.685	-1528
961.773	-1758
961.861	-1566
961.949	-893
962.036	-1044
962.124	-944
962.212	-1106
962.299	-774
962.387	-1816
962.475	-1571
962.562	-2199
962.650	-596
962.738	-1052
962.825	-1025
962.913	-532
963.000	-1384
963.088	-1615
963.175	-1425
963.263	-786
963.350	-1632
963.438	-1163
963.525	-1068
963.612	-1243
963.700	-1199
963.787	-739
963.874	-896
963.962	-618
964.049	-1417
964.136	-489
964.223	-1155
964.310	-1206
964.398	-1684
964.485	-407
964.572	-1539
964.659	-1153
964.746	-1247
964.833	-1396
964.920	-1893
965.007	-1170
965.094	-2046
965.181	-930
965.268	-1346
965.355	-1230
965.441	-1839
965.528	-851
965.615	-1175
965.702	-1827
965.789	-1058
965.875	-1425
965.962	-1707
966.049	-1341
966.136	-1242
966.222	-1447
966.309	-1326
966.395	-1356
966.482	-914
966.569	-1751
966.655	-663
966.742	-1161
966.828	-1201
966.915	-641
967.001	-1349
967.087	-951
967.174	-1365
967.260	-1050
967.347	-1708
967.433	-687
967.519	-550
967.605	-960
967.692	-1030
967.778	-1800
967.864	-1309
967.950	-863
968.036	-1442
968.123	-1030
968.209	-1422
968.295	-1784
968.381	-1034
968.467	-1077
968.553	-1180
968.639	-1177
968.725	-1631
968.811	-772
968.897	-1403
968.983	-866
969.069	-1469
969.154	-711
969.240	-964
969.326	-1708
969.412	-1471
969.497	-1588
969.583	-1760
969.669	-576
969.755	-1158
969.840	-1749
969.926	-1467
970.012	-1719
970.097	-1192
970.183	-834
970.268	-1619
970.354	-133
970.439	-1623
970.525	-1061
970.610	-1891
970.696	-1016
970.781	-1093
970.866	-1671
970.952	-1532
971.037	-1396
971.122	-819
971.208	-1149
971.293	-1011
971.378	-1308
971.463	-1353
971.549	-1229
971.634	-1403
971.719	-771
971.804	-1050
971.889	-1153
971.974	-916
972.059	-1137
972.144	-963
972.229	-1741
972.314	-1554
972.399	-770
972.484	-1147
972.569	-683
972.654	-1977
972.739	-614
972.824	-199
972.908	-1271
972.993	-1509
973.078	-817
973.163	-1176
973.247	-803
973.332	-1127
973.417	-736
973.501	-2638
973.586	-1284
973.671	-1046
973.755	-898
973.840	-1466
973.924	-1205
974.009	-1745
974.093	-797
974.178	-1040
974.262	-1333
974.346	-1615
974.431	-1315
974.515	-1190
974.600	-1095
974.684	-907
974.768	-1090
974.852	-1136
974.937	-2280
975.021	-1094
975.105	-692
975.189	-949
975.273	-1588
975.358	-1684
975.442	-1989
975.526	-1539
975.610	-1804
975.694	-1561
975.778	-823
975.862	-1612
975.946	-2047
976.030	-486
976.114	-1728
976.198	-877
976.281	-939
976.365	-1764
976.449	-1222
976.533	-1517
976.617	-1680
976.700	-1304
976.784	-1483
976.868	-1731
976.951	-1546
977.035	-1206
977.119	-1004
977.202	-925
977.286	-1306
977.369	-1310
977.453	-1360
977.536	-1329
977.620	-1608
977.703	-737
977.787	-1812
977.870	-714
977.953	-1412
978.037	-1815
978.120	-1931
978.203	-1835
978.287	-2169
978.370	-1991
978.453	-1174
978.536	-1627
978.620	-1280
978.703	-952
978.786	-1122
978.869	-1878
978.952	-1305
979.035	-1168
979.118	-1552
979.201	-1677
979.284	-789
979.367	-1852
979.450	-1254
979.533	-2074
979.616	-1379
979.699	-1105
979.782	-1197
979.865	-704
979.948	-1911
980.030	-1968
980.113	-1434
980.196	-1525
980.279	-211
980.361	-1381
980.444	-1509
980.526	-1399
980.609	-2189
980.692	-2241
980.774	-901
980.857	-1563
980.939	-914
981.022	-1927
981.104	-1643
981.187	-1347
981.269	-1541
981.352	-1556
981.434	-1601
981.516	-1044
981.599	-1021
981.681	-1582
981.763	-1408
981.846	-1296
981.928	-574
982.010	-1753
982.092	-1697
982.174	-836
982.256	-1420
982.339	-1407
982.421	-2178
982.503	-2121
982.585	-1612
982.667	-1763
982.749	-1167
982.831	-797
982.913	-1338
982.995	-1188
983.077	-922
983.158	-1202
983.240	-1610
983.322	-1070
983.404	-1363
983.486	-1930
983.568	-858
983.649	-1556
983.731	-1146
983.813	-2058
983.894	-1761
983.976	-1345
984.058	-1535
984.139	-1013
984.221	-2136
984.302	-686
984.384	-1875
984.465	-1506
984.547	-1346
984.628	-1714
984.710	-1249
984.791	-1142
984.872	-1147
984.954	-1821
985.035	-1780
985.116	-2469
985.198	-1729
985.279	-1051
985.360	-1908
985.441	-1366
985.522	-1336
985.604	-1327
985.685	-2351
985.766	-1234
985.847	-1713
985.928	-993
986.009	-1755
986.090	-1320
986.171	-1490
986.252	-1447
986.333	-1292
986.414	-1480
986.495	-1181
986.576	-1981
986.656	-1349
986.737	-1293
986.818	-2126
986.899	-1599
986.980	-1586
987.060	-1250
987.141	-1371
987.222	-1598
987.302	-1871
987.383	-1706
987.464	-1581
987.544	-1501
987.625	-1636
987.705	-1593
987.786	-1515
987.866	-1944
987.947	-1093
988.027	-2035
988.108	-1866
988.188	-877
988.268	-1838
988.349	-2564
988.429	-1871
988.509	-1149
988.589	-1587
988.670	-3045
988.750	-505
988.830	-1645
988.910	-1960
988.990	-1827
989.070	-1483
989.151	-928
989.231	-1757
989.311	-1763
989.391	-1312
989.471	-2325
989.551	-1520
989.631	-2023
989.711	-1526
989.791	-2601
989.870	-1544
989.950	-825
990.030	-1949
990.110	-1467
990.190	-1792
990.269	-1542
990.349	-2361
990.429	-1041
990.509	-972
990.588	-1989
990.668	-1881
990.747	-2249
990.827	-1504
990.907	-2139
990.986	-1354
991.066	-1835
991.145	-786
991.225	-1491
991.304	-1867
991.383	-694
991.463	-1135
991.542	-1312
991.622	-1209
991.701	-1754
991.780	-1422
991.859	-1814
991.939	-2347
992.018	-1660
992.097	-1540
992.176	-2200
992.256	-1492
992.335	-2113
992.414	-1314
992.493	-1856
992.572	-1903
992.651	-1337
992.730	-1979
992.809	-1704
992.888	-1183
992.967	-1196
993.046	-1468
993.125	-2205
993.203	-2192
993.282	-1404
993.361	-1307
993.440	-1540
993.519	-2046
993.597	-1588
993.676	-2235
993.755	-1821
993.834	-1376
993.912	-2024
993.991	-1178
994.069	-2460
994.148	-1654
994.226	-2195
994.305	-1590
994.384	-1664
994.462	-1007
994.540	-2398
994.619	-2304
994.697	-1470
994.776	-1990
994.854	-1453
994.932	-1882
995.011	-1681
995.089	-1720
995.167	-2305
995.245	-818
995.324	-1758
995.402	-1299
995.480	-1628
995.558	-1338
995.636	-1868
995.714	-1781
995.792	-1435
995.870	-2256
995.948	-1720
996.026	-1562
996.104	-2379
996.182	-1632
996.260	-2507
996.338	-2002
996.416	-2612
996.494	-2398
996.572	-1518
996.649	-1528
996.727	-2546
996.805	-997
996.883	-1762
996.960	-1697
997.038	-2041
997.116	-1628
997.193	-2101
997.271	-1574
997.348	-1328
997.426	-917
997.504	-2208
997.581	-1080
997.658	-1572
997.736	-1253
997.813	-1466
997.891	-2162
997.968	-1996
998.046	-1213
998.123	-1699
998.200	-1831
998.277	-1367
998.355	-2074
998.432	-2411
998.509	-1461
998.586	-1487
998.663	-1879
998.741	-2241
998.818	-1440
998.895	-1227
998.972	-1925
999.049	-1297
999.126	-2376
999.203	-1703
999.280	-1040
999.357	-2228
999.434	-2205
999.511	-1863
999.587	-1428
999.664	-1632
999.741	-1531
999.818	-1892
999.895	-1785
999.971	-2279
1000.048	-1877
1000.125	-1173
1000.202	-1798
1000.278	-952
1000.355	-1650
1000.431	-2323
1000.508	-1787
1000.584	-1177
1000.661	-1642
1000.738	-2336
1000.814	-1251
1000.890	-2617
1000.967	-1763
1001.043	-1183
1001.120	-1880
1001.196	-1788
1001.272	-2036
1001.349	-1480
1001.425	-1456
1001.501	-1411
1001.577	-1375
1001.654	-2229
1001.730	-1913
1001.806	-2577
1001.882	-2487
1001.958	-1772
1002.034	-1569
1002.110	-2300
1002.186	-2425
1002.262	-2972
1002.338	-2311
1002.414	-1496
1002.490	-1270
1002.566	-2054
1002.642	-2791
1002.718	-1543
1002.794	-2187
1002.870	-2210
1002.945	-2111
1003.021	-1917
1003.097	-2344
1003.173	-2272
1003.248	-2205
1003.324	-2232
1003.400	-2452
1003.475	-2933
1003.551	-2004
1003.626	-2106
1003.702	-1796
1003.777	-1674
1003.853	-1973
1003.928	-1960
1004.004	-1793
1004.079	-1840
1004.155	-2054
1004.230	-2486
1004.305	-1109
1004.381	-2018
1004.456	-2173
1004.531	-1442
1004.607	-1562
1004.682	-2397
1004.757	-2222
1004.832	-2532
1004.907	-2114
1004.982	-2159
1005.057	-1488
1005.133	-2771
1005.208	-2016
1005.283	-1519
1005.358	-1623
1005.433	-1991
1005.508	-2303
1005.583	-1409
1005.657	-2123
1005.732	-2992
1005.807	-2446
1005.882	-1356
1005.957	-2297
1006.032	-2257
1006.106	-1473
1006.181	-2056
1006.256	-2076
1006.331	-2223
1006.405	-2600
1006.480	-2299
1006.554	-1823
1006.629	-1214
1006.704	-1614
1006.778	-1918
1006.853	-1119
1006.927	-1648
1007.002	-1830
1007.076	-3628
1007.150	-2520
1007.225	-1711
1007.299	-1770
1007.373	-2512
1007.448	-1689
1007.522	-1312
1007.596	-1799
1007.671	-2536
1007.745	-2603
1007.819	-2532
1007.893	-2281
1007.967	-2455
1008.041	-2436
1008.115	-1360
1008.190	-2354
1008.264	-2413
1008.338	-2371
1008.412	-2208
1008.486	-2459
1008.560	-2697
1008.633	-3184
1008.707	-1956
1008.781	-1372
1008.855	-2072
1008.929	-1622
1009.003	-2805
1009.076	-2710
1009.150	-2593
1009.224	-1751
1009.298	-2514
1009.371	-2001
1009.445	-1934
1009.519	-2271
1009.592	-2211
1009.666	-2164
1009.739	-2514
1009.813	-3435
1009.886	-2156
1009.960	-3353
1010.033	-2107
1010.107	-2718
1010.180	-2163
1010.253	-1800
1010.327	-2272
1010.400	-2425
1010.473	-2907
1010.547	-1784
1010.620	-1882
1010.693	-2450
1010.766	-2474
1010.840	-2402
1010.913	-2189
1010.986	-2668
1011.059	-2588
1011.132	-1877
1011.205	-1091
1011.278	-3244
1011.351	-2270
1011.424	-2100
1011.497	-2307
1011.570	-2189
1011.643	-2011
1011.716	-2266
1011.789	-2469
1011.862	-2285
1011.934	-3131
1012.007	-3090
1012.080	-2054
1012.153	-2660
1012.225	-1756
1012.298	-2745
1012.371	-2865
1012.443	-1918
1012.516	-3150
1012.588	-2328
1012.661	-2291
1012.733	-2574
1012.806	-2590
1012.879	-1818
1012.951	-1974
1013.023	-2185
1013.096	-1656
1013.168	-1993
1013.241	-1528
1013.313	-1973
1013.385	-2773
1013.458	-2160
1013.530	-2254
1013.602	-2663
1013.674	-1554
1013.746	-2793
1013.819	-2163
1013.891	-2169
1013.963	-3162
1014.035	-2492
1014.107	-2244
1014.179	-1885
1014.251	-2414
1014.323	-1868
1014.395	-2523
1014.467	-1577
1014.539	-2265
1014.611	-2843
1014.683	-1251
1014.754	-2073
1014.826	-2872
1014.898	-2977
1014.970	-2831
1015.042	-1636
1015.113	-2276
1015.185	-2796
1015.257	-3153
1015.328	-2213
1015.400	-2873
1015.471	-2871
1015.543	-2610
1015.615	-2857
1015.686	-3262
1015.757	-2499
1015.829	-2611
1015.901	-1908
1015.972	-2253
1016.043	-2173
1016.115	-2540
1016.186	-2520
1016.257	-3131
1016.328	-2172
1016.400	-1856
1016.471	-1924
1016.542	-2407
1016.613	-1958
1016.685	-2002
1016.756	-2587
1016.827	-2244
1016.898	-2921
1016.969	-2746
1017.040	-2626
1017.111	-2580
1017.182	-2064
1017.253	-2258
1017.324	-2693
1017.395	-2669
1017.466	-2208
1017.537	-2435
1017.608	-2778
1017.678	-2811
1017.749	-2153
1017.820	-2765
1017.891	-3136
1017.961	-2587
1018.032	-1929
1018.103	-2612
1018.173	-1910
1018.244	-2601
1018.315	-2094
1018.385	-1853
1018.456	-2705
1018.526	-3000
1018.597	-3008
1018.667	-3366
1018.738	-2722
1018.808	-2187
1018.878	-2833
1018.949	-2536
1019.019	-2376
1019.089	-2417
1019.160	-2105
1019.230	-2940
1019.300	-2726
1019.371	-3008
1019.441	-2379
1019.511	-2463
1019.581	-2324
1019.651	-2655
1019.721	-2271
1019.791	-2983
1019.861	-2436
1019.931	-1922
1020.001	-2390
1020.071	-2025
1020.141	-2875
1020.211	-2300
1020.281	-2152
1020.351	-1926
1020.421	-2051
1020.491	-2217
1020.560	-2793
1020.630	-1927
1020.700	-2141
1020.770	-2403
1020.839	-2891
1020.909	-2530
1020.979	-2115
1021.048	-2360
1021.118	-2808
1021.187	-1929
1021.257	-2924
1021.326	-2598
1021.396	-2913
1021.465	-2212
1021.535	-2223
1021.604	-2480
1021.674	-3359
1021.743	-2499
1021.812	-2999
1021.882	-2242
1021.951	-2683
1022.020	-2056
1022.089	-1901
1022.159	-2759
1022.228	-3480
1022.297	-3201
1022.366	-2402
1022.435	-2816
1022.504	-3078
1022.573	-2576
1022.642	-2176
1022.711	-2703
1022.781	-2036
1022.849	-2635
1022.918	-3240
1022.987	-2563
1023.056	-2875
1023.125	-2656
1023.194	-2539
1023.263	-2507
1023.331	-2511
1023.400	-2656
1023.469	-2578
1023.538	-3012
1023.606	-2873
1023.675	-2195
1023.744	-2894
1023.812	-3373
1023.881	-1817
1023.949	-2423
1024.018	-2453
1024.086	-2771
1024.155	-2262
1024.223	-2640
1024.292	-3226
1024.360	-2250
1024.429	-2509
1024.497	-2890
1024.565	-2268
1024.634	-2515
1024.702	-2484
1024.770	-1629
1024.838	-2281
1024.907	-2524
1024.975	-2271
1025.043	-2808
1025.111	-2603
1025.179	-2760
1025.247	-2850
1025.315	-3117
1025.383	-2080
1025.451	-1784
1025.519	-1838
1025.587	-2981
1025.655	-1975
1025.723	-2302
1025.791	-2541
1025.859	-2593
1025.927	-1969
1025.995	-2377
1026.062	-2776
1026.130	-2067
1026.198	-2346
1026.266	-2534
1026.333	-1608
1026.401	-2129
1026.469	-3350
1026.536	-2742
1026.604	-2479
1026.671	-2524
1026.739	-2458
1026.806	-2003
1026.874	-2192
1026.941	-2487
1027.009	-1799
1027.076	-2770
1027.144	-1535
1027.211	-2531
1027.278	-2344
1027.345	-1795
1027.413	-1571
1027.480	-3477
1027.547	-2639
1027.614	-2231
1027.682	-2069
1027.749	-2509
1027.816	-2291
1027.883	-2770
1027.950	-1708
1028.017	-3209
1028.084	-1912
1028.151	-2411
1028.218	-2668
1028.285	-2421
1028.352	-2382
1028.419	-3742
1028.486	-2002
1028.553	-3103
1028.619	-2398
1028.686	-2285
1028.753	-2482
1028.820	-1861
1028.886	-2044
1028.953	-2060
1029.020	-1396
1029.086	-2823
1029.153	-2468
1029.220	-2429
1029.286	-2524
1029.353	-2030
1029.419	-2663
1029.486	-2557
1029.552	-2110
1029.619	-2620
1029.685	-2649
1029.751	-2666
1029.818	-1799
1029.884	-2571
1029.951	-1835
1030.017	-2662
1030.083	-2352
1030.149	-3044
1030.216	-2441
1030.282	-2302
1030.348	-1909
1030.414	-2625
1030.480	-2837
1030.546	-2110
1030.612	-1484
1030.678	-2324
1030.744	-2651
1030.810	-2225
1030.876	-1944
1030.942	-3048
1031.008	-2640
1031.074	-2338
1031.140	-2608
1031.206	-2277
1031.272	-2155
1031.337	-1819
1031.403	-1877
1031.469	-2274
1031.534	-2743
1031.600	-2602
1031.666	-2405
1031.731	-2795
1031.797	-2029
1031.863	-3257
1031.928	-2641
1031.994	-2888
1032.059	-1333
1032.125	-2578
1032.190	-2125
1032.256	-2462
1032.321	-2592
1032.386	-2246
1032.452	-2279
1032.517	-2455
1032.582	-2082
1032.647	-2834
1032.713	-2885
1032.778	-2526
1032.843	-2396
1032.908	-2532
1032.974	-2048
1033.039	-3104
1033.104	-1997
1033.169	-2895
1033.234	-1943
1033.299	-1983
1033.364	-1720
1033.429	-3102
1033.494	-2364
1033.559	-2244
1033.624	-1911
1033.688	-3004
1033.753	-2588
1033.818	-2584
1033.883	-2013
1033.948	-2628
1034.013	-1932
1034.077	-2124
1034.142	-2648
1034.207	-2805
1034.271	-1636
1034.336	-2388
1034.400	-2432
1034.465	-2549
1034.530	-3095
1034.594	-1920
1034.658	-2375
1034.723	-2695
1034.787	-2097
1034.852	-1486
1034.916	-1971
1034.981	-1855
1035.045	-1727
1035.109	-1339
1035.173	-2756
1035.238	-3320
1035.302	-2281
1035.366	-2079
1035.430	-2196
1035.495	-2818
1035.559	-1876
1035.623	-2598
1035.687	-3212
1035.751	-3525
1035.815	-2095
1035.879	-1974
1035.943	-2845
1036.007	-2545
1036.071	-2132
1036.135	-2573
1036.198	-2341
1036.262	-2702
1036.326	-2582
1036.390	-2005
1036.454	-1827
1036.517	-2019
1036.581	-2019
1036.645	-3332
1036.709	-2760
1036.772	-3004
1036.836	-2588
1036.900	-2242
1036.963	-2255
1037.026	-1875
1037.090	-2142
1037.154	-2256
1037.217	-1631
1037.280	-2703
1037.344	-2520
1037.407	-2229
1037.471	-2782
1037.534	-2223
1037.597	-3106
1037.661	-2665
1037.724	-2347
1037.787	-2901
1037.850	-2743
1037.913	-3138
1037.977	-2186
1038.040	-2268
1038.103	-1893
1038.166	-2768
1038.229	-2134
1038.292	-2255
1038.355	-2949
1038.418	-2046
1038.481	-2070
1038.544	-2530
1038.607	-2272
1038.670	-2816
1038.732	-2134
1038.795	-2697
1038.858	-1577
1038.921	-2268
1038.984	-2127
1039.046	-2264
1039.109	-2444
1039.172	-2092
1039.234	-2650
1039.297	-2450
1039.360	-2473
1039.422	-2366
1039.485	-2701
1039.547	-3589
1039.610	-2630
1039.672	-1993
1039.734	-2009
1039.797	-2447
1039.859	-3115
1039.922	-2338
1039.984	-2324
1040.046	-2179
1040.109	-2116
1040.171	-2424
1040.233	-2117
1040.295	-2427
1040.358	-2294
1040.420	-3164
1040.482	-2552
1040.544	-2386
1040.606	-1926
1040.668	-2477
1040.730	-2723
1040.792	-2177
1040.854	-2145
1040.916	-2933
1040.978	-2572
1041.040	-1467
1041.102	-2182
1041.164	-1948
1041.225	-2470
1041.287	-3262
1041.349	-2719
1041.411	-2251
1041.472	-2312
1041.534	-2309
1041.596	-1776
1041.657	-2690
1041.719	-2810
1041.781	-2402
1041.842	-2561
1041.904	-1861
1041.965	-1942
1042.027	-2446
1042.088	-1483
1042.150	-2556
1042.211	-2618
1042.272	-2231
1042.334	-2617
1042.395	-2415
1042.456	-2693
1042.518	-2853
1042.579	-2283
1042.640	-2013
1042.701	-1817
1042.763	-2266
1042.824	-1836
1042.885	-2223
1042.946	-2817
1043.007	-2483
1043.068	-2375
1043.129	-2303
1043.190	-2549
1043.251	-2358
1043.312	-2814
1043.373	-1776
1043.434	-2266
1043.495	-2859
1043.556	-2554
1043.616	-2323
1043.677	-2377
1043.738	-1882
1043.799	-2182
1043.859	-2545
1043.920	-2696
1043.981	-2255
1044.041	-2512
1044.102	-2738
1044.162	-2369
1044.223	-3127
1044.284	-2313
1044.344	-2500
1044.405	-2808
1044.465	-2645
1044.525	-2458
1044.586	-1496
1044.646	-2233
1044.707	-2764
1044.767	-2528
1044.827	-2680
1044.887	-1844
1044.948	-2056
1045.008	-2092
1045.068	-1735
1045.128	-2781
1045.188	-2403
1045.249	-1774
1045.309	-1254
1045.369	-2571
1045.429	-1885
1045.489	-2190
1045.549	-2126
1045.609	-1489
1045.669	-2354
1045.729	-2727
1045.789	-1801
1045.848	-1858
1045.908	-2385
1045.968	-2562
1046.028	-2381
1046.088	-2200
1046.147	-1618
1046.207	-1894
1046.267	-2167
1046.326	-1980
1046.386	-1442
1046.446	-2137
1046.505	-1612
1046.565	-1233
1046.624	-1172
1046.684	-1244
1046.743	-1284
1046.803	-744
1046.862	-738
1046.922	0
