'Start Wavelength	183.907
'End Wavelength	1046.922
'Gate Delay	5.000
'Gate Width (ms)	1.050
'Laser Output Level	0.000
'X Position	0.000
'Y Position	0.000
'Z Position	0.000
'Grid Point Number	1.000
'Shot Number	100.000
183.907	329.000
183.977	-189.000
184.047	1274
184.116	5
184.186	498
184.256	-38
184.325	278
184.395	16
184.465	317
184.534	-91
184.604	125
184.674	465
184.743	554
184.813	94
184.883	629
184.952	246
185.022	-35
185.092	236
185.161	374
185.231	495
185.301	520
185.370	443
185.440	-93
185.509	-430
185.579	98
185.649	397
185.718	-28
185.788	733
185.857	-110
185.927	-181
185.996	2
186.066	-556
186.136	90
186.205	229
186.275	64
186.344	142
186.414	279
186.483	533
186.553	310
186.622	356
186.692	7
186.761	-567
186.831	-341
186.900	162
186.970	353
187.039	23
187.109	414
187.178	219
187.248	387
187.317	346
187.387	58
187.456	-426
187.526	138
187.595	637
187.664	458
187.734	116
187.803	579
187.873	-57
187.942	295
188.012	302
188.081	433
188.150	696
188.220	413
188.289	466
188.358	74
188.428	-206
188.497	-113
188.567	197
188.636	117
188.705	97
188.775	713
188.844	-63
188.913	310
188.983	438
189.052	459
189.121	-16
189.191	-11
189.260	89
189.329	-365
189.399	-442
189.468	-52
189.537	474
189.606	-145
189.676	-598
189.745	220
189.814	368
189.883	373
189.953	1014
190.022	-230
190.091	492
190.161	406
190.230	559
190.299	-765
190.368	-503
190.437	-628
190.507	-62
190.576	617
190.645	-13
190.714	274
190.783	-149
190.853	-42
190.922	-30
190.991	-64
191.060	-86
191.129	64
191.198	75
191.268	7
191.337	-144
191.406	1266
191.475	7
191.544	443
191.613	-124
191.682	-53
191.752	258
191.821	288
191.890	420
191.959	-498
192.028	850
192.097	59
192.166	0
192.235	-427
192.304	307
192.373	458
192.442	-115
192.511	122
192.580	347
192.650	209
192.719	262
192.788	376
192.857	-65
192.926	-162
192.995	439
193.064	384
193.133	-267
193.202	371
193.271	-36
193.340	-47
193.409	-280
193.478	29
193.547	629
193.615	182
193.684	811
193.753	318
193.822	341
193.891	23
193.960	159
194.029	296
194.098	-122
194.167	111
194.236	-341
194.305	-64
194.374	77
194.443	-43
194.512	236
194.580	-22
194.649	-214
194.718	75
194.787	1
194.856	51
194.925	-110
194.994	-64
195.062	-123
195.131	-191
195.200	-603
195.269	260
195.338	482
195.407	-227
195.475	-68
195.544	144
195.613	-204
195.682	415
195.751	252
195.819	793
195.888	479
195.957	297
196.026	455
196.094	172
196.163	-166
196.232	482
196.301	290
196.369	440
196.438	-88
196.507	-208
196.576	-665
196.644	-188
196.713	216
196.782	90
196.850	-252
196.919	-275
196.988	77
197.056	15
197.125	258
197.194	-60
197.262	437
197.331	252
197.400	-1007
197.468	310
197.537	361
197.606	92
197.674	404
197.743	554
197.812	259
197.880	337
197.949	225
198.017	513
198.086	1196
198.155	99
198.223	707
198.292	114
198.360	127
198.429	-58
198.497	-32
198.566	530
198.635	100
198.703	400
198.772	121
198.840	95
198.909	150
198.977	230
199.046	-280
199.114	112
199.183	383
199.251	56
199.320	-292
199.388	252
199.457	-212
199.525	-263
199.594	310
199.662	167
199.731	-179
199.799	-271
199.867	-1013
199.936	-282
200.004	135
200.073	408
200.141	67
200.210	289
200.278	-378
200.346	274
200.415	449
200.483	1162
200.552	420
200.620	-501
200.688	-132
200.757	-435
200.825	-839
200.893	20
200.962	69
201.030	-538
201.098	-109
201.167	162
201.235	-283
201.303	-658
201.372	535
201.440	344
201.508	-519
201.577	-64
201.645	-640
201.713	-1009
201.781	21
201.850	658
201.918	-133
201.986	69
202.055	255
202.123	169
202.191	381
202.259	-108
202.327	303
202.396	323
202.464	-255
202.532	-24
202.600	482
202.669	-72
202.737	-434
202.805	-96
202.873	382
202.941	-362
203.009	-468
203.078	-198
203.146	-167
203.214	-221
203.282	-600
203.350	851
203.418	39
203.487	93
203.555	-150
203.623	365
203.691	111
203.759	-54
203.827	793
203.895	409
203.963	314
204.031	62
204.099	-154
204.168	-56
204.236	-9
204.304	105
204.372	-291
204.440	275
204.508	-221
204.576	-637
204.644	-516
204.712	-434
204.780	111
204.848	-161
204.916	-335
204.984	256
205.052	264
205.120	77
205.188	-557
205.256	-841
205.324	389
205.392	-485
205.460	291
205.528	232
205.596	4
205.664	-111
205.732	-376
205.799	1020
205.867	462
205.935	-255
206.003	-399
206.071	-425
206.139	-142
206.207	0
206.275	217
206.343	10
206.411	-408
206.478	644
206.546	52
206.614	-571
206.682	98
206.750	-672
206.818	-313
206.885	357
206.953	-567
207.021	-166
207.089	976
207.157	-59
207.225	533
207.292	331
207.360	-284
207.428	234
207.496	-598
207.563	230
207.631	-192
207.699	-52
207.767	563
207.834	-797
207.902	301
207.970	100
208.038	155
208.105	-424
208.173	155
208.241	545
208.309	161
208.376	-278
208.444	614
208.512	-58
208.579	170
208.647	-223
208.715	290
208.782	-466
208.850	-256
208.918	-292
208.985	-18
209.053	243
209.120	-481
209.188	119
209.256	490
209.323	72
209.391	26
209.459	280
209.526	45
209.594	642
209.661	-422
209.729	233
209.796	-550
209.864	54
209.932	-730
209.999	674
210.067	551
210.134	522
210.202	-349
210.269	31
210.337	210
210.404	-49
210.472	195
210.539	200
210.607	354
210.674	-30
210.742	-24
210.809	778
210.877	-338
210.944	389
211.012	320
211.079	1131
211.146	339
211.214	131
211.281	3
211.349	663
211.416	-140
211.484	149
211.551	102
211.618	-173
211.686	-30
211.753	71
211.821	589
211.888	-375
211.955	161
212.023	165
212.090	-100
212.157	-72
212.225	-289
212.292	757
212.359	1439
212.427	2292
212.494	505
212.561	498
212.629	-109
212.696	36
212.763	-211
212.831	469
212.898	416
212.965	109
213.032	846
213.100	132
213.167	346
213.234	298
213.301	447
213.369	282
213.436	261
213.503	-27
213.570	396
213.638	-540
213.705	-147
213.772	-50
213.839	148
213.906	84
213.973	-139
214.041	-722
214.108	360
214.175	102
214.242	234
214.309	693
214.376	-353
214.444	-385
214.511	-246
214.578	215
214.645	498
214.712	469
214.779	-252
214.846	181
214.913	596
214.980	979
215.048	99
215.115	304
215.182	131
215.249	409
215.316	-173
215.383	330
215.450	608
215.517	563
215.584	519
215.651	274
215.718	91
215.785	382
215.852	-198
215.919	702
215.986	-122
216.053	-473
216.120	-194
216.187	-154
216.254	354
216.321	262
216.388	176
216.455	594
216.522	531
216.589	259
216.656	769
216.722	597
216.789	-630
216.856	1012
216.923	790
216.990	-197
217.057	440
217.124	767
217.191	175
217.258	1150
217.324	1447
217.391	886
217.458	947
217.525	-118
217.592	487
217.659	-169
217.725	90
217.792	377
217.859	881
217.926	-31
217.993	-42
218.059	800
218.126	102
218.193	287
218.260	484
218.327	474
218.393	532
218.460	352
218.527	-5
218.594	78
218.660	353
218.727	377
218.794	-993
218.860	1102
218.927	-666
218.994	-78
219.061	-268
219.127	-41
219.194	387
219.261	61
219.327	-237
219.394	-404
219.461	96
219.527	-426
219.594	668
219.661	-16
219.727	-81
219.794	-399
219.860	-518
219.927	-111
219.994	808
220.060	481
220.127	-388
220.193	675
220.260	220
220.326	1124
220.393	1956
220.460	1884
220.526	443
220.593	688
220.659	620
220.726	632
220.792	1291
220.859	1424
220.925	2472
220.992	3602
221.058	2901
221.125	1983
221.191	1578
221.258	432
221.324	105
221.391	-171
221.457	186
221.524	860
221.590	930
221.657	1806
221.723	1142
221.789	1151
221.856	1076
221.922	789
221.989	-270
222.055	239
222.121	-391
222.188	1296
222.254	340
222.321	481
222.387	-563
222.453	-254
222.520	652
222.586	712
222.652	469
222.719	-130
222.785	-43
222.851	184
222.918	-413
222.984	654
223.050	106
223.116	-103
223.183	689
223.249	-228
223.315	-123
223.382	-200
223.448	112
223.514	-270
223.580	475
223.647	321
223.713	-258
223.779	305
223.845	568
223.911	805
223.978	104
224.044	376
224.110	-430
224.176	331
224.242	-130
224.309	-562
224.375	352
224.441	-320
224.507	-261
224.573	19
224.639	-190
224.705	-103
224.772	261
224.838	-284
224.904	1805
224.970	-74
225.036	92
225.102	-186
225.168	-21
225.234	815
225.300	80
225.366	-384
225.432	-120
225.499	-253
225.565	496
225.631	734
225.697	251
225.763	447
225.829	344
225.895	181
225.961	324
226.027	242
226.093	327
226.159	939
226.225	1481
226.291	3975
226.357	5221
226.423	1182
226.489	1375
226.554	1326
226.620	786
226.686	550
226.752	1387
226.818	2988
226.884	6864
226.950	4852
227.016	1895
227.082	1141
227.148	1139
227.214	768
227.279	601
227.345	-69
227.411	60
227.477	83
227.543	1279
227.609	402
227.674	402
227.740	577
227.806	301
227.872	-216
227.938	541
228.003	1020
228.069	-435
228.135	-36
228.201	-638
228.267	-9
228.332	951
228.398	252
228.464	332
228.530	696
228.595	166
228.661	-512
228.727	-77
228.792	417
228.858	581
228.924	-195
228.990	669
229.055	-345
229.121	154
229.187	147
229.252	-228
229.318	-79
229.384	173
229.449	274
229.515	-646
229.581	-366
229.646	865
229.712	547
229.777	680
229.843	29
229.909	522
229.974	364
230.040	-409
230.105	601
230.171	540
230.236	694
230.302	868
230.368	553
230.433	433
230.499	509
230.564	936
230.630	259
230.695	-316
230.761	668
230.826	-311
230.892	671
230.957	386
231.023	496
231.088	186
231.154	-322
231.219	-789
231.284	-89
231.350	154
231.415	401
231.481	563
231.546	432
231.612	27
231.677	-288
231.742	-262
231.808	492
231.873	-218
231.939	-1000
232.004	-128
232.069	557
232.135	-238
232.200	-107
232.265	353
232.331	-642
232.396	-333
232.461	-236
232.527	-286
232.592	263
232.657	-234
232.723	104
232.788	-277
232.853	-23
232.918	577
232.984	-263
233.049	-1077
233.114	94
233.179	223
233.245	772
233.310	201
233.375	-379
233.440	-375
233.506	254
233.571	53
233.636	-94
233.701	53
233.766	115
233.832	905
233.897	684
233.962	-553
234.027	629
234.092	-163
234.157	-373
234.222	99
234.288	-62
234.353	1458
234.418	1413
234.483	979
234.548	502
234.613	353
234.678	-46
234.743	776
234.808	1159
234.873	42
234.938	384
235.004	167
235.069	306
235.134	94
235.199	377
235.264	220
235.329	-222
235.394	11
235.459	85
235.524	-296
235.589	485
235.654	-49
235.719	-238
235.784	1216
235.849	447
235.913	1232
235.978	1463
236.043	445
236.108	708
236.173	-45
236.238	339
236.303	-155
236.368	179
236.433	1015
236.498	1001
236.563	937
236.627	2725
236.692	8967
236.757	4631
236.822	2235
236.887	756
236.952	1325
237.017	941
237.081	915
237.146	1419
237.211	3316
237.276	9649
237.341	11937
237.405	4544
237.470	2005
237.535	1683
237.600	713
237.664	825
237.729	48
237.794	1247
237.859	2403
237.923	469
237.988	785
238.053	881
238.118	545
238.182	2097
238.247	2021
238.312	-28
238.376	1055
238.441	-1243
238.506	316
238.570	-363
238.635	794
238.700	1459
238.764	773
238.829	853
238.893	593
238.958	515
239.023	302
239.087	501
239.152	650
239.216	-699
239.281	-643
239.346	356
239.410	769
239.475	-155
239.539	2835
239.604	1209
239.668	791
239.733	-160
239.797	149
239.862	465
239.926	1367
239.991	111
240.055	830
240.120	562
240.184	481
240.249	474
240.313	295
240.378	605
240.442	1494
240.507	2205
240.571	1088
240.635	750
240.700	471
240.764	347
240.829	239
240.893	-337
240.957	534
241.022	1609
241.086	1913
241.151	846
241.215	-451
241.279	1157
241.344	216
241.408	539
241.472	-494
241.537	754
241.601	-257
241.665	429
241.730	1176
241.794	439
241.858	473
241.922	713
241.987	750
242.051	237
242.115	-19
242.179	278
242.244	-286
242.308	687
242.372	-72
242.436	393
242.501	329
242.565	-165
242.629	-299
242.693	729
242.757	-5
242.822	-329
242.886	586
242.950	35
243.014	-217
243.078	386
243.142	565
243.206	475
243.271	275
243.335	266
243.399	834
243.463	5065
243.527	10133
243.591	1913
243.655	940
243.719	113
243.783	341
243.847	1206
243.911	2093
243.975	928
244.040	-669
244.104	1435
244.168	567
244.232	319
244.296	910
244.360	1587
244.424	139
244.488	393
244.552	533
244.615	-981
244.679	38
244.743	552
244.807	-336
244.871	459
244.935	66
244.999	-852
245.063	790
245.127	277
245.191	31
245.255	-59
245.319	627
245.383	-674
245.446	1520
245.510	-249
245.574	224
245.638	715
245.702	-584
245.766	1329
245.829	759
245.893	44
245.957	209
246.021	501
246.085	-80
246.149	382
246.212	2078
246.276	2514
246.340	741
246.404	627
246.467	564
246.531	-22
246.595	688
246.659	170
246.722	605
246.786	1184
246.850	66
246.913	1041
246.977	133
247.041	542
247.104	-402
247.168	716
247.232	2641
247.295	3687
247.359	575
247.423	77
247.486	1783
247.550	810
247.614	16
247.677	895
247.741	664
247.804	-450
247.868	1011
247.932	1406
247.995	3218
248.059	823
248.122	-30
248.186	1417
248.249	1373
248.313	7125
248.376	5420
248.440	3853
248.503	124
248.567	1708
248.630	846
248.694	1544
248.757	3502
248.821	7059
248.884	3419
248.948	3850
249.011	5092
249.075	8107
249.138	6109
249.202	1801
249.265	807
249.328	1535
249.392	1175
249.455	1203
249.519	469
249.582	288
249.645	1685
249.709	668
249.772	1412
249.835	921
249.899	364
249.962	1487
250.025	-40
250.089	3091
250.152	3103
250.215	634
250.279	290
250.342	1921
250.405	776
250.468	795
250.532	1396
250.595	3086
250.658	13251
250.721	15663
250.785	4083
250.848	3055
250.911	1061
250.974	1824
251.038	2121
251.101	3930
251.164	1303
251.227	1951
251.290	1125
251.354	4192
251.417	17536
251.480	11660
251.543	10311
251.606	30145
251.669	15274
251.732	5477
251.795	6151
251.859	7288
251.922	18378
251.985	7269
252.048	2711
252.111	1980
252.174	1822
252.237	4507
252.300	8163
252.363	10954
252.426	21957
252.489	5916
252.552	3156
252.615	1819
252.678	3388
252.741	7086
252.804	11708
252.867	21562
252.930	9948
252.993	4418
253.056	2961
253.119	1963
253.182	1625
253.245	2095
253.308	2158
253.371	1151
253.434	1352
253.497	1875
253.559	3908
253.622	2261
253.685	2094
253.748	1761
253.811	1157
253.874	1348
253.937	787
254.000	489
254.062	2451
254.125	3605
254.188	3538
254.251	2573
254.314	401
254.376	1689
254.439	2370
254.502	1208
254.565	2370
254.628	3615
254.690	658
254.753	653
254.816	572
254.878	472
254.941	3126
255.004	1920
255.067	170
255.129	-334
255.192	841
255.255	-339
255.317	115
255.380	259
255.443	-314
255.505	-763
255.568	-916
255.631	-167
255.693	295
255.756	-350
255.819	682
255.881	-452
255.944	-504
256.006	-476
256.069	-377
256.132	-222
256.194	484
256.257	907
256.319	1010
256.382	-613
256.444	785
256.507	337
256.569	168
256.632	610
256.694	698
256.757	6529
256.819	13240
256.882	3093
256.944	1098
257.007	1676
257.069	359
257.132	279
257.194	904
257.257	286
257.319	-123
257.381	1035
257.444	4414
257.506	17901
257.569	13347
257.631	5319
257.693	2693
257.756	1670
257.818	1687
257.880	520
257.943	196
258.005	242
258.067	-250
258.130	360
258.192	495
258.254	772
258.317	-16
258.379	275
258.441	2269
258.503	2232
258.566	1983
258.628	2548
258.690	-53
258.753	560
258.815	851
258.877	203
258.939	311
259.001	1296
259.064	31
259.126	234
259.188	441
259.250	992
259.312	777
259.375	3098
259.437	597
259.499	139
259.561	614
259.623	161
259.685	-135
259.747	-307
259.809	2856
259.872	2825
259.934	8187
259.996	4518
260.058	1266
260.120	288
260.182	478
260.244	543
260.306	-98
260.368	68
260.430	-377
260.492	1018
260.554	3152
260.616	1202
260.678	4030
260.740	1846
260.802	-528
260.864	521
260.926	99
260.988	1011
261.050	571
261.112	2930
261.174	6150
261.236	2135
261.298	961
261.359	1453
261.421	2152
261.483	4
261.545	983
261.607	-12
261.669	563
261.731	1413
261.793	2203
261.854	121
261.916	557
261.978	154
262.040	457
262.102	1179
262.164	739
262.225	1066
262.287	580
262.349	1232
262.411	637
262.472	872
262.534	1292
262.596	1541
262.658	-258
262.719	142
262.781	106
262.843	1152
262.904	-119
262.966	693
263.028	66
263.090	7875
263.151	13160
263.213	2307
263.275	1363
263.336	-136
263.398	797
263.459	-81
263.521	356
263.583	1310
263.644	250
263.706	-58
263.767	72
263.829	3
263.891	-551
263.952	135
264.014	215
264.075	323
264.137	2072
264.198	-81
264.260	-294
264.321	352
264.383	1573
264.444	3835
264.506	354
264.567	-402
264.629	2317
264.690	3323
264.752	837
264.813	35
264.875	-741
264.936	130
264.998	-560
265.059	369
265.120	-51
265.182	798
265.243	8328
265.305	3806
265.366	947
265.427	485
265.489	390
265.550	-453
265.611	-50
265.673	-253
265.734	-363
265.795	-88
265.857	-491
265.918	-260
265.979	2117
266.040	13062
266.102	6060
266.163	1519
266.224	657
266.286	-558
266.347	-822
266.408	493
266.469	182
266.530	-851
266.592	-610
266.653	1012
266.714	150
266.775	-80
266.836	-603
266.898	-845
266.959	-170
267.020	126
267.081	349
267.142	-487
267.203	-865
267.264	-792
267.326	134
267.387	-304
267.448	-1117
267.509	-359
267.570	-278
267.631	-753
267.692	-408
267.753	-311
267.814	-1183
267.875	388
267.936	2018
267.997	1065
268.058	230
268.119	-219
268.180	-404
268.241	-350
268.302	119
268.363	-714
268.424	-157
268.485	-500
268.546	-650
268.607	260
268.668	-928
268.729	-444
268.790	-806
268.851	372
268.912	857
268.972	391
269.033	-924
269.094	-974
269.155	-121
269.216	-453
269.277	-336
269.338	175
269.398	-273
269.459	-978
269.520	312
269.581	-355
269.642	5
269.702	-259
269.763	-300
269.824	280
269.885	-259
269.945	264
270.006	-471
270.067	-837
270.128	-1139
270.188	-149
270.249	-994
270.310	-256
270.370	-719
270.431	-308
270.492	-755
270.553	-832
270.613	863
270.674	1445
270.734	-341
270.795	-225
270.856	464
270.916	-1447
270.977	-68
271.038	30
271.098	-674
271.159	420
271.219	-357
271.280	41
271.340	542
271.401	-441
271.462	454
271.522	163
271.583	-396
271.643	140
271.704	-371
271.764	213
271.825	1168
271.885	8160
271.946	6298
272.006	1115
272.066	4290
272.127	6067
272.187	652
272.248	531
272.308	1124
272.369	4805
272.429	1052
272.489	1021
272.550	976
272.610	1600
272.671	1
272.731	961
272.791	738
272.852	-414
272.912	914
272.972	59
273.033	-343
273.093	-142
273.153	-305
273.214	298
273.274	28
273.334	4268
273.394	5129
273.455	1230
273.515	2568
273.575	4424
273.635	1430
273.696	3064
273.756	4884
273.816	1360
273.876	130
273.936	2761
273.997	4013
274.057	514
274.117	401
274.177	1458
274.237	8970
274.297	4688
274.358	2828
274.418	4257
274.478	2095
274.538	614
274.598	-433
274.658	2906
274.718	2466
274.778	851
274.838	853
274.898	1102
274.958	5093
275.018	5339
275.078	2437
275.138	1617
275.198	-893
275.258	-642
275.318	52
275.378	83
275.438	549
275.498	66
275.558	2635
275.618	6014
275.678	3529
275.738	1726
275.798	1190
275.858	799
275.918	-871
275.978	188
276.038	371
276.098	399
276.157	550
276.217	3049
276.277	717
276.337	127
276.397	-254
276.457	339
276.517	-247
276.576	472
276.636	-718
276.696	-355
276.756	1798
276.815	381
276.875	-583
276.935	-778
276.995	-24
277.055	-206
277.114	-65
277.174	505
277.234	3090
277.293	355
277.353	37
277.413	-99
277.472	-409
277.532	445
277.592	-371
277.651	2152
277.711	2586
277.771	797
277.830	5103
277.890	2949
277.950	3768
278.009	9107
278.069	2357
278.128	3486
278.188	2737
278.248	1401
278.307	4006
278.367	954
278.426	604
278.486	-248
278.545	-189
278.605	-827
278.664	-335
278.724	192
278.783	3483
278.843	6439
278.902	879
278.962	48
279.021	894
279.081	1075
279.140	482
279.199	116
279.259	532
279.318	453
279.378	1041
279.437	3757
279.496	15127
279.556	36043
279.615	17469
279.675	3966
279.734	2200
279.793	5973
279.853	9604
279.912	2882
279.971	786
280.031	614
280.090	4781
280.149	8351
280.208	5206
280.268	27420
280.327	17252
280.386	2853
280.445	2975
280.505	1891
280.564	1226
280.623	862
280.682	2786
280.742	2254
280.801	225
280.860	163
280.919	581
280.978	-318
281.037	-492
281.097	-747
281.156	265
281.215	-519
281.274	608
281.333	5165
281.392	2072
281.451	82
281.510	-571
281.569	468
281.628	-118
281.688	192
281.747	706
281.806	244
281.865	-318
281.924	-614
281.983	-202
282.042	-891
282.101	-282
282.160	-164
282.219	-284
282.278	-434
282.337	1866
282.396	389
282.454	830
282.513	700
282.572	3036
282.631	1259
282.690	-142
282.749	-1207
282.808	-77
282.867	105
282.926	23
282.985	-176
283.043	-1609
283.102	-199
283.161	-109
283.220	1775
283.279	3499
283.338	496
283.396	281
283.455	369
283.514	-472
283.573	1055
283.631	-85
283.690	-236
283.749	-67
283.808	873
283.866	1616
283.925	322
283.984	-389
284.043	128
284.101	303
284.160	-650
284.219	443
284.277	-22
284.336	881
284.395	4759
284.453	3162
284.512	-103
284.570	501
284.629	726
284.688	-115
284.746	-367
284.805	385
284.863	1069
284.922	1177
284.981	1427
285.039	2847
285.098	5775
285.156	20715
285.215	52168
285.273	41489
285.332	18145
285.390	8082
285.449	4984
285.507	3282
285.566	1976
285.624	1134
285.683	783
285.741	385
285.799	355
285.858	-129
285.916	-255
285.975	355
286.033	-27
286.091	250
286.150	-561
286.208	87
286.267	-85
286.325	287
286.383	661
286.442	-381
286.500	-400
286.558	-325
286.616	-659
286.675	327
286.733	196
286.791	-104
286.850	241
286.908	489
286.966	1238
287.024	-634
287.083	-626
287.141	-559
287.199	165
287.257	149
287.315	377
287.374	114
287.432	1463
287.490	1143
287.548	260
287.606	-275
287.664	469
287.723	447
287.781	930
287.839	-343
287.897	-131
287.955	562
288.013	1636
288.071	6382
288.129	33917
288.187	70234
288.245	24001
288.303	6712
288.361	3726
288.419	2290
288.477	1888
288.535	908
288.593	629
288.651	88
288.709	399
288.767	-471
288.825	-233
288.883	81
288.941	-383
288.999	-690
289.057	-368
289.115	-1055
289.173	37
289.231	589
289.289	-814
289.346	124
289.404	-124
289.462	239
289.520	964
289.578	-392
289.636	-345
289.694	-412
289.751	209
289.809	-77
289.867	-32
289.925	925
289.983	-582
290.040	-599
290.098	-210
290.156	-647
290.214	-297
290.271	-74
290.329	-482
290.387	-531
290.444	-760
290.502	-1140
290.560	-388
290.617	-726
290.675	-266
290.733	-420
290.790	493
290.848	-487
290.906	-641
290.963	-305
291.021	-470
291.078	-223
291.136	5
291.194	3375
291.251	5068
291.309	826
291.366	-870
291.424	-464
291.481	-437
291.539	-349
291.596	54
291.654	-627
291.711	-97
291.769	-413
291.826	436
291.884	111
291.941	-295
291.999	-609
292.056	-122
292.114	-28
292.171	-822
292.228	-1313
292.286	-430
292.343	-573
292.401	449
292.458	182
292.515	-716
292.573	162
292.630	426
292.687	-963
292.745	-54
292.802	-72
292.859	3447
292.917	5999
292.974	2069
293.031	182
293.089	-126
293.146	43
293.203	-753
293.260	-410
293.318	-28
293.375	1664
293.432	-2
293.489	-920
293.546	-47
293.604	-634
293.661	3625
293.718	9291
293.775	3930
293.832	1266
293.889	1069
293.947	1274
294.004	173
294.061	369
294.118	2199
294.175	6524
294.232	7402
294.289	2316
294.346	492
294.403	357
294.460	754
294.517	201
294.574	-254
294.631	-652
294.688	533
294.745	3425
294.802	14254
294.859	13015
294.916	4316
294.973	2455
295.030	1483
295.087	474
295.144	337
295.201	1205
295.258	-382
295.315	127
295.372	5136
295.429	6282
295.486	1972
295.542	1788
295.599	7707
295.656	11424
295.713	6509
295.770	7446
295.827	2554
295.883	799
295.940	1209
295.997	2256
296.054	821
296.111	293
296.167	286
296.224	172
296.281	-55
296.338	-629
296.394	-151
296.451	59
296.508	4099
296.564	6473
296.621	4480
296.678	9607
296.734	11546
296.791	3511
296.848	1292
296.904	1841
296.961	5208
297.018	9050
297.074	6021
297.131	1753
297.187	1306
297.244	2683
297.301	11593
297.357	15127
297.414	4165
297.470	1872
297.527	901
297.583	704
297.640	238
297.696	639
297.753	-161
297.809	-1051
297.866	182
297.922	-549
297.979	-438
298.035	102
298.092	1706
298.148	5062
298.204	3082
298.261	2107
298.317	4569
298.374	11914
298.430	4561
298.486	2097
298.543	1283
298.599	1470
298.656	1169
298.712	4402
298.768	9063
298.824	5674
298.881	1749
298.937	405
298.993	614
299.050	320
299.106	1058
299.162	-199
299.218	286
299.275	591
299.331	972
299.387	3011
299.443	10461
299.500	7898
299.556	2712
299.612	1345
299.668	475
299.724	831
299.780	356
299.837	102
299.893	2051
299.949	8114
300.005	8040
300.061	8724
300.117	13320
300.173	4631
300.229	1565
300.285	2174
300.341	2818
300.397	1254
300.453	17
300.510	1088
300.566	400
300.622	446
300.678	2909
300.734	6243
300.790	7840
300.845	8833
300.901	5002
300.957	6564
301.013	5194
301.069	2098
301.125	1251
301.181	303
301.237	483
301.293	-114
301.349	395
301.405	-256
301.461	252
301.516	289
301.572	890
301.628	1318
301.684	948
301.740	2933
301.796	4589
301.851	3914
301.907	5080
301.963	5386
302.019	12639
302.074	30771
302.130	27066
302.186	11347
302.242	3666
302.297	3207
302.353	3134
302.409	5736
302.464	4424
302.520	4040
302.576	10481
302.631	11118
302.687	5803
302.743	2103
302.798	565
302.854	-205
302.910	1382
302.965	1284
303.021	2014
303.076	2297
303.132	2730
303.187	2582
303.243	1768
303.299	226
303.354	163
303.410	-111
303.465	436
303.521	-256
303.576	384
303.632	545
303.687	2920
303.743	9319
303.798	6758
303.853	2019
303.909	684
303.964	991
304.020	1890
304.075	2581
304.130	3256
304.186	4822
304.241	5712
304.297	3988
304.352	2023
304.358	1905
304.407	944
304.449	1319
304.463	1448
304.518	1103
304.539	1229
304.573	1419
304.629	1075
304.630	1105
304.684	2500
304.720	6194
304.739	8076
304.794	10474
304.811	8756
304.850	4584
304.902	2289
304.905	2146
304.960	696
304.992	1122
305.015	1421
305.071	1017
305.083	958
305.126	750
305.173	-116
305.181	-260
305.236	357
305.264	483
305.292	659
305.347	1032
305.354	972
305.402	545
305.445	1232
305.457	1426
305.512	1056
305.535	1131
305.567	1227
305.622	1559
305.626	1657
305.678	3625
305.716	8136
305.733	9938
305.788	11507
305.807	10192
305.843	7625
305.897	9659
305.898	9686
305.953	9029
305.988	6286
306.008	4570
306.063	1903
306.078	1676
306.118	1456
306.168	947
306.173	896
306.228	777
306.259	528
306.283	332
306.338	605
306.349	607
306.393	719
306.440	846
306.448	852
306.503	1006
306.530	1413
306.558	2263
306.613	5559
306.620	5912
306.668	7654
306.711	9258
306.723	9475
306.778	7052
306.801	5673
306.833	3948
306.888	1077
306.892	1022
306.943	978
306.982	1210
306.997	1270
307.052	893
307.072	927
307.107	1072
307.162	2011
307.163	2023
307.217	3663
307.253	4661
307.272	4910
307.327	5069
307.343	4646
307.381	3363
307.434	3094
307.436	3180
307.491	5628
307.524	8342
307.546	9223
307.600	8664
307.614	7804
307.655	4825
307.704	2555
307.710	2467
307.765	2756
307.795	3751
307.819	5110
307.874	8762
307.885	8876
307.929	6843
307.975	4954
307.984	4950
308.038	6313
308.065	7961
308.093	12315
308.148	26587
308.156	30324
308.202	56781
308.246	69299
308.257	66765
308.312	36909
308.336	25470
308.366	18766
308.421	10798
308.426	10272
308.475	6749
308.517	4609
308.530	4237
308.585	3553
308.607	3364
308.639	3187
308.694	3334
308.697	3375
308.748	6695
308.787	10659
308.803	11084
308.857	8959
308.877	7948
308.912	6125
308.967	4212
308.967	4198
309.021	5379
309.058	6912
309.076	8610
309.130	15673
309.148	19016
309.185	35826
309.238	67766
309.239	68202
309.293	86309
309.328	84338
309.348	71338
309.402	33456
309.418	24062
309.457	16111
309.508	9092
309.511	8856
309.566	6716
309.598	6128
309.620	6232
309.674	6794
309.688	6999
309.729	7055
309.778	6413
309.783	6261
309.837	4554
309.868	3813
309.892	4150
309.946	5951
309.959	6642
310.001	9929
310.049	12695
310.055	12405
310.109	8204
310.139	5908
310.163	4558
310.218	2005
310.229	1653
310.272	1638
310.319	1641
310.326	1597
310.381	1452
310.409	1282
310.435	1318
310.489	1688
310.499	1735
310.543	1577
310.589	1533
310.598	1563
310.652	1605
310.679	1589
310.706	1430
310.760	1312
310.769	1272
310.814	1314
310.859	1199
310.868	1127
310.923	870
310.948	860
310.977	1065
311.031	1187
311.038	1222
311.085	1447
311.128	1497
311.139	1395
311.193	1092
311.218	842
311.247	871
311.301	1137
311.308	1139
311.356	991
311.398	968
311.410	1010
311.464	1193
311.488	1253
311.518	1178
311.572	1093
311.578	1077
311.626	1128
311.668	1230
311.680	1342
311.734	1722
311.758	1945
311.788	1889
311.842	1689
311.847	1674
311.896	2220
311.937	2700
311.950	2773
312.004	3091
312.027	3212
312.058	2772
312.112	2013
312.117	1939
312.165	1617
312.207	1350
312.297	2385
312.386	2091
312.476	1963
312.566	2049
312.656	1669
312.745	1321
312.835	2057
312.925	729
313.015	1885
313.104	1608
313.194	1413
313.284	1689
313.374	676
313.463	2219
313.553	1044
313.643	1348
313.732	1301
313.822	229
313.912	1204
314.001	1121
314.091	1677
314.180	2203
314.270	1662
314.360	1898
314.449	1674
314.539	1369
314.628	1179
314.718	1575
314.808	2957
314.897	1429
314.987	1879
315.076	1672
315.166	1165
315.255	1537
315.345	1579
315.434	2353
315.524	1412
315.613	1445
315.703	1387
315.792	2200
315.881	2451
315.971	1581
316.060	2741
316.150	4134
316.239	6828
316.328	3020
316.418	926
316.507	1052
316.597	1944
316.686	1530
316.775	1701
316.865	7431
316.954	1469
317.043	832
317.133	867
317.222	1189
317.311	1026
317.400	1161
317.490	1626
317.579	1259
317.668	1045
317.757	1253
317.847	1953
317.936	3167
318.025	3194
318.114	1504
318.203	1882
318.293	1964
318.382	4425
318.471	3739
318.560	5931
318.649	19777
318.738	6564
318.828	752
318.917	1696
319.006	2550
319.095	7555
319.184	21325
319.273	13481
319.362	3715
319.451	1544
319.540	1318
319.629	1409
319.718	3538
319.807	3303
319.896	4845
319.985	26556
320.074	13588
320.163	2588
320.252	3741
320.341	3764
320.430	4096
320.519	1692
320.608	1323
320.697	1922
320.786	1138
320.875	1528
320.964	1735
321.053	1936
321.142	3138
321.230	4142
321.319	2605
321.408	6806
321.497	4780
321.586	3241
321.675	4999
321.764	5724
321.852	3701
321.941	3771
322.030	2432
322.119	3492
322.207	7290
322.296	10109
322.385	4311
322.474	4094
322.562	6368
322.651	6089
322.740	3257
322.829	6810
322.917	8264
323.006	4569
323.095	1871
323.183	2598
323.272	3828
323.361	6869
323.449	26705
323.538	12045
323.626	16018
323.715	16441
323.804	4451
323.892	14837
323.981	10813
324.069	2818
324.158	8428
324.246	12078
324.335	2450
324.424	3169
324.512	730
324.601	1321
324.689	2914
324.778	7761
324.866	5948
324.954	1843
325.043	440
325.131	2961
325.220	7818
325.308	8277
325.397	5052
325.485	4238
325.574	532
325.662	903
325.750	1361
325.839	1242
325.927	445
326.015	1426
326.104	2042
326.192	4614
326.280	1195
326.369	652
326.457	1767
326.545	2630
326.634	922
326.722	366
326.810	200
326.898	826
326.987	680
327.075	1916
327.163	2806
327.251	2630
327.340	1302
327.428	3645
327.516	954
327.604	664
327.692	826
327.781	1597
327.869	2691
327.957	1196
328.045	1837
328.133	702
328.221	852
328.309	765
328.397	990
328.485	1018
328.574	699
328.662	2352
328.750	2283
328.838	1645
328.926	449
329.014	1107
329.102	1361
329.190	3989
329.278	2957
329.366	984
329.454	299
329.542	485
329.630	480
329.718	878
329.806	692
329.893	1323
329.981	2165
330.069	2826
330.157	10255
330.245	36247
330.333	24953
330.421	4417
330.509	1919
330.597	4643
330.684	4526
330.772	2441
330.860	3266
330.948	5415
331.036	2579
331.123	827
331.211	491
331.299	648
331.387	3203
331.475	7439
331.562	2239
331.650	1020
331.738	902
331.825	2686
331.913	878
332.001	653
332.089	987
332.176	2901
332.264	7714
332.352	8673
332.439	1817
332.527	1585
332.614	746
332.702	1665
332.790	822
332.877	2510
332.965	8619
333.052	1650
333.140	815
333.228	2566
333.315	1203
333.403	1213
333.490	3938
333.578	4468
333.665	1924
333.753	1656
333.840	897
333.928	1372
334.015	4616
334.103	7552
334.190	30092
334.278	10953
334.365	1555
334.452	1228
334.540	904
334.627	821
334.715	2296
334.802	3577
334.889	25677
334.977	41295
335.064	4390
335.151	1044
335.239	1996
335.326	2823
335.413	11047
335.501	25436
335.588	3006
335.675	293
335.762	1716
335.850	4519
335.937	2497
336.024	4500
336.111	31729
336.199	19572
336.286	2774
336.373	593
336.460	270
336.547	507
336.635	1735
336.722	754
336.809	343
336.896	996
336.983	6040
337.070	20522
337.157	34986
337.245	21568
337.332	20182
337.419	2353
337.506	786
337.593	1699
337.680	4811
337.767	24118
337.854	6861
337.941	5775
338.028	6315
338.115	2886
338.202	2605
338.289	4649
338.376	21139
338.463	9336
338.550	10317
338.637	18011
338.724	3659
338.811	7074
338.898	717
338.984	270
339.071	809
339.158	829
339.245	1647
339.332	2304
339.419	2743
339.506	5318
339.593	-47
339.679	-291
339.766	201
339.853	-345
339.940	1450
340.027	1020
340.113	231
340.200	647
340.287	-4
340.374	670
340.460	1047
340.547	-17
340.634	-174
340.720	3858
340.807	2539
340.894	148
340.980	168
341.067	113
341.154	12
341.240	744
341.327	1947
341.414	274
341.500	114
341.587	993
341.674	88
341.760	649
341.847	1842
341.933	-286
342.020	37
342.106	-14
342.193	-179
342.279	922
342.366	267
342.452	1058
342.539	189
342.625	1056
342.712	3843
342.798	1943
342.885	431
342.971	-275
343.058	-9
343.144	181
343.230	111
343.317	-15
343.403	569
343.490	-67
343.576	59
343.662	-432
343.749	840
343.835	1195
343.921	673
344.008	9301
344.094	34000
344.180	9544
344.267	1410
344.353	5284
344.439	10512
344.525	2942
344.612	280
344.698	2079
344.784	672
344.870	-205
344.957	-791
345.043	553
345.129	-63
345.215	1679
345.301	781
345.387	25
345.474	495
345.560	-128
345.646	-258
345.732	623
345.818	-28
345.904	184
345.990	126
346.076	366
346.162	2268
346.249	1167
346.335	203
346.421	-257
346.507	871
346.593	10594
346.679	3249
346.765	478
346.851	89
346.937	396
347.023	105
347.108	1119
347.194	-847
347.280	621
347.366	395
347.452	1700
347.538	12010
347.624	9585
347.710	8263
347.796	1473
347.882	-42
347.967	91
348.053	1379
348.139	838
348.225	-248
348.311	312
348.397	207
348.482	446
348.568	227
348.654	188
348.740	-206
348.825	-294
348.911	928
348.997	3549
349.083	13678
349.168	3095
349.254	425
349.340	108
349.425	-188
349.511	-245
349.597	158
349.682	754
349.768	4722
349.854	3655
349.939	1083
350.025	371
350.110	476
350.196	48
350.282	-256
350.367	-865
350.453	200
350.538	1120
350.624	-77
350.709	736
350.795	-367
350.880	-106
350.966	643
351.051	234
351.137	917
351.222	183
351.308	188
351.393	4775
351.479	733
351.564	15
351.649	-268
351.735	270
351.820	-646
351.906	194
351.991	122
352.076	1464
352.162	4542
352.247	842
352.332	-29
352.418	35
352.503	1253
352.588	4801
352.673	6270
352.759	248
352.844	-472
352.929	280
353.014	330
353.100	541
353.185	771
353.270	1325
353.355	1167
353.441	666
353.526	-34
353.611	598
353.696	576
353.781	739
353.866	-175
353.952	823
354.037	119
354.122	2843
354.207	2176
354.292	1086
354.377	-378
354.462	43
354.547	-192
354.632	404
354.717	1074
354.802	1271
354.887	183
354.972	362
355.057	-546
355.142	164
355.227	-5
355.312	-128
355.397	1734
355.482	4804
355.567	1743
355.652	1800
355.737	1156
355.822	5214
355.907	7771
355.991	675
356.076	-874
356.161	48
356.246	-406
356.331	280
356.416	213
356.501	11065
356.585	18912
356.670	2312
356.755	908
356.840	1113
356.924	5702
357.009	35272
357.094	17684
357.179	1807
357.263	1049
357.348	1334
357.433	1028
357.517	1101
357.602	637
357.687	562
357.771	1688
357.856	5358
357.941	3605
358.025	4674
358.110	34290
358.195	22947
358.279	1904
358.364	790
358.448	3053
358.533	11696
358.617	8756
358.702	8876
358.787	3889
358.871	477
358.956	946
359.040	-890
359.125	122
359.209	195
359.294	900
359.378	4155
359.462	416
359.547	1053
359.631	-320
359.716	-694
359.800	500
359.885	1199
359.969	-119
360.053	599
360.138	207
360.222	237
360.306	553
360.391	637
360.475	1369
360.559	5540
360.644	3070
360.728	3448
360.812	4223
360.896	23920
360.981	10844
361.065	5070
361.149	1135
361.233	46
361.318	-134
361.402	292
361.486	182
361.570	-469
361.654	-370
361.739	806
361.823	9156
361.907	26096
361.991	4069
362.075	961
362.159	1713
362.243	1929
362.327	-117
362.411	2446
362.495	960
362.580	632
362.664	-480
362.748	-323
362.832	-309
362.916	260
363.000	2468
363.084	10099
363.168	28171
363.252	7760
363.336	673
363.420	1616
363.503	15053
363.587	31425
363.671	4804
363.755	313
363.839	2086
363.923	-362
364.007	1204
364.091	1565
364.175	2369
364.258	31470
364.342	21844
364.426	6236
364.510	3033
364.594	3006
364.677	3442
364.761	16079
364.845	18338
364.929	2589
365.013	2082
365.096	1443
365.180	1745
365.264	3764
365.347	33332
365.431	21141
365.515	3271
365.598	-437
365.682	628
365.766	1719
365.849	4254
365.933	824
366.017	1560
366.100	2009
366.184	140
366.267	760
366.351	-760
366.435	-737
366.518	539
366.602	-487
366.685	-309
366.769	90
366.852	1120
366.936	3594
367.019	1239
367.103	989
367.186	4560
367.270	1155
367.353	-390
367.436	-192
367.520	-206
367.603	741
367.687	338
367.770	873
367.853	756
367.937	3170
368.020	8949
368.104	2455
368.187	780
368.270	1846
368.353	530
368.437	2894
368.520	12403
368.603	7712
368.687	4206
368.770	10558
368.853	1872
368.936	2078
369.020	3837
369.103	-551
369.186	-246
369.269	619
369.352	618
369.436	1542
369.519	797
369.602	-498
369.685	594
369.768	-513
369.851	577
369.934	144
370.018	-257
370.101	284
370.184	1314
370.267	695
370.350	1318
370.433	2931
370.516	7027
370.599	13188
370.682	1195
370.765	4137
370.848	5262
370.931	13518
371.014	7535
371.097	721
371.180	926
371.263	79
371.346	-279
371.429	-427
371.511	-63
371.594	503
371.677	1880
371.760	4147
371.843	1155
371.926	8186
372.009	31905
372.091	13381
372.174	3265
372.257	15372
372.340	7431
372.423	3397
372.505	7561
372.588	2127
372.671	2121
372.754	11200
372.836	8405
372.919	5850
373.002	21909
373.085	6527
373.167	1339
373.250	3186
373.332	11895
373.415	15637
373.498	43254
373.580	19649
373.663	11459
373.746	29963
373.828	6597
373.911	2249
373.993	1462
374.076	14662
374.159	23027
374.241	4211
374.324	8510
374.406	7533
374.489	7273
374.571	33150
374.654	17401
374.736	4018
374.819	17320
374.901	27437
374.983	36020
375.066	7458
375.148	1601
375.231	10227
375.313	33533
375.395	13533
375.478	1399
375.560	914
375.643	749
375.725	2971
375.807	22004
375.890	27708
375.972	13925
376.054	3916
376.136	10417
376.219	5047
376.301	3273
376.383	21339
376.465	10755
376.548	2458
376.630	3033
376.712	14775
376.794	9605
376.877	697
376.959	11
377.041	198
377.123	2104
377.205	5397
377.287	927
377.369	-40
377.452	-227
377.534	293
377.616	-97
377.698	-134
377.780	-1089
377.862	-307
377.944	-304
378.026	-497
378.108	-608
378.190	373
378.272	-207
378.354	156
378.436	-1141
378.518	-561
378.600	5054
378.682	4699
378.764	4853
378.846	5780
378.928	1008
379.010	1485
379.091	240
379.173	-137
379.255	-703
379.337	-359
379.419	974
379.501	9416
379.583	5371
379.664	563
379.746	579
379.828	4975
379.910	8244
379.991	8768
380.073	1131
380.155	261
380.237	-641
380.318	-327
380.400	-353
380.482	753
380.564	1255
380.645	905
380.727	1684
380.809	699
380.890	243
380.972	18
381.053	-245
381.135	454
381.217	160
381.298	6474
381.380	3203
381.461	1674
381.543	10522
381.624	23507
381.706	3878
381.787	1514
381.869	1599
381.951	3534
382.032	28894
382.113	26579
382.195	3757
382.276	1775
382.358	2825
382.439	13335
382.521	15774
382.602	30585
382.684	13257
382.765	15791
382.846	17385
382.928	14880
383.009	9367
383.090	4240
383.172	14164
383.253	38091
383.334	15767
383.416	22541
383.497	14617
383.578	2219
383.659	3879
383.741	12081
383.822	52375
383.903	37005
383.984	9228
384.066	24148
384.147	17127
384.228	3457
384.309	302
384.390	1089
384.471	307
384.553	1056
384.634	785
384.715	1462
384.796	-49
384.877	210
384.958	3597
385.039	7203
385.120	2328
385.201	884
385.282	745
385.363	2413
385.444	1159
385.525	967
385.606	10005
385.687	12731
385.768	2236
385.849	1926
385.930	8801
386.011	29142
386.092	8707
386.173	561
386.254	235
386.335	987
386.416	843
386.496	2832
386.577	6740
386.658	3488
386.739	1002
386.820	2447
386.901	1461
386.981	1830
387.062	-521
387.143	-246
387.224	3216
387.304	7159
387.385	1553
387.466	1087
387.547	2154
387.627	116
387.708	785
387.789	8627
387.869	18052
387.950	6339
388.031	-272
388.111	-699
388.192	3421
388.273	7310
388.353	3298
388.434	424
388.514	1001
388.595	10544
388.676	19538
388.756	8033
388.837	5049
388.917	4318
388.998	-629
389.078	295
389.159	206
389.239	-288
389.320	700
389.400	-526
389.480	1453
389.561	7444
389.641	5523
389.722	1453
389.802	1284
389.883	1962
389.963	9249
390.043	7675
390.124	2074
390.204	1944
390.284	5370
390.365	4709
390.445	7385
390.525	22741
390.605	20674
390.686	4771
390.766	1539
390.846	533
390.927	195
391.007	-556
391.087	278
391.167	-23
391.247	-788
391.328	2195
391.408	2100
391.488	3065
391.568	-477
391.648	-174
391.728	743
391.808	842
391.888	347
391.969	2066
392.049	6924
392.129	4496
392.209	1760
392.289	8030
392.369	6380
392.449	7309
392.529	4437
392.609	1510
392.689	1021
392.769	6298
392.849	8612
392.929	4215
393.009	14103
393.089	11860
393.169	3818
393.248	7712
393.328	65649
393.408	119087
393.488	26565
393.568	3534
393.648	2144
393.728	1042
393.807	717
393.887	1354
393.967	653
394.047	1491
394.127	1897
394.206	3284
394.286	11600
394.366	74579
394.446	127927
394.525	33378
394.605	5851
394.685	2755
394.764	8492
394.844	18269
394.924	16480
395.003	3312
395.083	518
395.163	1338
395.242	562
395.322	1538
395.402	-466
395.481	2170
395.561	3490
395.640	20659
395.720	14056
395.799	20655
395.879	25512
395.958	8082
396.038	19072
396.117	100285
396.197	164776
396.276	53579
396.356	14621
396.435	9493
396.515	5077
396.594	1953
396.673	2744
396.753	11087
396.832	73358
396.912	79289
396.991	15137
397.070	2781
397.150	255
397.229	1139
397.308	711
397.388	780
397.467	999
397.546	356
397.625	-1628
397.705	845
397.784	-452
397.863	-646
397.942	-819
398.022	-378
398.101	2569
398.180	21692
398.259	15053
398.338	2491
398.417	52
398.497	-389
398.576	490
398.655	-908
398.734	-239
398.813	382
398.892	2569
398.971	23081
399.050	17157
399.129	416
399.208	185
399.287	838
399.366	-281
399.445	-1105
399.524	-603
399.603	-573
399.682	137
399.761	1519
399.840	19976
399.919	26872
399.998	3168
400.077	-959
400.156	-1903
400.235	1083
400.313	-102
400.392	-619
400.471	1767
400.550	4691
400.629	738
400.708	163
400.786	-292
400.865	3160
400.944	4549
401.023	2564
401.102	-782
401.180	-733
401.259	-872
401.338	157
401.416	-285
401.495	35
401.574	322
401.652	-1214
401.731	-338
401.810	-56
401.888	-714
401.967	-956
402.046	-806
402.124	245
402.203	-405
402.281	-414
402.360	8
402.438	4357
402.517	4008
402.596	101
402.674	-295
402.753	425
402.831	-673
402.910	-455
402.988	1417
403.066	13228
403.145	10921
403.223	2894
403.302	9950
403.380	10328
403.459	8576
403.537	3731
403.615	369
403.694	-1021
403.772	-41
403.850	-650
403.929	-602
404.007	-1039
404.085	994
404.164	681
404.242	445
404.320	222
404.398	5619
404.477	8378
404.555	17257
404.633	24133
404.711	7171
404.789	4504
404.868	-27
404.946	-948
405.024	-1099
405.102	-378
405.180	-1193
405.258	-1032
405.336	-38
405.415	-532
405.493	679
405.571	1298
405.649	-1456
405.727	-1303
405.805	-263
405.883	304
405.961	519
406.039	863
406.117	-1321
406.195	-136
406.273	1068
406.351	13323
406.429	14140
406.507	2072
406.585	-99
406.663	-136
406.740	-1202
406.818	-328
406.896	-1146
406.974	-634
407.052	-987
407.130	5252
407.208	13712
407.285	2361
407.363	-999
407.441	-387
407.519	-1184
407.596	-315
407.674	-655
407.752	3407
407.830	6364
407.907	3412
407.985	-544
408.063	-43
408.141	-1135
408.218	915
408.296	537
408.373	-923
408.451	-533
408.529	-264
408.606	-1153
408.684	-371
408.762	-1270
408.839	-515
408.917	-1241
408.994	-509
409.072	-1266
409.149	-1172
409.227	-234
409.304	-699
409.382	-1159
409.459	-1010
409.537	-976
409.614	-898
409.692	-1628
409.769	-1440
409.846	-1184
409.924	-54
410.001	-1321
410.079	-801
410.156	13
410.233	-256
410.311	-567
410.388	-1399
410.465	-1069
410.543	-845
410.620	-1177
410.697	-944
410.775	-658
410.852	-1376
410.929	-710
411.006	-158
411.083	-1200
411.161	-261
411.238	172
411.315	-364
411.392	-1199
411.469	93
411.547	-1355
411.624	-1095
411.701	-992
411.778	-1072
411.855	-548
411.932	-572
412.009	-1151
412.086	-705
412.163	-584
412.240	-363
412.317	291
412.394	-464
412.471	-378
412.548	-1330
412.625	-1297
412.702	-189
412.779	293
412.856	-132
412.933	-1471
413.010	-841
413.087	-273
413.164	712
413.241	4144
413.318	-659
413.395	-124
413.471	-676
413.548	-158
413.625	-759
413.702	-1112
413.779	36
413.855	-933
413.932	-1165
414.009	-2023
414.086	-1285
414.162	-386
414.239	-608
414.316	514
414.393	5894
414.469	1998
414.546	-1184
414.623	-889
414.699	-841
414.776	-922
414.853	-952
414.929	-884
415.006	-749
415.082	-1035
415.159	-847
415.236	-490
415.312	174
415.389	-353
415.465	-611
415.542	-437
415.618	-714
415.695	-202
415.771	-675
415.848	-1522
415.924	-278
416.000	-1118
416.077	-231
416.153	-1523
416.230	-1403
416.306	-1358
416.383	-966
416.459	-1091
416.535	-1426
416.612	-786
416.688	-684
416.764	-1540
416.841	-1726
416.917	-1458
416.993	-1584
417.069	-687
417.146	-834
417.222	-110
417.298	-784
417.374	-676
417.451	-205
417.527	-1279
417.603	-627
417.679	-1296
417.755	-492
417.831	-1928
417.908	-1076
417.984	-1104
418.060	-2038
418.136	-783
418.212	-409
418.288	-295
418.364	-876
418.440	-1591
418.516	-537
418.592	95
418.668	1341
418.744	-362
418.820	951
418.896	-575
418.972	-1734
419.048	-1515
419.124	-246
419.200	-770
419.276	-1242
419.352	-1124
419.428	-406
419.504	-1538
419.579	-263
419.655	-1325
419.731	-527
419.807	-560
419.883	486
419.959	506
420.034	-118
420.110	-641
420.186	2369
420.262	3758
420.337	-377
420.413	-928
420.489	-761
420.565	-645
420.640	-553
420.716	-1349
420.792	-1342
420.867	-467
420.943	-1490
421.019	-1069
421.094	-915
421.170	-395
421.245	-1278
421.321	-170
421.397	-1174
421.472	-832
421.548	1326
421.623	1388
421.699	-593
421.774	-518
421.850	-1278
421.925	-275
422.001	-147
422.076	-1084
422.152	-1422
422.227	-955
422.302	664
422.378	-139
422.453	1380
422.529	4965
422.604	21410
422.679	77472
422.755	58941
422.830	14002
422.905	2958
422.981	424
423.056	16
423.131	231
423.207	-665
423.282	-617
423.357	476
423.432	-311
423.508	301
423.583	527
423.658	380
423.733	-1069
423.808	422
423.883	-311
423.959	-709
424.034	-934
424.109	-606
424.184	-1368
424.259	-704
424.334	-813
424.409	-1569
424.484	-1407
424.559	-1011
424.634	-1678
424.709	-1215
424.784	-338
424.859	-624
424.934	-850
425.009	456
425.084	3619
425.159	1851
425.234	-572
425.309	-1090
425.384	227
425.459	1356
425.534	618
425.609	-413
425.683	-825
425.758	-1578
425.833	-248
425.908	59
425.983	-914
426.058	3918
426.132	1508
426.207	-1307
426.282	304
426.357	153
426.431	-954
426.506	309
426.581	-720
426.655	-743
426.730	-1132
426.805	-1292
426.879	-97
426.954	-1408
427.029	-681
427.103	2125
427.178	11899
427.253	9561
427.327	418
427.402	-17
427.476	1998
427.551	1947
427.625	-571
427.700	-19
427.774	-1182
427.849	-192
427.923	-1345
427.998	-648
428.072	-850
428.147	-48
428.221	410
428.296	7826
428.370	5560
428.444	-207
428.519	771
428.593	3757
428.667	4144
428.742	3103
428.816	4206
428.890	5849
428.965	13552
429.039	6205
429.113	4908
429.188	2480
429.262	-489
429.336	-578
429.410	972
429.485	1384
429.559	2667
429.633	3631
429.707	-733
429.781	62
429.855	7151
429.930	16577
430.004	10881
430.078	20886
430.152	21244
430.226	12802
430.300	20006
430.374	3835
430.448	234
430.522	3118
430.596	19322
430.670	17384
430.744	7778
430.818	22439
430.892	8331
430.966	-153
431.040	-53
431.114	-1748
431.188	-1290
431.262	-1014
431.336	-468
431.410	624
431.484	3533
431.557	4993
431.631	-496
431.705	-634
431.779	-936
431.853	5680
431.927	7583
432.000	704
432.074	-565
432.148	-103
432.222	-234
432.295	-225
432.369	-1281
432.443	-490
432.516	3152
432.590	15176
432.664	10657
432.737	-14
432.811	-560
432.885	-1084
432.958	-891
433.032	-1075
433.106	-1382
433.179	-1490
433.253	-1013
433.326	-1072
433.400	-882
433.473	-829
433.547	-1312
433.620	-205
433.694	-1644
433.767	43
433.841	-1217
433.914	-545
433.988	-1399
434.061	-383
434.134	-1526
434.208	-1472
434.281	-1532
434.355	-641
434.428	-883
434.501	-1404
434.575	-1074
434.648	-1440
434.721	-1123
434.795	-1352
434.868	-1387
434.941	-1067
435.014	-1207
435.088	-749
435.161	-725
435.234	-1382
435.307	-870
435.381	-996
435.454	-921
435.527	-422
435.600	-1191
435.673	-449
435.746	-1514
435.819	-638
435.892	-1218
435.966	-584
436.039	-1656
436.112	-461
436.185	-1276
436.258	-1156
436.331	-1570
436.404	-1109
436.477	-1628
436.550	-1681
436.623	-1182
436.696	-1133
436.769	-1021
436.842	-1058
436.915	-1122
436.987	-202
437.060	-1152
437.133	-809
437.206	-1366
437.279	-361
437.352	-449
437.425	-906
437.498	-416
437.570	-663
437.643	-153
437.716	-1116
437.789	-833
437.861	-1261
437.934	526
438.007	818
438.080	-1493
438.152	-664
438.225	-966
438.298	3370
438.370	25025
438.443	20453
438.516	3170
438.588	-204
438.661	-1519
438.734	-476
438.806	-909
438.879	-452
438.951	-1407
439.024	-185
439.096	-402
439.169	-519
439.241	-974
439.314	-1235
439.386	-1079
439.459	455
439.531	283
439.604	-582
439.676	-135
439.749	-463
439.821	-759
439.893	-458
439.966	-1034
440.038	-996
440.110	-383
440.183	-590
440.255	-1751
440.327	-461
440.400	562
440.472	11774
440.544	16054
440.617	2715
440.689	229
440.761	435
440.833	850
440.905	1274
440.978	-913
441.050	-952
441.122	-1135
441.194	-1292
441.266	-1015
441.338	-1079
441.411	-734
441.483	1408
441.555	6854
441.627	3072
441.699	154
441.771	957
441.843	-482
441.915	-1127
441.987	-1297
442.059	-576
442.131	-698
442.203	-306
442.275	82
442.347	110
442.419	-1124
442.491	436
442.563	6567
442.635	7403
442.706	4798
442.778	6320
442.850	730
442.922	-1269
442.994	-1359
443.066	-784
443.137	-32
443.209	-7
443.281	111
443.353	526
443.425	2893
443.496	12990
443.568	22273
443.640	11109
443.711	2574
443.783	198
443.855	-359
443.926	-817
443.998	-1223
444.070	-73
444.141	-616
444.213	514
444.285	191
444.356	-800
444.428	-22
444.499	-240
444.571	-924
444.642	-427
444.714	-1186
444.785	-741
444.857	350
444.928	3553
445.000	2791
445.071	1790
445.143	3582
445.214	1951
445.285	1803
445.357	6398
445.428	11911
445.500	33676
445.571	35204
445.642	16155
445.714	7276
445.785	9488
445.856	3439
445.928	1443
445.999	343
446.070	-484
446.141	181
446.213	1134
446.284	-155
446.355	138
446.426	-84
446.497	-426
446.569	-757
446.640	995
446.711	722
446.782	-283
446.853	-132
446.924	167
446.995	-909
447.066	-780
447.138	461
447.209	1219
447.280	-1289
447.351	-871
447.422	-919
447.493	-108
447.564	-1216
447.635	-370
447.706	27
447.777	-1318
447.847	-406
447.918	-642
447.989	-167
448.060	196
448.131	2144
448.202	3036
448.273	1239
448.344	397
448.414	-444
448.485	-468
448.556	-385
448.627	-553
448.698	165
448.768	-639
448.839	-984
448.910	239
448.981	2023
449.051	764
449.122	-162
449.193	-762
449.263	-1120
449.334	9
449.405	49
449.475	360
449.546	934
449.616	1831
449.687	1595
449.758	608
449.828	-900
449.899	30
449.969	-349
450.040	286
450.110	-95
450.181	420
450.251	-764
450.322	-155
450.392	98
450.463	-133
450.533	-471
450.604	335
450.674	-1108
450.744	354
450.815	-347
450.885	-410
450.955	-166
451.026	-677
451.096	-1216
451.166	113
451.237	748
451.307	6079
451.377	4478
451.447	284
451.518	-1008
451.588	-1141
451.658	-466
451.728	402
451.799	4185
451.869	9327
451.939	3929
452.009	208
452.079	-859
452.149	160
452.219	-74
452.289	5830
452.360	8503
452.430	2807
452.500	203
452.570	535
452.640	145
452.710	1996
452.780	7730
452.850	6076
452.920	2474
452.990	1981
453.060	272
453.129	294
453.199	1157
453.269	4083
453.339	23498
453.409	42960
453.479	28670
453.549	45756
453.619	54929
453.688	35992
453.758	7271
453.828	1300
453.898	-162
453.968	316
454.037	-716
454.087	-58
454.107	202
454.168	-388
454.177	-483
454.247	-41
454.249	-64
454.316	-930
454.330	-857
454.386	-573
454.411	382
454.456	1786
454.492	4389
454.525	6690
454.574	5005
454.595	4285
454.655	1149
454.665	660
454.734	934
454.736	962
454.804	1343
454.817	2087
454.873	4739
454.898	7176
454.943	11317
454.979	7768
455.013	4716
455.060	2282
455.082	1253
455.141	707
455.152	607
455.221	3986
455.222	4113
455.291	10525
455.303	10646
455.360	11190
455.384	12503
455.430	13405
455.465	13022
455.499	12899
455.546	9144
455.569	7250
455.627	6659
455.638	6661
455.707	1730
455.708	1729
455.777	17
455.789	29
455.846	-37
455.869	58
455.916	300
455.950	112
455.985	-167
456.031	102
456.054	288
456.112	-45
456.124	-116
456.193	97
456.193	88
456.262	-367
456.274	-201
456.332	726
456.355	911
456.401	922
456.436	950
456.470	1041
456.516	289
456.540	-111
456.597	-200
456.609	-176
456.678	-690
456.678	-701
456.747	-336
456.759	-348
456.817	-344
456.840	-397
456.886	-249
456.920	243
456.955	593
457.001	377
457.024	268
457.082	516
457.093	591
457.162	858
457.163	871
457.232	1283
457.243	1195
457.301	510
457.324	319
457.370	44
457.405	-181
457.439	-200
457.485	35
457.508	52
457.566	61
457.577	85
457.646	567
457.647	573
457.715	448
457.727	528
457.784	1423
457.808	1676
457.853	1637
457.889	1903
457.922	1911
457.969	1852
457.991	2096
458.050	1845
458.060	1823
458.129	2701
458.130	2742
458.198	2840
458.211	2693
458.267	2384
458.292	2053
458.336	1681
458.372	1146
458.405	954
458.453	1237
458.474	1496
458.533	2926
458.543	3083
458.611	4551
458.614	4645
458.680	4592
458.694	3938
458.749	2546
458.775	2116
458.818	1284
458.855	976
458.887	960
458.936	519
458.955	284
459.016	580
459.024	678
459.093	1235
459.097	1273
459.162	1082
459.177	874
459.230	792
459.257	848
459.299	590
459.338	944
459.368	1316
459.418	1204
459.437	1080
459.499	795
459.505	810
459.574	1491
459.579	1504
459.643	1095
459.659	1014
459.711	1062
459.740	1239
459.780	1501
459.820	1390
459.849	1151
459.900	1144
459.917	1220
459.981	1232
459.986	1230
460.054	1363
460.061	1362
460.123	962
460.141	962
460.191	1661
460.222	2000
460.260	2065
460.302	2083
460.328	1969
460.382	1886
460.397	1930
460.462	1771
460.465	1775
460.534	1937
460.543	1985
460.602	5545
460.623	7044
460.671	12592
460.703	17497
460.739	16838
460.783	17416
460.808	16720
460.864	7527
460.876	6786
460.944	1941
460.945	1884
461.013	1781
461.024	1708
461.081	1284
461.104	1355
461.150	1661
461.184	1674
461.218	1569
461.264	1376
461.286	1302
461.345	1094
461.355	1048
461.423	1189
461.425	1186
461.491	1364
461.505	1376
461.559	2779
461.585	3517
461.628	6182
461.665	8848
461.696	10200
461.745	13761
461.764	12225
461.825	4918
461.832	4925
461.901	2648
461.905	2612
461.969	1603
461.985	1547
462.037	1902
462.065	1915
462.105	1814
462.145	1833
462.173	2730
462.225	4556
462.241	5201
462.305	8098
462.310	7874
462.378	5160
462.385	4594
462.446	2525
462.465	1941
462.514	1660
462.545	1888
462.582	1944
462.625	1950
462.650	1925
462.705	1800
462.718	1830
462.785	2033
462.786	2048
462.854	2899
462.865	3050
462.922	3972
462.945	4527
462.990	3449
463.025	2156
463.058	2146
463.104	2002
463.126	1685
463.184	1172
463.194	1299
463.262	2092
463.264	2130
463.330	1772
463.344	1653
463.398	2236
463.424	2518
463.466	2286
463.504	2051
463.533	2210
463.583	2456
463.601	2513
463.663	2616
463.669	2715
463.737	3854
463.743	3953
463.805	5252
463.823	5750
463.873	9266
463.903	11267
463.940	12226
463.982	14140
464.008	11683
464.062	5493
464.076	5196
464.142	2100
464.144	2061
464.211	1621
464.221	1632
464.279	1612
464.301	1591
464.347	2030
464.381	2427
464.414	2766
464.461	3191
464.482	3369
464.540	4012
464.550	3881
464.617	2656
464.620	2613
464.685	2932
464.699	2966
464.753	3160
464.779	3351
464.820	4419
464.859	5478
464.888	5479
464.938	5344
464.956	5340
465.018	5093
465.023	4958
465.091	3327
465.098	3155
465.158	3743
465.177	3886
465.226	4036
465.257	4272
465.293	4257
465.336	3967
465.361	3982
465.416	4260
465.428	4613
465.495	6341
465.496	6384
465.563	11777
465.575	12688
465.631	16704
465.654	18668
465.698	12480
465.734	6887
465.765	5850
465.813	3789
465.833	3669
465.893	3878
465.900	3877
465.968	3794
465.972	3803
466.035	3671
466.052	3583
466.102	3660
466.131	3767
466.170	3890
466.210	3914
466.237	4055
466.290	4412
466.304	4538
466.369	5014
466.372	5018
466.439	4995
466.449	4982
466.506	5835
466.528	6203
466.573	7921
466.607	9133
466.641	12955
466.687	18293
466.708	20912
466.766	28164
466.775	26172
466.842	11034
466.845	10296
466.909	7524
466.925	6866
466.977	6355
467.004	6182
467.044	6670
467.083	7141
467.111	7215
467.163	7342
467.178	7554
467.242	8403
467.245	8352
467.312	7137
467.321	6971
467.379	7044
467.400	7056
467.446	7618
467.480	8012
467.559	6727
467.638	5770
467.717	5151
467.796	5841
467.875	6722
467.955	5834
468.034	8702
468.113	20906
468.192	33096
468.271	8043
468.350	4943
468.429	4746
468.508	4523
468.588	4309
468.667	4482
468.746	4839
468.825	5263
468.904	4738
468.983	4895
469.062	6851
469.141	10103
469.220	4302
469.299	4381
469.378	5301
469.456	5700
469.535	5269
469.614	4871
469.693	4834
469.772	7352
469.851	9433
469.930	6563
470.009	4134
470.088	4014
470.166	4651
470.245	4813
470.324	5867
470.403	4645
470.482	3709
470.560	3815
470.639	3285
470.718	5075
470.797	2987
470.875	4794
470.954	6994
471.033	8419
471.111	4071
471.190	3667
471.269	3413
471.347	3767
471.426	3961
471.505	4576
471.583	4647
471.662	4678
471.740	4027
471.819	3344
471.898	3933
471.976	4396
472.055	3508
472.133	4693
472.212	5913
472.290	6119
472.369	4443
472.447	4477
472.526	3033
472.604	4110
472.683	4504
472.761	4649
472.839	3658
472.918	3472
472.996	3269
473.075	4567
473.153	4241
473.231	3432
473.310	3773
473.388	4562
473.466	3932
473.545	4326
473.623	5442
473.701	5096
473.780	3341
473.858	4159
473.936	5144
474.014	4134
474.093	4399
474.171	6235
474.249	9081
474.327	6620
474.405	3178
474.484	3933
474.562	3341
474.640	3827
474.718	3405
474.796	3732
474.874	4036
474.952	2878
475.030	3503
475.108	4780
475.187	5465
475.265	6032
475.343	8795
475.421	10587
475.499	4194
475.577	4524
475.655	5153
475.733	9934
475.811	17703
475.889	17472
475.966	11628
476.044	3840
476.122	5414
476.200	8695
476.278	6594
476.356	3424
476.434	3767
476.512	5522
476.590	8444
476.667	7154
476.745	2478
476.823	4157
476.901	3146
476.979	3220
477.056	3264
477.134	4329
477.212	3343
477.290	3658
477.367	3295
477.445	2301
477.523	2848
477.601	3202
477.678	3073
477.756	4146
477.834	3777
477.911	2878
477.989	3483
478.066	3103
478.144	3609
478.222	5673
478.299	10489
478.377	10280
478.454	2933
478.532	2910
478.609	2795
478.687	3537
478.764	1852
478.842	2986
478.919	2850
478.997	3223
479.074	2457
479.152	3419
479.229	4491
479.307	2996
479.384	2381
479.461	1801
479.539	2356
479.616	4156
479.694	2900
479.771	3341
479.848	3236
479.926	3823
480.003	5957
480.080	3258
480.157	2473
480.235	2970
480.312	1700
480.389	3091
480.467	5201
480.544	7814
480.621	3494
480.698	3368
480.775	3168
480.853	3736
480.930	3223
481.007	2642
481.084	3529
481.161	4513
481.238	4151
481.315	2600
481.392	3026
481.470	3368
481.547	2883
481.624	3282
481.701	1967
481.778	3207
481.855	2961
481.932	4786
482.009	9467
482.086	8129
482.163	2770
482.240	5271
482.317	12776
482.393	10352
482.470	3337
482.547	3025
482.624	3114
482.701	2963
482.778	3204
482.855	2445
482.932	2514
483.009	2818
483.085	2848
483.162	3042
483.239	2902
483.316	1535
483.393	2204
483.469	1891
483.546	3016
483.623	3428
483.699	1651
483.776	3197
483.853	3281
483.930	4685
484.006	13374
484.083	28673
484.160	12617
484.236	18150
484.313	13827
484.389	10065
484.466	8670
484.543	8802
484.619	8006
484.696	8595
484.772	8590
484.849	9859
484.925	8493
485.002	7838
485.078	8877
485.155	7816
485.231	7364
485.308	7797
485.384	7625
485.461	10444
485.537	14218
485.614	19227
485.690	7658
485.766	7493
485.843	7283
485.919	9073
485.995	9599
486.072	6063
486.148	6111
486.224	6448
486.301	6314
486.377	7554
486.453	7831
486.530	7026
486.606	10443
486.682	12211
486.758	13199
486.835	17036
486.911	10219
486.987	19073
487.063	17898
487.139	18899
487.215	14812
487.292	8531
487.368	6993
487.444	7604
487.520	8907
487.596	7738
487.672	7615
487.748	14099
487.824	20409
487.900	10816
487.976	6776
488.052	7902
488.128	8316
488.204	7773
488.280	7000
488.356	8435
488.432	15814
488.508	28454
488.584	9377
488.660	6017
488.736	7249
488.812	5411
488.888	7782
488.964	9412
489.039	15801
489.115	26983
489.191	17175
489.267	7362
489.343	5532
489.418	4917
489.494	4446
489.570	5154
489.646	5908
489.722	5494
489.797	5125
489.873	8306
489.949	19447
490.024	19368
490.100	5518
490.176	5335
490.251	6049
490.327	7868
490.403	4406
490.478	4375
490.554	3282
490.629	3936
490.705	4495
490.781	5014
490.856	4456
490.932	4870
491.007	4880
491.083	5107
491.158	3215
491.234	5403
491.309	14190
491.385	16683
491.460	4580
491.536	5219
491.611	4360
491.686	4108
491.762	6375
491.837	9895
491.913	17964
491.988	24327
492.063	32902
492.139	11891
492.214	7533
492.289	4191
492.365	3149
492.440	4959
492.515	4227
492.590	4630
492.666	4049
492.741	5372
492.816	7750
492.891	4782
492.967	4240
493.042	3057
493.117	3906
493.192	4850
493.267	7018
493.342	26473
493.418	44581
493.493	7764
493.568	3349
493.643	3569
493.718	4226
493.793	6488
493.868	6843
493.943	4080
494.018	3435
494.093	3625
494.168	3361
494.243	3188
494.318	1447
494.393	2784
494.468	2885
494.543	2812
494.618	2847
494.693	2336
494.768	2193
494.842	3407
494.917	2512
494.992	3112
495.067	2264
495.142	2693
495.217	3025
495.292	2793
495.366	3477
495.441	4220
495.516	5987
495.591	6929
495.665	19182
495.740	54689
495.815	24170
495.890	6056
495.964	3893
496.039	5168
496.114	3778
496.188	4648
496.263	3616
496.338	4020
496.412	4620
496.487	5625
496.561	5313
496.636	6548
496.710	4824
496.785	5690
496.860	6462
496.934	5576
497.009	4575
497.083	5028
497.158	5619
497.232	6849
497.307	8451
497.381	6615
497.455	8538
497.530	11677
497.604	8425
497.679	9353
497.753	14769
497.827	21090
497.902	20341
497.976	22885
498.050	38255
498.125	142990
498.199	178876
498.273	31715
498.348	22544
498.422	18318
498.496	15565
498.570	13901
498.645	11060
498.719	11335
498.793	11636
498.867	16135
498.941	21018
499.016	49233
499.090	167884
499.164	68435
499.238	8089
499.312	6258
499.386	6433
499.460	6142
499.534	5603
499.609	6619
499.683	10738
499.757	12278
499.831	19968
499.905	96073
499.979	112215
500.053	14843
500.127	11669
500.201	7908
500.275	5187
500.349	5659
500.422	6264
500.496	9350
500.570	16264
500.644	44750
500.718	112454
500.792	27326
500.866	5457
500.940	7473
501.013	5089
501.087	5554
501.161	9048
501.235	12685
501.309	27389
501.382	84828
501.456	89358
501.530	16334
501.603	28754
501.677	12128
501.751	4389
501.825	6056
501.898	9533
501.972	33273
502.046	24919
502.119	5412
502.193	12094
502.266	38323
502.340	20803
502.413	14685
502.487	32138
502.561	19396
502.634	5174
502.708	3434
502.781	2896
502.855	2679
502.928	2026
503.002	3051
503.075	1604
503.149	3116
503.222	2871
503.295	3821
503.369	4584
503.442	6383
503.516	20332
503.589	65187
503.662	45888
503.736	12318
503.809	28256
503.882	24329
503.956	32388
504.029	35080
504.102	10228
504.175	10912
504.249	3714
504.322	3979
504.395	4019
504.468	2694
504.542	2697
504.615	1420
504.688	1636
504.761	1103
504.834	2063
504.907	2760
504.980	4899
505.053	2223
505.127	1960
505.200	4828
505.273	3652
505.346	3459
505.419	1630
505.492	1618
505.565	1997
505.638	1603
505.711	1006
505.784	1511
505.857	1119
505.930	1966
506.003	780
506.076	2759
506.149	2963
506.221	4500
506.294	4641
506.367	10659
506.440	46486
506.513	29391
506.586	4883
506.659	2073
506.731	1761
506.804	2640
506.877	3358
506.950	3452
507.022	1763
507.095	2043
507.168	4573
507.241	2570
507.313	1161
507.386	1397
507.459	3385
507.531	1737
507.604	1402
507.677	2059
507.749	-134
507.822	1939
507.894	4643
507.967	6519
508.040	3797
508.112	3499
508.185	2745
508.257	3084
508.330	3783
508.402	1968
508.475	3220
508.547	3316
508.620	3028
508.692	5874
508.765	2270
508.837	1830
508.909	1925
508.982	2243
509.054	1478
509.127	2157
509.199	1640
509.271	1399
509.344	712
509.416	2454
509.488	2359
509.560	1952
509.633	1753
509.705	2751
509.777	2109
509.849	3086
509.922	2301
509.994	2874
510.066	1389
510.138	2150
510.210	6451
510.283	5277
510.355	4159
510.427	4163
510.499	2866
510.571	3096
510.643	3271
510.715	4883
510.787	3802
510.859	3964
510.931	4568
511.003	4805
511.076	4557
511.148	2431
511.219	2830
511.291	5391
511.363	6728
511.435	2472
511.507	2077
511.579	3312
511.651	2076
511.723	2282
511.795	1898
511.867	2703
511.939	2882
512.010	6949
512.082	6330
512.154	3310
512.226	2707
512.298	4326
512.369	6803
512.441	4940
512.513	4710
512.585	3004
512.656	3514
512.728	3154
512.800	2676
512.871	2987
512.943	2694
513.015	2215
513.086	2615
513.158	2899
513.230	3217
513.301	4350
513.373	5257
513.444	3940
513.516	2559
513.588	2526
513.659	2706
513.731	3115
513.802	2415
513.874	5695
513.945	10368
514.016	4300
514.088	2029
514.159	3370
514.231	3373
514.302	5027
514.374	4511
514.445	4474
514.516	9545
514.588	6664
514.659	4159
514.730	8720
514.802	7017
514.873	4396
514.944	7247
515.016	5382
515.087	4854
515.158	5172
515.229	9777
515.301	6321
515.372	10298
515.443	5614
515.514	3820
515.585	2988
515.656	2885
515.728	2675
515.799	2032
515.870	2999
515.941	2578
516.012	2492
516.083	4131
516.154	3432
516.225	5172
516.296	3980
516.367	3874
516.438	3834
516.509	4746
516.580	7340
516.651	16527
516.722	63322
516.793	36528
516.864	6926
516.935	7819
517.006	9422
517.077	11320
517.148	22051
517.219	59004
517.289	122502
517.360	53689
517.431	23511
517.502	3948
517.573	4311
517.643	3435
517.714	4397
517.785	4709
517.856	4778
517.926	5517
517.997	6879
518.068	7541
518.138	10629
518.209	13028
518.280	38627
518.350	173371
518.421	79418
518.492	8864
518.562	6043
518.633	5427
518.703	3973
518.774	5647
518.845	9851
518.915	11689
518.986	6226
519.056	5927
519.127	10329
519.197	15353
519.268	45970
519.338	39001
519.408	7328
519.479	6565
519.549	5507
519.620	3732
519.690	3403
519.760	2560
519.831	2687
519.901	2929
519.971	3017
520.042	3216
520.112	3837
520.182	4236
520.253	4426
520.323	2173
520.393	3987
520.463	6965
520.534	3258
520.604	10809
520.674	5995
520.744	4386
520.814	11120
520.885	10749
520.955	12206
521.025	58038
521.095	28743
521.165	3793
521.235	2367
521.305	2730
521.375	1842
521.445	2519
521.515	4136
521.585	3438
521.655	3575
521.725	3048
521.795	3285
521.865	763
521.935	5226
522.005	3312
522.075	1860
522.145	2217
522.215	2787
522.285	4815
522.355	7126
522.424	12575
522.494	12165
522.564	5467
522.634	6485
522.704	21636
522.774	10304
522.843	2358
522.913	2024
522.983	3453
523.053	2163
523.122	2599
523.192	3095
523.262	10323
523.331	13412
523.401	2707
523.471	1975
523.540	2464
523.610	1094
523.680	1444
523.749	1486
523.819	2092
523.888	2522
523.958	1381
524.027	1843
524.097	1676
524.166	1721
524.236	1214
524.305	2878
524.375	1396
524.444	1399
524.514	1668
524.583	1602
524.653	2562
524.722	2993
524.791	1765
524.861	2106
524.930	915
524.999	1319
525.069	2617
525.138	2056
525.207	2762
525.277	2399
525.346	1501
525.415	2617
525.484	1920
525.554	1590
525.623	1867
525.692	2295
525.761	1712
525.830	1505
525.900	1002
525.969	2700
526.038	3541
526.107	5177
526.176	15746
526.245	15228
526.314	6588
526.383	10149
526.452	12357
526.522	19801
526.591	27674
526.660	12696
526.729	6370
526.797	7517
526.867	12788
526.935	60016
527.004	74622
527.073	38584
527.142	4289
527.211	2628
527.280	2559
527.349	1613
527.418	1170
527.487	1549
527.555	1101
527.624	62
527.693	145
527.762	2126
527.831	602
527.899	1498
527.968	1550
528.037	830
528.106	1442
528.174	3426
528.243	2904
528.312	3890
528.380	6833
528.449	1049
528.518	2434
528.586	69
528.655	720
528.723	1063
528.792	142
528.861	667
528.929	711
528.998	1719
529.066	841
529.135	1021
529.203	927
529.272	-810
529.340	361
529.409	1502
529.477	331
529.545	829
529.614	2933
529.682	1921
529.751	2123
529.819	3889
529.887	2430
529.956	834
530.024	1517
530.092	-13
530.161	872
530.229	2710
530.297	1154
530.365	896
530.434	705
530.502	596
530.570	865
530.638	637
530.707	1089
530.775	2340
530.843	487
530.911	1504
530.979	166
531.047	1293
531.115	856
531.183	525
531.252	741
531.320	1307
531.388	512
531.456	1254
531.524	-607
531.592	1544
531.660	1175
531.728	990
531.796	728
531.864	103
531.932	1344
532.000	1519
532.067	1278
532.135	1973
532.203	1714
532.271	1574
532.339	2671
532.407	8766
532.475	5397
532.542	3355
532.610	3043
532.678	2808
532.746	13227
532.814	46986
532.881	12442
532.949	2244
533.017	1347
533.084	1077
533.152	1502
533.220	1602
533.287	2079
533.355	1537
533.423	1149
533.490	670
533.558	424
533.625	1506
533.693	1428
533.761	1689
533.828	1733
533.896	1245
533.963	3034
534.031	4943
534.098	6052
534.166	3668
534.233	583
534.300	1534
534.368	1683
534.435	636
534.503	1930
534.570	1556
534.637	925
534.705	1180
534.772	1865
534.840	1556
534.907	6964
534.974	10724
535.041	1508
535.109	2210
535.176	427
535.243	1132
535.310	1372
535.378	-2
535.445	306
535.512	415
535.579	1038
535.646	185
535.714	1263
535.781	1425
535.848	1988
535.915	1576
535.982	825
536.049	1330
536.116	2414
536.183	1241
536.250	2040
536.317	778
536.384	1417
536.451	2478
536.518	2473
536.585	649
536.652	3332
536.719	3405
536.786	1535
536.853	2560
536.920	3849
536.987	5652
537.053	3925
537.120	18892
537.187	21629
537.254	2200
537.321	1008
537.388	2646
537.454	1097
537.521	685
537.588	301
537.654	1863
537.721	2317
537.788	2169
537.855	997
537.921	895
537.988	980
538.055	2113
538.121	999
538.188	1659
538.254	1913
538.321	5439
538.388	3551
538.454	1696
538.521	1076
538.587	1304
538.654	302
538.720	1548
538.787	1019
538.853	1214
538.920	1354
538.986	2232
539.053	1132
539.119	1485
539.185	947
539.252	2181
539.318	3029
539.385	3075
539.451	2012
539.517	2707
539.583	1819
539.650	4428
539.716	16249
539.782	5115
539.849	1565
539.915	2510
539.981	1142
540.047	1994
540.114	1931
540.180	2899
540.246	1248
540.312	1617
540.378	4381
540.444	7054
540.510	4821
540.576	16544
540.643	6458
540.709	1488
540.775	645
540.841	1633
540.907	2822
540.973	5539
541.039	2827
541.105	3195
541.171	1429
541.237	627
541.303	2040
541.369	3050
541.435	1348
541.500	4250
541.566	2184
541.632	1306
541.698	631
541.764	1299
541.830	843
541.896	1353
541.961	297
542.027	2230
542.093	1877
542.159	1214
542.224	1324
542.290	3268
542.356	3551
542.421	6119
542.487	2263
542.553	1748
542.618	1681
542.684	1669
542.750	678
542.815	2836
542.881	4252
542.947	12937
543.012	13357
543.078	867
543.143	694
543.209	1878
543.274	2204
543.340	2121
543.405	3739
543.471	8986
543.536	1777
543.602	1266
543.667	743
543.732	2408
543.798	620
543.863	1350
543.928	232
543.994	80
544.059	1243
544.124	1951
544.190	1229
544.255	1544
544.320	1476
544.386	1650
544.451	1916
544.516	2506
544.581	2482
544.646	7328
544.712	15212
544.777	4158
544.842	1430
544.907	2213
544.972	1901
545.037	1562
545.102	1614
545.168	2342
545.233	2217
545.298	3032
545.363	3337
545.428	3873
545.493	4930
545.558	11466
545.623	4812
545.688	1712
545.753	2474
545.818	2814
545.883	2863
545.947	2579
546.012	2927
546.077	2685
546.142	3179
546.207	1311
546.272	3371
546.337	3024
546.401	2726
546.466	2835
546.531	1756
546.596	2950
546.661	1668
546.725	3241
546.790	1924
546.855	2689
546.919	1421
546.984	3352
547.049	2344
547.113	3915
547.178	2173
547.243	3313
547.307	3858
547.372	3946
547.436	4250
547.501	2753
547.565	3771
547.630	3195
547.695	3805
547.759	4602
547.823	3574
547.888	3449
547.952	2757
548.017	2785
548.081	3804
548.146	5474
548.210	4523
548.274	2988
548.339	3125
548.403	3367
548.468	2774
548.532	2551
548.596	2758
548.660	2754
548.725	3730
548.789	3568
548.853	5252
548.917	3232
548.982	3922
549.046	5768
549.110	2771
549.174	2962
549.238	2880
549.303	2425
549.367	3734
549.431	3420
549.495	2604
549.559	2852
549.623	2885
549.687	4105
549.751	5222
549.815	4087
549.879	4417
549.943	3399
550.007	4430
550.071	4399
550.135	5016
550.199	3703
550.263	3811
550.327	4331
550.391	5097
550.455	3645
550.519	3844
550.582	4663
550.646	3999
550.710	5819
550.774	4149
550.838	3521
550.901	3830
550.965	5003
551.029	5296
551.093	6622
551.156	7017
551.220	12613
551.284	16281
551.347	8092
551.411	14112
551.475	19729
551.538	6104
551.602	3412
551.666	4317
551.729	3234
551.793	4825
551.856	4329
551.920	3278
551.983	4165
552.047	3023
552.110	4322
552.174	3205
552.237	3621
552.301	3398
552.364	3885
552.428	3292
552.491	3689
552.554	3099
552.618	3974
552.681	3398
552.745	3922
552.808	5484
552.871	6389
552.934	4947
552.998	3773
553.061	4251
553.124	4043
553.187	3140
553.251	4307
553.314	5819
553.377	4727
553.440	7949
553.503	17763
553.567	39985
553.630	10415
553.693	3781
553.756	4287
553.819	3530
553.882	3242
553.945	2813
554.008	3731
554.071	1872
554.134	3820
554.197	3275
554.260	2388
554.323	3438
554.386	4332
554.449	3229
554.512	3363
554.575	2518
554.638	3207
554.701	2737
554.764	2714
554.827	3183
554.889	1851
554.952	2193
555.015	2333
555.078	1849
555.141	3509
555.203	2802
555.266	3044
555.329	2723
555.391	2972
555.454	2615
555.517	2108
555.580	2037
555.642	2555
555.705	2211
555.768	3000
555.830	2492
555.893	2212
555.955	2615
556.018	3081
556.080	2539
556.143	2799
556.206	1933
556.268	2275
556.330	2404
556.393	3445
556.455	2233
556.518	3625
556.580	5084
556.643	2104
556.705	2137
556.767	1569
556.830	2580
556.892	2484
556.955	3442
557.017	3471
557.079	2394
557.142	2552
557.204	2770
557.266	5004
557.328	4084
557.391	2146
557.453	2172
557.515	2535
557.577	2709
557.639	2903
557.701	1820
557.764	1367
557.826	1811
557.888	3216
557.950	1462
558.012	2696
558.074	2233
558.136	5058
558.198	11877
558.260	6474
558.322	2964
558.384	2338
558.446	3373
558.508	3991
558.570	5326
558.632	7443
558.694	12303
558.756	12109
558.818	22077
558.880	71306
558.942	29140
559.003	13172
559.065	9260
559.127	4951
559.189	3593
559.251	4691
559.312	5640
559.374	11340
559.436	37540
559.498	27407
559.559	4774
559.621	4940
559.683	4769
559.744	7736
559.806	17022
559.868	31610
559.929	9049
559.991	5175
560.052	5507
560.114	11578
560.176	10141
560.237	7642
560.299	13070
560.360	5518
560.422	3001
560.483	3476
560.545	2368
560.606	2862
560.667	1970
560.729	3192
560.790	1760
560.852	2390
560.913	2891
560.974	2473
561.036	2673
561.097	2537
561.158	3231
561.220	2990
561.281	1910
561.342	2990
561.403	4318
561.465	3404
561.526	6923
561.587	11382
561.648	3721
561.709	3298
561.771	3132
561.832	2727
561.893	2183
561.954	3070
562.015	2237
562.076	3427
562.137	2789
562.198	1955
562.259	2318
562.320	2698
562.381	2560
562.442	3523
562.503	3863
562.564	2962
562.625	3286
562.686	2938
562.747	3347
562.808	3613
562.869	2672
562.930	4269
562.991	4130
563.051	3596
563.112	2219
563.173	2859
563.234	2364
563.294	3475
563.355	3127
563.416	3671
563.477	3364
563.537	3193
563.598	3146
563.659	4286
563.720	3062
563.780	3840
563.841	3340
563.901	3431
563.962	3190
564.023	3090
564.083	3854
564.144	3584
564.204	3681
564.265	4907
564.325	5156
564.386	8113
564.446	7889
564.507	3742
564.567	2959
564.628	3399
564.688	3287
564.749	3656
564.809	3756
564.869	4689
564.930	3542
564.990	3693
565.050	2898
565.111	3765
565.171	3897
565.231	3866
565.292	4215
565.352	3375
565.412	4004
565.472	4019
565.532	3160
565.593	4088
565.653	2911
565.713	3965
565.773	4479
565.833	4021
565.893	5541
565.953	4637
566.013	4928
566.074	5328
566.134	6602
566.194	8751
566.254	10503
566.314	7350
566.374	5830
566.434	6324
566.494	6097
566.554	5961
566.614	5463
566.673	7077
566.733	7751
566.793	7583
566.853	8720
566.913	8167
566.973	8129
567.033	9024
567.092	8054
567.152	8387
567.212	8573
567.272	9633
567.331	9806
567.391	10168
567.451	10492
567.511	12158
567.570	11768
567.630	10661
567.690	9486
567.749	10530
567.809	10576
567.868	12242
567.928	14078
567.988	16221
568.047	19651
568.107	24767
568.166	31830
568.226	46403
568.285	66695
568.345	63859
568.404	52148
568.464	46363
568.523	42896
568.582	43328
568.642	47952
568.701	58606
568.761	75850
568.820	111063
568.879	123511
568.939	97288
568.998	74623
569.057	58951
569.116	47832
569.176	39403
569.235	31985
569.294	28268
569.353	23370
569.413	20960
569.472	19046
569.531	15865
569.590	14881
569.649	14398
569.708	13262
569.767	11291
569.827	11286
569.886	10565
569.945	9534
570.004	8919
570.063	8605
570.122	8502
570.181	8688
570.240	8715
570.299	8319
570.358	7943
570.417	6483
570.475	6077
570.534	6321
570.593	6313
570.652	5636
570.711	6066
570.770	6079
570.829	6232
570.887	5658
570.946	6429
571.005	4910
571.064	5553
571.122	4653
571.181	6064
571.240	5168
571.299	4684
571.357	4935
571.416	5481
571.475	5520
571.533	6469
571.592	4518
571.650	5918
571.709	3873
571.768	4773
571.826	5477
571.885	4503
571.943	4550
572.002	4254
572.060	4859
572.119	5193
572.177	4381
572.236	3545
572.294	3239
572.352	5184
572.411	4495
572.469	3661
572.528	4182
572.586	4360
572.644	3838
572.703	4904
572.761	3749
572.819	4155
572.877	3482
572.936	3597
572.994	4353
573.052	3542
573.110	3526
573.169	4241
573.227	3610
573.285	3396
573.343	4633
573.401	3504
573.459	4680
573.517	4421
573.576	4391
573.634	4286
573.692	4437
573.750	4053
573.808	3837
573.866	4360
573.924	4646
573.982	5333
574.040	4082
574.098	4358
574.155	3989
574.213	4091
574.271	3959
574.329	4755
574.387	3862
574.445	4699
574.503	3413
574.560	2963
574.618	3519
574.676	3987
574.734	3661
574.792	3073
574.849	3918
574.907	3475
574.965	3751
575.022	3659
575.080	3024
575.138	3178
575.195	3442
575.253	3911
575.311	3229
575.368	3499
575.426	4339
575.483	3514
575.541	4798
575.598	3939
575.656	4296
575.713	3397
575.771	4491
575.828	4348
575.886	3807
575.943	5317
576.001	4237
576.058	3583
576.115	4464
576.173	4995
576.230	5293
576.287	5512
576.345	6070
576.402	5044
576.459	4434
576.517	4528
576.574	5208
576.631	6314
576.688	4595
576.746	4412
576.803	3754
576.860	4905
576.917	4235
576.974	5042
577.031	4261
577.089	4841
577.146	4493
577.203	4125
577.260	4746
577.317	5129
577.374	5068
577.431	5865
577.488	4469
577.545	5039
577.602	5440
577.659	5472
577.716	5265
577.773	5883
577.830	5149
577.886	5091
577.943	4628
578.000	5041
578.057	4661
578.114	6375
578.171	5822
578.227	7141
578.284	7335
578.341	7039
578.398	6494
578.454	6433
578.511	6330
578.568	7403
578.625	6414
578.681	5400
578.738	5375
578.794	5106
578.851	5666
578.908	4624
578.964	5065
579.021	6198
579.077	5058
579.134	5281
579.190	5106
579.247	5005
579.303	5053
579.360	5792
579.416	5126
579.473	5243
579.529	4653
579.586	5642
579.642	5808
579.698	5615
579.755	5634
579.811	6052
579.867	5458
579.924	6007
579.980	6185
580.036	7783
580.093	7427
580.149	9248
580.205	10212
580.261	9783
580.317	8411
580.374	8171
580.430	7861
580.486	8830
580.542	6541
580.598	6517
580.619	6463
580.654	6374
580.692	6895
580.710	7165
580.765	5976
580.767	5944
580.823	6694
580.838	6381
580.879	5543
580.911	6182
580.935	6674
580.984	6396
580.991	6367
581.047	7256
581.057	7121
581.103	6533
581.130	6600
581.159	6686
581.203	7211
581.215	7350
581.270	8084
581.276	8000
581.326	7265
581.349	7397
581.382	7595
581.422	6956
581.438	6699
581.494	7452
581.494	7445
581.550	7128
581.567	7276
581.606	7669
581.640	7151
581.661	6804
581.713	8002
581.717	8110
581.773	7161
581.786	7132
581.829	7000
581.859	7375
581.885	7694
581.932	7617
581.940	7618
581.996	7819
582.004	7909
582.052	8305
582.077	7977
582.107	7650
582.150	7745
582.163	7774
582.219	7691
582.223	7761
582.274	8748
582.296	8433
582.330	7799
582.368	8227
582.386	8444
582.441	7967
582.441	7967
582.497	7915
582.514	8014
582.552	8331
582.587	9158
582.608	9597
582.659	8540
582.663	8464
582.719	8367
582.732	8363
582.774	8398
582.805	8608
582.830	8780
582.877	8311
582.885	8223
582.941	9156
582.950	9102
582.996	8841
583.023	9248
583.052	9847
583.095	9747
583.107	9705
583.162	10904
583.168	11053
583.218	12344
583.240	11929
583.273	11180
583.313	10456
583.328	10202
583.384	10412
583.385	10400
583.439	10152
583.458	10241
583.494	10378
583.531	10221
583.549	10196
583.603	9969
583.605	9955
583.660	10507
583.676	10496
583.715	10537
583.748	10592
583.770	10681
583.820	11188
583.825	11222
583.881	11154
583.893	11095
583.936	10873
583.965	11132
583.991	11393
584.038	11098
584.046	11051
584.101	11160
584.110	11184
584.156	11139
584.183	11096
584.211	11163
584.255	11811
584.266	11970
584.321	11778
584.328	11777
584.376	11825
584.400	12062
584.431	12320
584.472	12465
584.486	12423
584.541	11823
584.545	11824
584.596	12173
584.617	12422
584.651	12813
584.689	12972
584.706	13108
584.761	13150
584.762	13156
584.816	13393
584.834	13500
584.871	13642
584.906	13962
584.926	14141
584.978	14569
584.980	14600
585.035	14988
585.051	15134
585.090	15280
585.123	15504
585.145	15637
585.195	16561
585.200	16672
585.254	17282
585.267	17483
585.309	17959
585.340	18759
585.364	19408
585.412	19076
585.419	18967
585.473	19456
585.484	19460
585.528	19701
585.556	20832
585.583	22331
585.628	24079
585.637	24974
585.692	33264
585.700	35238
585.747	46391
585.772	46760
585.801	40602
585.845	28195
585.856	26026
585.910	22123
585.917	21762
585.965	21148
585.989	21471
586.019	22294
586.061	22264
586.074	22231
586.128	23074
586.133	23140
586.183	23398
586.205	23549
586.237	24040
586.277	24905
586.292	25174
586.346	25478
586.349	25529
586.401	26287
586.421	26675
586.455	27475
586.493	28035
586.509	28748
586.564	32209
586.565	32333
586.618	40038
586.637	42234
586.672	41504
586.709	37087
586.727	34842
586.781	32660
586.781	32651
586.835	32874
586.853	33443
586.889	34443
586.925	34601
586.944	34773
586.996	36571
586.998	36608
587.052	37713
587.068	38176
587.106	39264
587.140	40462
587.161	41157
587.212	42906
587.215	42976
587.269	44706
587.284	45465
587.323	47421
587.356	48617
587.377	49448
587.427	52441
587.431	52647
587.485	54961
587.499	55949
587.539	58437
587.571	60105
587.593	61421
587.643	64562
587.648	64820
587.702	69564
587.715	70622
587.755	74434
587.786	77403
587.810	79598
587.858	85551
587.864	86275
587.917	94267
587.930	96253
587.971	103557
588.001	109179
588.025	113422
588.073	122488
588.079	123708
588.133	136753
588.145	140040
588.187	152774
588.217	161806
588.241	170128
588.288	189116
588.295	191896
588.348	216492
588.360	222408
588.402	247132
588.431	265504
588.456	283412
588.503	320235
588.510	326509
588.564	380264
588.575	392234
588.617	450979
588.646	492554
588.671	540939
588.718	634675
588.725	653512
588.778	798264
588.789	826499
588.832	942267
588.861	1012235
588.886	998605
588.932	945673
588.939	924136
588.993	727301
589.004	701692
589.047	878770
589.075	997603
589.100	1027953
589.147	1046041
589.154	1029118
589.207	873261
589.218	840199
589.261	764521
589.290	715877
589.314	712260
589.361	710923
589.368	721624
589.421	815690
589.433	835000
589.475	928774
589.504	986646
589.528	955678
589.576	861491
589.582	861157
589.635	885848
589.647	892753
589.689	919772
589.718	916250
589.742	825835
589.790	633423
589.795	618815
589.849	478611
589.861	447087
589.902	385480
589.932	340510
589.955	314152
590.004	261724
590.009	258042
590.062	221180
590.075	212644
590.115	192163
590.146	176625
590.168	168338
590.218	151238
590.222	149937
590.275	135574
590.289	131854
590.328	123391
590.360	116915
590.381	112750
590.431	103781
590.435	103250
590.488	95482
590.503	93554
590.541	88772
590.574	84669
590.594	82506
590.645	77776
590.647	77554
590.700	72773
590.716	71539
590.753	68443
590.787	65801
590.806	64478
590.859	60615
590.859	60525
590.912	58072
590.930	57291
590.965	55624
591.001	54198
591.018	53458
591.071	51192
591.072	51198
591.124	48539
591.143	47744
591.177	46601
591.214	45265
591.230	45003
591.283	44440
591.285	44433
591.336	42536
591.356	41874
591.389	41277
591.427	40594
591.442	40043
591.495	38139
591.498	38005
591.547	36990
591.569	36686
591.600	36355
591.640	35806
591.653	35456
591.706	34181
591.711	34046
591.759	34123
591.782	34255
591.811	34403
591.853	34608
591.864	34341
591.917	32892
591.924	32706
591.969	31200
591.995	30309
592.022	30030
592.066	29628
592.075	29687
592.127	30112
592.137	30200
592.180	32220
592.208	33537
592.233	32024
592.279	29093
592.285	28925
592.338	27544
592.350	27232
592.390	26412
592.421	25849
592.443	25685
592.491	25306
592.495	25320
592.548	25643
592.562	25736
592.600	24990
592.633	24358
592.653	24162
592.704	23549
592.705	23665
592.775	22736
592.846	23333
592.916	22580
592.987	22001
593.058	22657
593.128	21261
593.199	20664
593.270	20052
593.341	19597
593.411	20969
593.482	19820
593.553	19951
593.623	18989
593.694	19705
593.764	20691
593.835	18814
593.906	17998
593.976	17892
594.047	17621
594.117	19349
594.188	22205
594.258	17780
594.329	17500
594.399	17052
594.470	16376
594.540	16445
594.611	16651
594.681	16283
594.751	16438
594.822	17253
594.892	17039
594.963	16813
595.033	17137
595.103	17148
595.174	16889
595.244	20671
595.314	29299
595.384	20311
595.455	15590
595.525	16547
595.595	15894
595.665	15953
595.736	16038
595.806	16221
595.876	15240
595.946	15133
596.016	15407
596.087	15169
596.157	15390
596.227	14587
596.297	15344
596.367	15348
596.437	16659
596.507	19389
596.577	26239
596.647	19219
596.717	14907
596.787	14732
596.857	15258
596.927	15436
596.997	15078
597.067	15412
597.137	15858
597.207	17119
597.277	15502
597.347	14641
597.417	14790
597.487	14977
597.557	15279
597.626	14325
597.696	15960
597.766	17958
597.836	24310
597.906	19744
597.975	14569
598.045	13893
598.115	14434
598.185	14728
598.254	14741
598.324	15723
598.394	14696
598.464	15121
598.533	14865
598.603	13716
598.672	14447
598.742	14291
598.812	14809
598.881	14623
598.951	13908
599.020	14031
599.090	13411
599.159	14685
599.229	13746
599.299	13607
599.368	14218
599.437	14138
599.507	13282
599.576	14477
599.646	14759
599.715	15195
599.785	13615
599.854	13655
599.924	15535
599.993	14486
600.062	13687
600.132	13718
600.201	12631
600.270	15518
600.340	14524
600.409	13936
600.478	13850
600.547	14354
600.617	14343
600.686	13649
600.755	12078
600.824	11948
600.894	12904
600.963	12248
601.032	11852
601.101	11189
601.170	12200
601.239	12231
601.308	12465
601.378	13910
601.447	11957
601.516	11525
601.585	11689
601.654	12865
601.723	12542
601.792	12573
601.861	12529
601.930	14341
601.999	13989
602.068	12508
602.137	12738
602.206	13067
602.275	12901
602.343	12963
602.412	13176
602.481	12500
602.550	11779
602.619	11283
602.688	12483
602.756	12449
602.825	12821
602.894	11970
602.963	11341
603.032	12814
603.100	12006
603.169	11870
603.238	12034
603.307	12516
603.375	12471
603.444	11527
603.513	12635
603.581	11839
603.650	12900
603.719	11878
603.787	12632
603.856	11653
603.924	12030
603.993	12301
604.061	12063
604.130	12597
604.198	12456
604.267	13248
604.335	13351
604.404	12629
604.472	12497
604.541	13285
604.609	12225
604.678	11959
604.746	13749
604.815	13126
604.883	13156
604.951	12643
605.020	13828
605.088	13472
605.156	13126
605.225	13417
605.293	13254
605.361	13545
605.429	12843
605.498	13393
605.566	12799
605.634	14071
605.702	13854
605.771	13853
605.839	14279
605.907	14633
605.975	13086
606.043	13382
606.111	13723
606.180	14490
606.248	14405
606.316	16853
606.384	14242
606.452	14966
606.520	14123
606.588	14408
606.656	12260
606.724	13603
606.792	12217
606.860	11469
606.928	10325
606.996	11135
607.064	10717
607.132	10620
607.200	10754
607.267	11610
607.335	10827
607.403	10667
607.471	11528
607.539	11777
607.607	10925
607.674	10468
607.742	10082
607.810	11518
607.878	10331
607.946	10607
608.013	10653
608.081	10520
608.149	10335
608.216	10464
608.284	11080
608.352	10679
608.419	12079
608.487	13920
608.555	13907
608.622	10147
608.690	10742
608.757	10579
608.825	12580
608.893	11815
608.960	12739
609.028	13676
609.095	16221
609.163	13360
609.230	11296
609.298	11101
609.365	9858
609.432	10325
609.500	10650
609.567	11969
609.635	13581
609.702	13565
609.769	14305
609.837	13496
609.904	11914
609.971	10826
610.039	11495
610.106	13730
610.173	21629
610.241	48350
610.308	62738
610.375	33961
610.442	15549
610.509	11872
610.577	11555
610.644	10865
610.711	10597
610.778	10736
610.845	10643
610.912	11247
610.980	12850
611.047	15535
611.114	15897
611.181	12077
611.248	11275
611.315	11223
611.382	11582
611.449	11013
611.516	11882
611.583	12874
611.650	11398
611.717	11839
611.784	12457
611.851	12716
611.918	13812
611.984	15164
612.051	20907
612.118	39260
612.185	98572
612.252	121755
612.319	26933
612.386	15758
612.452	15209
612.519	15138
612.586	16747
612.653	18067
612.719	13155
612.786	13844
612.853	12178
612.919	11798
612.986	12318
613.053	11974
613.120	10858
613.186	11007
613.253	10956
613.319	10352
613.386	10594
613.453	11237
613.519	11390
613.586	11058
613.652	13807
613.719	12852
613.785	13044
613.852	11564
613.918	10645
613.985	12945
614.051	14506
614.118	26140
614.184	38460
614.250	15173
614.317	11412
614.383	10977
614.449	10593
614.516	11046
614.582	11593
614.648	11229
614.715	10063
614.781	10730
614.847	11670
614.914	11451
614.980	11761
615.046	11252
615.112	12065
615.179	12438
615.245	13311
615.311	16629
615.377	29382
615.443	45405
615.509	27603
615.575	16303
615.642	13892
615.708	14477
615.774	15511
615.840	17607
615.906	21749
615.972	33806
616.038	65497
616.104	113650
616.170	152212
616.236	210431
616.302	53160
616.368	23742
616.434	18848
616.500	16518
616.565	16143
616.631	17679
616.697	16582
616.763	15548
616.829	19005
616.895	30034
616.961	38581
617.026	22465
617.092	13884
617.158	12244
617.224	12703
617.289	11855
617.355	12083
617.421	12607
617.487	12129
617.552	11387
617.618	11413
617.684	10706
617.749	11677
617.815	10452
617.880	10336
617.946	10788
618.012	9994
618.077	10765
618.143	10527
618.208	9939
618.274	11351
618.339	12122
618.405	10496
618.470	11138
618.536	10457
618.601	11199
618.667	12763
618.732	10299
618.798	10418
618.863	10226
618.928	10351
618.994	11086
619.059	12093
619.124	12531
619.190	11971
619.255	10219
619.320	10479
619.386	9765
619.451	9611
619.516	9675
619.581	9302
619.647	10561
619.712	10345
619.777	10219
619.842	9704
619.907	10167
619.972	10668
620.038	10331
620.103	9992
620.168	9276
620.233	10182
620.298	9099
620.363	9727
620.428	9478
620.493	9916
620.558	9480
620.623	9846
620.688	10014
620.753	10369
620.818	9478
620.883	10001
620.948	9818
621.013	10246
621.078	10372
621.143	9715
621.207	11891
621.272	10854
621.337	11696
621.402	12292
621.467	13795
621.532	17222
621.596	13288
621.661	12126
621.726	10313
621.791	11168
621.855	11122
621.920	11928
621.985	12585
622.049	13779
622.114	14718
622.179	13058
622.243	14102
622.308	13192
622.373	13529
622.437	12733
622.502	12485
622.566	11744
622.631	11717
622.695	12615
622.760	12431
622.824	12086
622.889	11817
622.953	11817
623.018	13914
623.082	15472
623.147	12539
623.211	11955
623.276	12428
623.340	10204
623.404	11955
623.469	11118
623.533	11642
623.597	11488
623.662	11289
623.726	11189
623.790	10011
623.854	9930
623.919	11599
623.983	10608
624.047	10164
624.111	10693
624.176	11255
624.240	11780
624.304	12014
624.368	10849
624.432	10198
624.496	10598
624.560	11718
624.625	11388
624.689	10922
624.753	11618
624.817	11102
624.881	9987
624.945	9994
625.009	10014
625.073	10593
625.137	9196
625.201	10663
625.265	12208
625.329	10322
625.393	10216
625.456	10256
625.520	11163
625.584	11747
625.648	13069
625.712	19839
625.776	43117
625.839	65888
625.903	39269
625.967	13597
626.031	17369
626.095	35298
626.158	19707
626.222	9292
626.286	8666
626.349	8534
626.413	8579
626.477	8534
626.540	8779
626.604	7661
626.668	8080
626.731	7832
626.795	8330
626.858	8982
626.922	7726
626.986	8043
627.049	7878
627.113	7730
627.176	7963
627.240	7411
627.303	7253
627.366	7336
627.430	8330
627.493	7995
627.557	8237
627.620	9111
627.684	8077
627.747	7495
627.810	7554
627.874	6894
627.937	7042
628.000	8646
628.064	7413
628.127	5947
628.190	7076
628.253	7502
628.317	6859
628.380	6707
628.443	6821
628.506	6690
628.569	6703
628.632	6351
628.696	6536
628.759	6043
628.822	5908
628.885	5150
628.948	6692
629.011	6263
629.074	6165
629.137	6402
629.200	5576
629.263	6437
629.326	5736
629.389	6042
629.452	5726
629.515	7053
629.578	6315
629.641	6381
629.704	6609
629.767	6177
629.830	6090
629.892	5605
629.955	5385
630.018	6356
630.081	6053
630.144	6376
630.207	6264
630.269	6382
630.332	6982
630.395	7039
630.458	5870
630.520	5262
630.583	5914
630.646	4248
630.708	4197
630.771	5170
630.834	5468
630.896	4753
630.959	4826
631.021	4969
631.084	5563
631.146	6922
631.209	7952
631.272	6558
631.334	5275
631.397	5104
631.459	4441
631.522	5119
631.584	5265
631.646	5103
631.709	5389
631.771	6259
631.834	5663
631.896	4354
631.958	4606
632.021	5018
632.083	4720
632.145	5540
632.208	4773
632.270	5030
632.332	4641
632.395	4207
632.457	5129
632.519	4510
632.581	4798
632.643	4059
632.706	4768
632.768	4508
632.830	4476
632.892	4314
632.954	4256
633.016	4792
633.078	4255
633.141	4016
633.203	4019
633.265	4831
633.327	3798
633.389	4207
633.451	4675
633.513	5578
633.575	5732
633.637	5972
633.698	4412
633.760	3774
633.822	4144
633.884	3779
633.946	4000
634.008	4092
634.070	5319
634.132	5048
634.193	5338
634.255	4472
634.317	4013
634.379	4690
634.441	4332
634.502	4518
634.564	3250
634.626	4798
634.687	4963
634.749	4110
634.811	3451
634.873	3510
634.934	3828
634.996	3687
635.057	4039
635.119	3314
635.181	3733
635.242	3631
635.304	2569
635.365	5448
635.427	2967
635.488	3950
635.550	3231
635.611	3739
635.673	3170
635.734	4558
635.796	4123
635.857	4205
635.918	3703
635.980	4440
636.041	4092
636.102	4186
636.164	4584
636.225	3787
636.286	3971
636.348	4694
636.409	3860
636.470	3126
636.531	3695
636.593	4648
636.654	4950
636.715	3503
636.776	4627
636.838	2591
636.899	2670
636.960	3470
637.021	2987
637.082	2721
637.143	3395
637.204	3025
637.265	3366
637.326	3161
637.387	3252
637.448	2737
637.509	3299
637.570	2423
637.631	3538
637.692	2956
637.753	2360
637.814	3389
637.875	3086
637.936	2946
637.997	2229
638.058	3208
638.119	3194
638.179	2733
638.240	2744
638.301	3881
638.362	2131
638.423	2831
638.483	3210
638.544	2396
638.605	3138
638.666	2762
638.726	3032
638.787	3579
638.848	2873
638.908	2093
638.969	2930
639.030	2843
639.090	2214
639.151	2089
639.211	2763
639.272	2672
639.332	4075
639.393	3530
639.453	2591
639.514	2748
639.574	2423
639.635	1925
639.695	2759
639.756	1781
639.816	2872
639.877	2381
639.937	4040
639.997	4848
640.058	3013
640.118	3013
640.178	2244
640.239	2295
640.299	1812
640.359	1712
640.420	2828
640.480	2255
640.540	2527
640.600	2632
640.661	1991
640.721	1719
640.781	3090
640.841	2949
640.901	2980
640.961	2630
641.021	2232
641.082	2264
641.142	3528
641.202	2662
641.262	1604
641.322	2986
641.382	1299
641.442	2123
641.502	1475
641.562	3070
641.622	1784
641.682	2374
641.742	2442
641.802	1983
641.861	2778
641.921	2684
641.981	2637
642.041	2314
642.101	2235
642.161	1984
642.221	1324
642.280	1704
642.340	1734
642.400	1510
642.460	2169
642.519	2248
642.579	2161
642.639	2316
642.698	672
642.758	3787
642.818	1836
642.877	2175
642.937	2042
642.997	2323
643.056	3359
643.116	1645
643.175	2533
643.235	1750
643.294	2213
643.354	1784
643.414	2932
643.473	2747
643.532	2409
643.592	3581
643.651	4453
643.711	8654
643.770	16446
643.830	32946
643.889	104970
643.948	62161
644.008	6929
644.067	3786
644.126	2979
644.186	2497
644.245	2226
644.304	297
644.363	2115
644.423	1339
644.482	2807
644.541	2517
644.600	533
644.659	2593
644.719	1621
644.778	2982
644.837	3116
644.896	6753
644.955	15407
645.014	13301
645.073	4442
645.132	2135
645.191	2725
645.250	1777
645.309	2290
645.368	1484
645.427	2251
645.486	1776
645.545	4267
645.604	2670
645.663	2099
645.722	1985
645.781	2269
645.840	1720
645.898	2071
645.957	3218
646.016	3009
646.075	7131
646.134	13098
646.192	29936
646.251	79100
646.310	27947
646.369	3466
646.427	2914
646.486	1707
646.545	2151
646.603	1866
646.662	1387
646.721	1335
646.779	1808
646.838	908
646.896	1909
646.955	2282
647.014	3048
647.072	3386
647.131	8459
647.189	10063
647.248	2165
647.306	2018
647.365	1462
647.423	519
647.481	2165
647.540	62
647.598	1965
647.657	1097
647.715	1704
647.773	477
647.832	1337
647.890	-81
647.948	1578
648.007	1315
648.065	692
648.123	-12
648.181	2856
648.240	2763
648.298	2532
648.356	1310
648.414	1511
648.472	1554
648.531	1415
648.589	1022
648.647	655
648.705	993
648.763	1317
648.821	1141
648.879	1500
648.937	1403
648.995	1570
649.053	961
649.111	2294
649.169	2816
649.227	5055
649.285	9151
649.343	27211
649.401	33863
649.459	6737
649.516	6466
649.574	3578
649.632	6577
649.690	15096
649.748	6483
649.806	3565
649.863	9080
649.921	8817
649.979	8075
650.037	1943
650.094	1005
650.152	1523
650.210	1031
650.268	1189
650.325	1348
650.383	1395
650.440	725
650.498	1624
650.556	1078
650.613	991
650.671	1145
650.728	1100
650.786	1576
650.843	1287
650.901	-327
650.958	1178
651.016	1344
651.073	808
651.131	651
651.188	-228
651.246	1391
651.303	571
651.360	733
651.418	706
651.475	1407
651.532	772
651.590	168
651.647	-240
651.704	1549
651.762	534
651.819	828
651.876	282
651.933	978
651.990	1032
652.048	-38
652.105	40
652.162	1454
652.219	1294
652.276	1050
652.333	485
652.390	-12
652.448	684
652.505	900
652.562	978
652.619	732
652.676	2507
652.733	3019
652.790	1447
652.847	217
652.904	1193
652.961	198
653.017	-302
653.074	779
653.131	1111
653.188	-591
653.245	52
653.302	1053
653.359	-208
653.415	403
653.472	728
653.529	243
653.586	-257
653.642	-219
653.699	800
653.756	-318
653.813	368
653.869	363
653.926	291
653.983	510
654.039	491
654.096	639
654.152	1546
654.209	-318
654.266	755
654.322	-343
654.379	873
654.435	538
654.492	165
654.548	1073
654.605	3161
654.661	2786
654.717	879
654.774	518
654.830	493
654.887	476
654.943	-75
655.000	688
655.056	369
655.112	1348
655.168	609
655.225	1249
655.281	1292
655.337	925
655.394	3390
655.450	3320
655.506	2352
655.562	1884
655.618	4573
655.675	374
655.731	306
655.787	-261
655.843	453
655.899	764
655.955	244
656.011	168
656.067	-242
656.123	826
656.179	1421
656.235	1623
656.291	-129
656.347	970
656.403	1293
656.459	435
656.515	948
656.571	813
656.627	1179
656.683	609
656.739	697
656.795	-65
656.850	963
656.906	1195
656.962	1080
657.018	-207
657.074	249
657.129	-49
657.185	441
657.241	694
657.297	618
657.352	1205
657.408	533
657.464	176
657.519	1041
657.575	-928
657.630	294
657.686	-109
657.742	214
657.797	649
657.853	204
657.908	1226
657.964	132
658.019	347
658.075	212
658.130	529
658.186	-131
658.241	363
658.297	704
658.352	-350
658.407	184
658.463	396
658.518	41
658.573	367
658.629	593
658.684	-407
658.739	490
658.795	700
658.850	720
658.905	45
658.960	686
659.016	-742
659.071	741
659.126	663
659.181	-613
659.236	1022
659.291	1682
659.346	514
659.401	460
659.457	608
659.512	1875
659.567	1636
659.622	265
659.677	211
659.732	-137
659.787	884
659.842	539
659.897	1055
659.952	1375
660.007	318
660.061	481
660.116	50
660.171	-14
660.226	225
660.281	804
660.336	218
660.391	227
660.445	-116
660.500	799
660.555	366
660.610	-1128
660.664	1345
660.719	-249
660.774	113
660.828	511
660.883	-391
660.938	331
660.992	-624
661.047	850
661.101	-831
661.156	545
661.211	90
661.265	630
661.320	-14
661.374	190
661.429	373
661.483	152
661.538	113
661.592	-254
661.647	-95
661.701	1075
661.755	178
661.810	1298
661.864	-449
661.919	-131
661.973	676
662.027	262
662.081	-177
662.136	-142
662.190	666
662.244	677
662.299	67
662.353	145
662.407	533
662.461	187
662.515	538
662.569	618
662.624	626
662.678	210
662.732	30
662.786	-115
662.840	322
662.894	656
662.948	-41
663.002	599
663.056	309
663.110	-815
663.164	-81
663.218	257
663.272	-369
663.326	382
663.380	349
663.434	242
663.488	20
663.542	809
663.595	-85
663.649	-478
663.703	874
663.757	351
663.811	86
663.864	-558
663.918	1101
663.972	-473
664.026	23
664.079	-636
664.133	879
664.187	259
664.240	212
664.294	192
664.348	927
664.401	-146
664.455	763
664.508	-453
664.562	265
664.615	551
664.669	-311
664.722	400
664.776	-486
664.829	174
664.883	238
664.936	80
664.990	423
665.043	48
665.097	47
665.150	1771
665.203	554
665.257	695
665.310	203
665.363	740
665.417	259
665.470	439
665.523	791
665.576	882
665.630	272
665.683	868
665.736	-86
665.789	1112
665.842	-529
665.895	-697
665.949	606
666.002	233
666.055	-45
666.108	766
666.161	494
666.214	338
666.267	514
666.320	120
666.373	597
666.426	706
666.479	409
666.532	874
666.585	1
666.638	1312
666.691	492
666.744	959
666.796	620
666.849	893
666.902	395
666.955	-22
667.008	-212
667.060	39
667.113	-355
667.166	-170
667.219	-225
667.271	-14
667.324	-554
667.377	403
667.430	411
667.482	-234
667.535	1236
667.587	74
667.640	764
667.693	-79
667.745	780
667.798	1505
667.850	-23
667.903	902
667.955	645
668.008	-579
668.060	901
668.113	332
668.165	1142
668.218	400
668.270	352
668.322	-178
668.375	-77
668.427	897
668.479	-777
668.532	106
668.584	490
668.636	1262
668.689	-248
668.741	-475
668.793	637
668.845	-295
668.898	527
668.950	-67
669.002	-233
669.054	8
669.106	227
669.158	736
669.211	-330
669.263	37
669.315	678
669.367	1167
669.419	691
669.471	1286
669.523	836
669.575	2035
669.627	1468
669.679	649
669.731	666
669.783	285
669.835	915
669.886	405
669.938	298
669.990	657
670.042	-123
670.094	604
670.146	19
670.197	301
670.249	707
670.301	585
670.353	2319
670.404	2810
670.456	4739
670.508	6993
670.560	14619
670.611	27038
670.663	48412
670.715	93050
670.766	231807
670.818	146697
670.869	19954
670.921	6453
670.972	4045
671.024	2853
671.075	2368
671.127	2096
671.178	1517
671.230	768
671.281	1003
671.333	702
671.384	610
671.436	270
671.487	1451
671.538	1185
671.590	993
671.641	2302
671.692	2022
671.744	2817
671.795	4828
671.846	1561
671.897	1294
671.949	409
672.000	1005
672.051	376
672.102	1077
672.153	433
672.204	-190
672.256	223
672.307	969
672.358	684
672.409	-52
672.460	285
672.511	-367
672.562	115
672.613	344
672.664	283
672.715	284
672.766	347
672.817	824
672.868	298
672.919	521
672.970	7
673.021	-396
673.071	-249
673.122	645
673.173	824
673.224	-545
673.275	-68
673.326	539
673.376	-92
673.427	91
673.478	32
673.528	416
673.579	222
673.630	-416
673.680	311
673.731	-428
673.782	-126
673.832	-680
673.883	-259
673.934	-310
673.984	472
674.035	-607
674.085	501
674.136	777
674.186	460
674.237	497
674.287	1278
674.338	1985
674.388	127
674.438	-798
674.489	535
674.539	-98
674.589	301
674.640	685
674.690	697
674.740	-851
674.791	-273
674.841	125
674.891	376
674.942	-306
674.992	503
675.042	-301
675.092	382
675.142	121
675.193	-261
675.243	-472
675.293	-169
675.343	543
675.393	605
675.443	92
675.493	214
675.543	-813
675.593	-94
675.643	210
675.693	-211
675.743	65
675.793	527
675.843	-293
675.893	870
675.943	-125
675.993	-285
676.043	-220
676.093	742
676.142	-668
676.192	946
676.242	-199
676.292	88
676.341	-27
676.391	124
676.441	5
676.491	-195
676.540	-776
676.590	19
676.640	39
676.689	168
676.739	-965
676.789	-358
676.838	-824
676.888	737
676.937	-595
676.987	575
677.037	-611
677.086	-74
677.136	515
677.185	-119
677.235	-360
677.284	-430
677.333	-1810
677.383	-146
677.432	-278
677.482	-287
677.531	-18
677.580	-260
677.630	-147
677.679	-456
677.728	-825
677.778	-222
677.827	-677
677.876	25
677.925	-845
677.975	-212
678.024	-32
678.073	67
678.122	-593
678.171	409
678.220	-297
678.269	88
678.319	107
678.368	-557
678.417	-578
678.466	172
678.515	-43
678.564	-325
678.613	871
678.662	-448
678.711	-119
678.760	-682
678.809	-174
678.857	-521
678.906	-1166
678.955	-254
679.004	-468
679.053	-93
679.102	-580
679.151	-292
679.199	-1004
679.248	-663
679.297	-77
679.346	-259
679.394	-821
679.443	-332
679.492	-693
679.540	-995
679.589	-929
679.638	-603
679.686	-322
679.735	-721
679.784	-299
679.832	35
679.881	-513
679.929	72
679.978	-285
680.026	418
680.075	-1236
680.123	-133
680.172	-421
680.220	-540
680.268	-302
680.317	-297
680.365	-416
680.414	-779
680.462	-225
680.510	-337
680.559	-217
680.607	-688
680.655	-684
680.703	-866
680.752	-334
680.800	-1088
680.848	-499
680.896	-1181
680.945	-407
680.993	-549
681.041	-297
681.089	69
681.137	-489
681.185	-228
681.233	-546
681.258	-439
681.281	-382
681.329	-12
681.377	-185
681.380	-159
681.425	-610
681.473	309
681.502	125
681.521	-81
681.569	363
681.617	-440
681.624	-343
681.665	-95
681.713	-61
681.745	384
681.761	525
681.809	-18
681.857	1047
681.867	909
681.904	220
681.952	367
681.989	500
682.000	490
682.048	887
682.096	1607
682.111	1597
682.143	1422
682.191	1147
682.233	1230
682.239	1191
682.286	1322
682.334	1394
682.354	1587
682.382	1741
682.430	1378
682.476	1910
682.477	1881
682.525	2070
682.572	2086
682.598	1977
682.620	1814
682.667	2022
682.715	1801
682.720	1843
682.763	1841
682.810	2680
682.841	2692
682.857	2645
682.905	2546
682.952	2295
682.963	2499
683.000	3033
683.047	3230
683.085	3570
683.095	3609
683.142	3231
683.190	3393
683.206	3499
683.237	3596
683.284	3201
683.328	2990
683.332	2939
683.379	3306
683.426	3449
683.449	3464
683.473	3388
683.521	3771
683.568	3696
683.571	3745
683.615	4030
683.662	4132
683.693	4534
683.709	4683
683.757	3933
683.804	4694
683.814	4578
683.851	4066
683.898	5106
683.936	4642
683.945	4496
683.992	4247
684.039	5144
684.057	5016
684.086	4756
684.133	5604
684.179	5207
684.180	5164
684.227	5799
684.274	5781
684.300	5626
684.321	5458
684.368	5513
684.415	5688
684.422	5692
684.462	5546
684.509	5532
684.543	5429
684.556	5405
684.603	6226
684.649	5937
684.665	5918
684.696	5717
684.743	5811
684.786	6611
684.790	6660
684.837	6766
684.883	6956
684.908	7028
684.930	7133
684.977	6930
685.023	7175
685.029	7287
685.070	7610
685.117	7279
685.150	7164
685.164	7176
685.210	7702
685.257	8314
685.272	8195
685.303	7866
685.350	8123
685.393	8295
685.396	8277
685.443	8509
685.490	8017
685.514	8283
685.536	8580
685.583	8521
685.629	8809
685.636	8821
685.675	8567
685.722	8631
685.757	8496
685.768	8497
685.815	9588
685.861	9356
685.878	9463
685.908	9450
685.954	9507
686.000	9123
686.000	9115
686.047	9987
686.093	10617
686.121	11105
686.139	11225
686.185	10407
686.232	11317
686.242	11299
686.278	10770
686.324	10615
686.363	9879
686.370	9812
686.416	9553
686.463	9716
686.484	9952
686.509	10229
686.555	9532
686.601	10304
686.606	10290
686.647	10007
686.693	10357
686.727	10048
686.739	10020
686.785	10300
686.831	10453
686.848	10615
686.877	10534
686.923	10232
686.969	10278
686.969	10278
687.015	10263
687.061	10356
687.090	10643
687.107	10785
687.153	10518
687.199	10650
687.211	10580
687.245	10253
687.291	10160
687.332	10517
687.336	10597
687.382	10714
687.428	11185
687.453	11450
687.474	11426
687.520	11104
687.565	11176
687.574	11106
687.611	10981
687.657	11005
687.695	11175
687.702	11299
687.748	11504
687.794	12102
687.816	12614
687.839	12763
687.885	12705
687.931	12182
687.937	12167
687.976	12123
688.022	12099
688.058	11663
688.067	11630
688.113	12139
688.158	12184
688.179	12256
688.204	12284
688.249	12355
688.295	12681
688.300	12682
688.340	12990
688.386	12834
688.421	13191
688.431	13221
688.477	13528
688.522	13185
688.542	13227
688.567	13324
688.613	13196
688.658	12614
688.663	12673
688.703	13319
688.749	13207
688.784	12788
688.794	12743
688.839	13198
688.884	13697
688.905	13734
688.930	13549
688.975	13854
689.020	13309
689.026	13307
689.065	13628
689.110	13282
689.146	13826
689.155	13987
689.201	14157
689.246	13753
689.267	13918
689.291	13943
689.336	13791
689.381	13481
689.388	13398
689.426	13469
689.471	13645
689.509	13796
689.516	13788
689.561	14031
689.606	14041
689.630	13780
689.651	13634
689.696	13643
689.741	13430
689.750	13506
689.785	14097
689.830	14170
689.871	14117
689.875	14091
689.920	14415
689.965	14080
689.992	14166
690.010	14351
690.054	14345
690.099	13915
690.112	14001
690.144	14218
690.189	14131
690.233	13894
690.233	13916
690.278	14534
690.323	14463
690.354	14755
690.367	14889
690.412	14853
690.457	15345
690.474	15215
690.501	15161
690.546	15678
690.590	16183
690.595	16164
690.635	16279
690.680	16673
690.716	16719
690.724	16925
690.769	18488
690.813	19694
690.836	20173
690.857	21313
690.902	24286
690.946	26935
690.957	27546
690.991	34827
691.035	44426
691.077	53877
691.080	54612
691.124	65874
691.168	77587
691.198	85205
691.213	80886
691.257	67455
691.301	54502
691.318	49080
691.346	44367
691.390	36774
691.434	29556
691.439	28682
691.478	26540
691.522	24019
691.559	21683
691.567	21556
691.611	20987
691.655	19827
691.680	19207
691.699	19074
691.743	18997
691.787	18629
691.800	18550
691.831	18701
691.875	18548
691.919	18898
691.921	18861
691.964	18816
692.008	18734
692.041	18652
692.052	18671
692.096	18829
692.139	18856
692.162	18835
692.183	18874
692.227	18647
692.271	18617
692.282	18507
692.315	18350
692.359	18463
692.402	18760
692.403	18798
692.447	18313
692.490	18230
692.523	18076
692.534	18237
692.578	18689
692.622	19309
692.643	19452
692.666	19292
692.709	18927
692.753	18569
692.763	18508
692.797	18776
692.840	18818
692.884	18733
692.884	18775
692.928	18941
692.971	19199
693.004	19512
693.015	19675
693.059	19810
693.102	20065
693.124	20109
693.146	20044
693.189	19649
693.233	20027
693.245	19940
693.276	20782
693.320	21763
693.363	22909
693.365	22899
693.407	23932
693.450	25182
693.485	25723
693.493	26248
693.537	28916
693.580	31940
693.605	33406
693.624	36121
693.667	42410
693.710	48831
693.725	51093
693.753	65800
693.797	88209
693.840	111354
693.845	113942
693.883	137604
693.926	163492
693.966	186850
693.970	184077
694.013	151548
694.056	118867
694.086	95902
694.099	90746
694.142	74007
694.185	57044
694.206	48848
694.229	45890
694.272	39898
694.315	34127
694.326	32584
694.358	31229
694.401	29040
694.444	26911
694.446	26735
694.487	25623
694.530	24552
694.566	23617
694.573	23578
694.616	22873
694.659	22188
694.686	21555
694.702	21459
694.745	21519
694.787	21184
694.806	21031
694.830	20902
694.873	20639
694.916	20321
694.926	20182
694.959	19971
695.002	19687
695.044	19478
695.046	19409
695.087	19305
695.130	19518
695.166	19596
695.172	19765
695.215	20365
695.258	21041
695.286	21328
695.301	21250
695.343	21166
695.386	20960
695.406	20841
695.428	20695
695.471	20311
695.514	19685
695.526	19494
695.556	19522
695.599	19669
695.641	19582
695.646	19545
695.684	19911
695.726	20009
695.766	20089
695.769	20132
695.811	20095
695.854	20064
695.886	19929
695.896	20018
695.938	20123
695.981	20373
696.005	20399
696.023	20315
696.065	20058
696.108	19819
696.125	19555
696.150	19827
696.192	20520
696.235	21071
696.245	21158
696.277	20942
696.319	20554
696.361	20244
696.365	20149
696.404	20645
696.446	21358
696.485	21807
696.488	21839
696.530	21475
696.572	21188
696.604	20888
696.614	20924
696.656	20819
696.698	20830
696.724	20669
696.740	20457
696.783	19814
696.825	19305
696.844	18949
696.867	19154
696.909	19460
696.951	19843
696.964	19880
696.992	19962
697.034	19856
697.076	20078
697.083	20023
697.118	19937
697.160	19884
697.202	19735
697.203	19676
697.244	19608
697.286	19474
697.323	19308
697.327	19394
697.369	19648
697.411	19827
697.442	20005
697.453	20041
697.494	19919
697.536	19830
697.562	19683
697.578	19898
697.620	20349
697.661	20678
697.682	20845
697.703	20861
697.744	20718
697.786	20683
697.801	20552
697.828	20661
697.869	20851
697.911	20975
697.921	20962
697.952	20619
697.994	20013
698.035	19471
698.040	19344
698.077	19664
698.118	19967
698.160	20300
698.160	20242
698.201	20006
698.243	19705
698.279	19343
698.284	19443
698.325	19863
698.367	20335
698.399	20585
698.408	20586
698.449	20361
698.491	20113
698.518	19912
698.532	19965
698.573	19920
698.614	19872
698.638	19797
698.656	19967
698.697	20218
698.738	20483
698.757	20544
698.779	20748
698.820	21012
698.862	21286
698.877	21330
698.903	21435
698.944	21493
698.985	21553
698.996	21510
699.026	21796
699.067	22102
699.116	22406
699.235	21761
699.354	20098
699.474	20565
699.593	22145
699.713	23112
699.832	20927
699.951	20521
700.070	20607
700.190	19636
700.309	19915
700.428	20519
700.547	20129
700.667	18977
700.786	20685
700.905	20599
701.024	20167
701.143	20785
701.262	18866
701.381	18580
701.500	19038
701.619	18788
701.738	19115
701.857	18554
701.976	18725
702.095	17681
702.214	17962
702.333	19004
702.452	17842
702.571	17808
702.690	18561
702.809	18951
702.928	18130
703.047	16894
703.165	18661
703.284	17312
703.403	17540
703.522	17182
703.640	18576
703.759	18552
703.878	22005
703.997	19839
704.115	17309
704.234	17620
704.353	16993
704.471	16488
704.590	16539
704.708	15864
704.827	15476
704.946	15563
705.064	18057
705.183	16422
705.301	18015
705.420	24705
705.538	28512
705.656	23919
705.775	22538
705.893	28634
706.012	53008
706.130	28865
706.249	23238
706.367	21666
706.485	23149
706.604	22211
706.722	22127
706.840	22931
706.958	25112
707.077	24937
707.195	20383
707.313	20307
707.431	19976
707.549	20250
707.668	19683
707.786	20478
707.904	20016
708.022	19696
708.140	20262
708.258	18880
708.376	20025
708.494	19486
708.612	20133
708.730	25537
708.848	31874
708.966	25806
709.084	25234
709.202	23645
709.320	24489
709.438	24006
709.556	25059
709.674	24344
709.791	25406
709.909	23849
710.027	23875
710.145	23071
710.263	23612
710.380	23890
710.498	22876
710.616	22145
710.733	21970
710.851	22594
710.969	23255
711.086	23014
711.204	22067
711.322	21498
711.439	21658
711.557	22059
711.674	21841
711.792	21177
711.909	21949
712.027	23824
712.144	22780
712.262	20999
712.379	21542
712.497	27134
712.614	34663
712.732	28297
712.849	25681
712.966	25047
713.084	26913
713.201	27951
713.318	26446
713.436	26946
713.553	26860
713.670	25894
713.787	27493
713.905	29083
714.022	25926
714.139	25652
714.256	25267
714.373	25631
714.490	28268
714.608	33307
714.725	71997
714.842	189234
714.959	48710
715.076	25168
715.193	23518
715.310	23821
715.427	22177
715.544	21670
715.661	22066
715.778	21984
715.895	23587
716.011	23077
716.128	23503
716.245	21508
716.362	22227
716.479	22251
716.596	21664
716.713	21919
716.829	21906
716.946	22829
717.063	19832
717.180	20226
717.296	19620
717.413	19176
717.530	20539
717.646	20455
717.763	18562
717.880	18281
717.996	19507
718.113	19396
718.229	18775
718.346	18851
718.462	17601
718.579	19333
718.695	21409
718.812	22769
718.928	23202
719.045	22050
719.161	17274
719.277	17306
719.394	17883
719.510	18747
719.626	18245
719.743	19706
719.859	20833
719.975	20202
720.092	28117
720.208	70557
720.324	44206
720.440	18492
720.557	18692
720.673	20182
720.789	24342
720.905	41050
721.021	45317
721.137	18378
721.253	17982
721.369	17600
721.486	18521
721.602	21165
721.718	20721
721.834	15404
721.950	16519
722.066	14783
722.181	15355
722.297	15451
722.413	16452
722.529	14943
722.645	15585
722.761	14406
722.877	15476
722.993	14841
723.108	15273
723.224	15486
723.340	14438
723.456	14528
723.571	14403
723.687	13304
723.803	14390
723.918	13677
724.034	14105
724.150	14421
724.265	15181
724.381	17879
724.497	33520
724.612	17254
724.728	14457
724.843	12802
724.959	14429
725.074	16572
725.190	30158
725.305	16978
725.421	14325
725.536	11992
725.651	13643
725.767	12960
725.882	12269
725.997	12293
726.113	12245
726.228	12320
726.343	12716
726.459	10854
726.574	12851
726.689	12393
726.804	11984
726.920	12716
727.035	12465
727.150	12475
727.265	11908
727.380	11890
727.495	12211
727.610	10953
727.725	11208
727.841	12665
727.956	15989
728.071	24794
728.186	13245
728.301	10973
728.416	11063
728.531	10406
728.645	11051
728.760	10017
728.875	11137
728.990	10077
729.105	10733
729.220	10953
729.335	11434
729.449	10397
729.564	10314
729.679	10425
729.794	10220
729.908	9973
730.023	11802
730.138	10027
730.253	8894
730.367	9994
730.482	10530
730.596	9436
730.711	10340
730.826	10504
730.940	9705
731.055	9747
731.169	10398
731.284	9038
731.398	9331
731.513	9762
731.627	10682
731.742	10042
731.856	11925
731.970	9414
732.085	9871
732.199	10633
732.313	10933
732.428	13603
732.542	24939
732.656	34025
732.771	14155
732.885	10364
732.999	9921
733.113	9940
733.227	10270
733.342	9694
733.456	9737
733.570	9097
733.684	8630
733.798	9717
733.912	8818
734.026	7940
734.140	8440
734.254	8941
734.368	10711
734.482	18324
734.596	9933
734.710	8792
734.824	9825
734.938	7958
735.052	8278
735.166	9196
735.280	9520
735.393	8719
735.507	8842
735.621	9413
735.735	13354
735.849	13833
735.962	8207
736.076	8559
736.190	8462
736.303	9004
736.417	13263
736.531	8752
736.644	8917
736.758	7675
736.872	7909
736.985	7036
737.099	8164
737.212	8013
737.326	8195
737.439	8075
737.553	7818
737.666	8103
737.780	8110
737.893	7769
738.007	7534
738.120	7283
738.233	7425
738.347	7113
738.460	7474
738.573	8063
738.687	7751
738.800	6205
738.913	7630
739.026	8298
739.140	7589
739.253	7278
739.366	7797
739.479	7181
739.592	7639
739.705	6276
739.818	7987
739.932	7031
740.045	7365
740.158	7306
740.271	7281
740.384	7387
740.497	7611
740.610	7233
740.723	6734
740.836	7733
740.949	8261
741.062	7496
741.174	7848
741.287	7799
741.400	7169
741.513	6811
741.626	7670
741.739	7542
741.851	7333
741.964	7234
742.077	7527
742.189	6465
742.302	6822
742.415	6638
742.527	6861
742.640	7187
742.753	7370
742.865	7722
742.978	6245
743.090	6348
743.203	7011
743.316	6710
743.428	6234
743.541	6556
743.653	7063
743.766	6668
743.878	6627
743.990	6971
744.103	8639
744.215	6333
744.327	6986
744.440	6936
744.552	8201
744.664	7404
744.777	7216
744.889	6735
745.001	6686
745.113	5515
745.226	6552
745.338	6115
745.450	7262
745.562	5924
745.674	6841
745.786	5923
745.898	7034
746.010	6043
746.122	7147
746.234	6154
746.347	6585
746.459	7138
746.570	6505
746.682	5670
746.794	6353
746.906	6185
747.018	6812
747.130	6424
747.242	5866
747.354	5932
747.466	6926
747.577	6343
747.689	6381
747.801	5903
747.913	6821
748.024	5684
748.136	6810
748.248	6543
748.359	6768
748.471	5880
748.583	6558
748.694	5848
748.806	6782
748.918	6801
749.029	7955
749.141	6211
749.252	7135
749.364	6582
749.475	6960
749.587	8409
749.698	7251
749.809	5958
749.921	6922
750.032	6309
750.144	5909
750.255	5821
750.366	6064
750.478	5673
750.589	6421
750.700	5978
750.811	6256
750.923	6372
751.034	7193
751.145	9960
751.256	6956
751.367	6497
751.479	7069
751.590	5983
751.701	6408
751.812	6181
751.923	6929
752.034	6768
752.145	6031
752.256	5576
752.367	6387
752.478	5258
752.589	5817
752.700	5423
752.811	6073
752.922	5474
753.032	6040
753.143	6108
753.254	6993
753.365	5081
753.476	5967
753.586	6190
753.697	6172
753.808	6118
753.919	6437
754.029	6135
754.140	6107
754.251	5848
754.361	6408
754.472	5622
754.582	6562
754.693	6529
754.804	6565
754.914	6157
755.025	6575
755.135	5406
755.246	7533
755.356	6743
755.466	6219
755.577	6321
755.687	7295
755.798	5603
755.908	6383
756.018	5909
756.129	6123
756.239	6173
756.349	7437
756.460	5473
756.570	6289
756.680	6783
756.790	6737
756.900	7311
757.011	6616
757.121	6843
757.231	6757
757.341	7181
757.451	7074
757.561	6881
757.671	6918
757.781	6316
757.891	7665
758.001	6776
758.111	7708
758.221	7420
758.331	7780
758.441	8268
758.551	7700
758.661	7528
758.771	7582
758.880	8476
758.990	7598
759.100	8216
759.210	7772
759.320	7954
759.429	7737
759.539	7432
759.649	8922
759.758	8087
759.868	8919
759.978	8364
760.087	9919
760.197	8704
760.307	9930
760.416	8786
760.526	9338
760.635	10031
760.745	10302
760.854	9694
760.964	10336
761.073	10526
761.182	10828
761.292	11890
761.401	10772
761.511	11128
761.620	10910
761.729	11628
761.839	11287
761.948	11650
762.057	12302
762.166	11186
762.276	12255
762.385	13222
762.494	13304
762.603	13189
762.712	14590
762.822	14271
762.931	15984
763.040	15753
763.149	15906
763.258	16572
763.367	18551
763.476	18406
763.585	19494
763.694	20590
763.803	21394
763.912	22732
764.021	23330
764.130	24746
764.238	26457
764.347	28188
764.456	31044
764.565	31609
764.674	35267
764.783	37750
764.891	41782
765.000	47262
765.109	51666
765.217	59283
765.326	69115
765.435	81307
765.543	97577
765.652	116896
765.761	149188
765.869	194342
765.978	260896
766.086	372309
766.195	538802
766.303	759314
766.412	824288
766.520	559414
766.629	782365
766.737	759290
766.846	533714
766.954	369540
767.062	261593
767.171	195922
767.279	152563
767.387	119103
767.496	95886
767.604	81543
767.712	71147
767.820	63359
767.928	55934
768.037	52921
768.145	49579
768.253	46055
768.361	44454
768.469	44609
768.577	44626
768.685	45824
768.793	48545
768.901	53014
769.009	59087
769.117	70082
769.225	85802
769.333	112107
769.441	157239
769.549	238466
769.657	393147
769.765	645582
769.873	713148
769.981	635002
770.088	660716
770.196	399755
770.304	247171
770.412	170612
770.519	125000
770.627	97113
770.735	78091
770.842	64024
770.950	55799
771.058	46612
771.165	42834
771.273	38210
771.380	35519
771.488	30761
771.595	28604
771.703	26748
771.810	25179
771.918	23690
772.025	22328
772.133	20723
772.240	20530
772.348	18537
772.455	17638
772.562	17731
772.670	16555
772.777	15536
772.884	14911
772.991	13884
773.099	15357
773.206	13350
773.313	13074
773.420	12947
773.528	12608
773.635	12547
773.742	12245
773.849	11503
773.956	10534
774.063	11063
774.170	10656
774.277	10714
774.384	11406
774.491	10270
774.598	10892
774.705	10131
774.812	9877
774.919	10155
775.026	10442
775.133	9622
775.239	8654
775.346	9491
775.453	8713
775.560	8199
775.667	8212
775.773	8714
775.880	9026
775.987	8339
776.093	9194
776.200	7735
776.307	8607
776.413	7772
776.520	7553
776.627	7768
776.733	7725
776.840	7338
776.946	8458
777.053	7085
777.159	7391
777.266	6417
777.372	7905
777.478	6539
777.585	7207
777.691	7517
777.798	7023
777.904	6649
778.010	8607
778.117	8489
778.223	7169
778.329	6719
778.435	6374
778.542	6431
778.648	6428
778.754	6466
778.860	6684
778.966	4831
779.072	6641
779.178	5831
779.284	6178
779.391	5660
779.497	6649
779.603	8229
779.708	9738
779.815	15446
779.920	39340
780.026	150652
780.132	105602
780.238	13308
780.344	8792
780.450	7204
780.556	5942
780.661	5756
780.767	5545
780.873	5366
780.979	5767
781.085	5370
781.190	5337
781.296	5047
781.402	5221
781.507	5341
781.613	4945
781.719	4187
781.824	5188
781.930	5011
782.035	5094
782.141	5151
782.246	5517
782.352	4594
782.457	5704
782.563	4904
782.668	4144
782.773	4868
782.879	4912
782.984	4558
783.090	5571
783.195	4808
783.300	4947
783.405	4925
783.511	4669
783.616	3854
783.721	4749
783.826	3414
783.932	4414
784.037	4850
784.142	4071
784.247	4548
784.352	5191
784.457	4693
784.562	4630
784.667	4546
784.772	4767
784.877	3489
784.982	4186
785.087	3460
785.192	4960
785.297	3984
785.402	3817
785.507	3624
785.611	4467
785.716	3610
785.821	4005
785.926	3635
786.031	4308
786.135	3947
786.240	4618
786.345	3491
786.450	4561
786.554	3508
786.659	3729
786.763	2892
786.868	3706
786.973	4161
787.077	3698
787.182	3859
787.286	3958
787.391	3473
787.495	3623
787.600	4032
787.704	3411
787.809	3854
787.913	4161
788.017	3285
788.122	4247
788.226	3100
788.330	2850
788.435	3424
788.539	3339
788.643	3297
788.747	4060
788.852	2334
788.956	3512
789.060	4029
789.164	4092
789.268	3202
789.372	3252
789.476	2483
789.580	3351
789.684	2713
789.788	3440
789.892	2956
789.996	3386
790.100	2225
790.204	3349
790.308	3744
790.412	4213
790.516	3099
790.620	3803
790.724	3313
790.828	2913
790.931	2747
791.035	4136
791.139	3527
791.242	2921
791.346	3291
791.450	3318
791.554	3672
791.657	2751
791.761	2727
791.864	2957
791.968	3017
792.072	3193
792.175	3299
792.279	3421
792.382	2655
792.486	3357
792.589	2852
792.693	3710
792.796	2242
792.899	3245
793.003	2984
793.106	3430
793.209	2128
793.313	3581
793.416	1500
793.519	2388
793.623	3441
793.726	3487
793.829	4417
793.932	3360
794.035	2563
794.138	4199
794.242	3534
794.345	3976
794.448	5642
794.551	8906
794.654	21218
794.757	81972
794.860	66425
794.963	8529
795.066	4257
795.169	4237
795.272	2774
795.375	3288
795.477	2705
795.580	3241
795.683	2202
795.786	2994
795.889	2658
795.991	4133
796.094	3203
796.197	3865
796.300	3182
796.402	2398
796.505	2020
796.608	2341
796.710	1939
796.813	3080
796.915	2192
797.018	2554
797.120	1749
797.223	1867
797.326	3073
797.428	2964
797.530	2383
797.633	2727
797.735	2338
797.838	3215
797.940	4582
798.042	2539
798.145	1867
798.247	3129
798.349	1875
798.452	2641
798.554	1735
798.656	1663
798.758	1807
798.860	2655
798.962	1901
799.065	1580
799.167	2249
799.269	2891
799.371	2687
799.473	2797
799.575	2471
799.677	3705
799.779	3022
799.881	1850
799.983	2682
800.085	2994
800.187	1751
800.289	1615
800.390	2116
800.492	2587
800.594	1990
800.696	2430
800.798	2016
800.899	2052
801.001	1834
801.103	1756
801.205	1960
801.306	2143
801.408	2056
801.509	2154
801.611	2153
801.713	2800
801.814	1318
801.916	2366
802.017	1565
802.119	2333
802.220	1725
802.322	1264
802.423	2621
802.525	2977
802.626	2278
802.727	2578
802.829	2011
802.930	1582
803.031	3233
803.133	2062
803.234	1684
803.335	2476
803.436	1624
803.538	2433
803.639	1966
803.740	2700
803.841	966
803.942	2194
804.043	2076
804.144	1987
804.245	1321
804.346	1863
804.447	1413
804.548	2507
804.649	3354
804.750	1902
804.851	1762
804.952	1167
805.053	1620
805.154	1566
805.255	2129
805.355	1751
805.456	1226
805.557	1469
805.658	1042
805.758	1765
805.859	1768
805.960	1982
806.061	1623
806.161	1854
806.262	1150
806.362	1873
806.463	2377
806.564	2355
806.664	1552
806.765	2480
806.865	2555
806.966	2629
807.066	2515
807.166	2335
807.267	1368
807.367	2292
807.468	1362
807.568	1679
807.668	2700
807.769	1798
807.869	913
807.969	1739
808.069	2249
808.170	2054
808.270	1614
808.370	2268
808.470	1714
808.570	2006
808.670	1907
808.770	2019
808.870	1783
808.970	1617
809.070	688
809.170	1421
809.271	1755
809.370	1356
809.470	1415
809.570	1657
809.670	1247
809.770	1781
809.870	1982
809.970	2172
810.070	1746
810.169	2079
810.269	1669
810.369	2245
810.469	1703
810.568	1757
810.668	1312
810.768	1740
810.867	1807
810.967	2393
811.066	1619
811.166	1712
811.265	1249
811.365	1502
811.464	1502
811.564	2390
811.663	1276
811.763	1566
811.862	2329
811.962	2296
812.061	2095
812.160	2249
812.260	1743
812.359	2391
812.458	2841
812.557	3009
812.657	6156
812.756	5582
812.855	2467
812.954	2821
813.053	2674
813.153	2759
813.252	2099
813.351	2317
813.450	1468
813.549	2395
813.648	2148
813.747	2471
813.846	2064
813.945	2730
814.044	1819
814.143	2200
814.242	3345
814.341	2152
814.439	2407
814.538	2894
814.637	2128
814.736	3268
814.835	3457
814.933	3033
815.032	3562
815.131	3237
815.229	3614
815.328	4564
815.427	3088
815.525	4721
815.624	4661
815.722	4250
815.821	4281
815.919	4739
816.018	3821
816.116	5620
816.215	4986
816.313	5248
816.412	5767
816.510	6121
816.609	6827
816.707	7879
816.805	6598
816.904	7901
817.002	8669
817.100	10473
817.198	11060
817.296	13564
817.395	14333
817.493	17442
817.591	19697
817.689	25489
817.787	33703
817.885	47198
817.983	71446
818.081	117682
818.179	216191
818.277	404553
818.375	554717
818.473	407173
818.571	220839
818.669	130553
818.767	95053
818.865	82574
818.963	85499
819.061	100746
819.158	137410
819.256	210753
819.354	344415
819.452	538145
819.549	581586
819.647	448300
819.745	286389
819.842	177496
819.940	115631
820.038	82131
820.135	61627
820.233	49609
820.330	37689
820.428	30819
820.525	26227
820.623	22446
820.720	19674
820.818	17660
820.915	15536
821.012	14535
821.110	12106
821.207	11053
821.304	9766
821.402	9520
821.499	9291
821.596	8743
821.693	8143
821.791	7801
821.888	7128
821.985	6950
822.082	6731
822.179	6352
822.276	4827
822.373	5574
822.470	5246
822.567	4712
822.664	4854
822.761	4879
822.858	2947
822.955	4251
823.052	3536
823.149	3209
823.246	3342
823.343	4085
823.440	2893
823.536	3508
823.633	2060
823.730	3019
823.827	2801
823.923	2728
824.020	3199
824.117	3071
824.213	2264
824.310	3376
824.407	2677
824.503	2091
824.600	2276
824.696	2681
824.793	2756
824.889	2197
824.986	2311
825.082	2901
825.179	2273
825.275	1488
825.371	2009
825.468	2217
825.564	2014
825.660	2454
825.757	2475
825.853	1892
825.949	1875
826.045	1502
826.142	1718
826.238	1950
826.334	1476
826.430	1979
826.526	2238
826.622	2587
826.718	1152
826.814	1796
826.910	2319
827.006	1467
827.102	1206
827.198	1871
827.294	1422
827.390	1459
827.486	2370
827.582	1208
827.678	1310
827.774	1771
827.869	924
827.965	2528
828.061	957
828.157	1451
828.252	1378
828.348	1143
828.444	1204
828.539	1235
828.635	774
828.731	1887
828.826	843
828.922	1938
829.017	1098
829.113	1473
829.208	1076
829.304	454
829.399	1141
829.495	1155
829.590	1225
829.685	1334
829.781	1477
829.876	1381
829.971	1238
830.066	1656
830.162	484
830.257	1213
830.352	886
830.447	1660
830.543	667
830.638	339
830.733	2123
830.828	1319
830.923	1694
831.018	884
831.113	685
831.208	892
831.303	34
831.398	1592
831.493	994
831.588	1153
831.683	385
831.778	1373
831.873	1196
831.967	1168
832.062	1438
832.157	919
832.252	1455
832.346	617
832.441	1270
832.536	2046
832.631	1986
832.725	3401
832.820	1027
832.914	142
833.009	607
833.104	925
833.198	1420
833.293	912
833.387	242
833.482	1401
833.576	438
833.670	985
833.765	625
833.859	983
833.954	483
834.048	1019
834.142	1155
834.237	509
834.331	1039
834.425	1415
834.519	-247
834.613	1517
834.708	-199
834.802	1031
834.896	363
834.990	710
835.084	692
835.178	650
835.272	742
835.366	2047
835.460	505
835.554	1067
835.648	274
835.742	261
835.836	1024
835.930	887
836.024	68
836.117	1022
836.211	654
836.305	1628
836.399	1816
836.493	1168
836.586	682
836.680	1176
836.774	-568
836.867	1124
836.961	-86
837.055	1245
837.148	413
837.242	911
837.335	412
837.429	627
837.522	153
837.616	651
837.709	1617
837.803	2774
837.896	833
837.989	1087
838.083	519
838.176	2330
838.269	3971
838.363	2548
838.456	576
838.549	1820
838.642	1264
838.735	3028
838.829	2410
838.922	174
839.015	-486
839.108	1195
839.201	713
839.294	833
839.387	371
839.480	680
839.573	624
839.666	1999
839.759	1500
839.852	751
839.945	674
840.038	900
840.131	403
840.223	403
840.316	476
840.409	139
840.502	170
840.594	1191
840.687	-250
840.780	1084
840.873	348
840.965	526
841.058	1460
841.150	1573
841.243	2315
841.336	1853
841.428	696
841.521	741
841.613	-611
841.706	680
841.798	612
841.890	795
841.983	185
842.075	816
842.167	20
842.260	137
842.352	916
842.444	1988
842.537	1903
842.629	4763
842.721	3157
842.813	750
842.905	115
842.997	1074
843.090	328
843.182	1023
843.274	1635
843.366	5467
843.458	11309
843.550	15186
843.642	4968
843.734	1408
843.826	1063
843.918	1418
844.009	749
844.101	318
844.193	553
844.285	164
844.377	1578
844.469	792
844.560	598
844.652	763
844.744	69
844.835	609
844.927	228
845.019	933
845.110	1490
845.202	816
845.293	457
845.385	379
845.476	1002
845.568	1025
845.659	-61
845.751	1089
845.842	775
845.934	266
846.025	177
846.116	1105
846.208	617
846.299	847
846.390	172
846.482	1031
846.573	582
846.664	1795
846.755	427
846.846	2185
846.937	581
847.029	292
847.120	185
847.211	316
847.302	670
847.393	631
847.484	794
847.575	638
847.666	24
847.757	767
847.847	-162
847.938	1141
848.029	304
848.120	44
848.211	-315
848.302	176
848.392	583
848.483	628
848.574	-709
848.664	617
848.755	304
848.846	315
848.936	-170
849.027	247
849.118	808
849.208	427
849.299	-334
849.389	468
849.480	-16
849.570	740
849.661	1211
849.751	2467
849.841	2452
849.932	1453
850.022	243
850.112	1460
850.203	496
850.293	772
850.383	-67
850.474	541
850.564	355
850.654	648
850.744	550
850.834	366
850.924	-71
851.014	471
851.104	-81
851.194	657
851.284	335
851.374	874
851.464	551
851.554	1186
851.644	221
851.734	1113
851.824	796
851.914	1358
852.004	1972
852.094	3402
852.183	1707
852.273	765
852.363	205
852.452	1097
852.542	323
852.632	357
852.721	715
852.811	273
852.901	571
852.990	-117
853.080	171
853.169	296
853.259	-4
853.348	201
853.438	616
853.527	229
853.617	513
853.706	1036
853.795	1018
853.885	3643
853.974	5069
854.063	10096
854.152	18877
854.242	18459
854.331	3953
854.420	1508
854.509	410
854.598	1168
854.687	-126
854.777	1568
854.866	210
854.955	830
855.044	-216
855.133	-373
855.222	487
855.311	206
855.400	482
855.488	381
855.577	766
855.666	874
855.755	595
855.844	1042
855.933	1495
856.021	1848
856.110	374
856.199	-458
856.288	129
856.376	-189
856.465	-211
856.554	507
856.642	-324
856.731	678
856.819	298
856.908	-268
856.996	450
857.085	-131
857.173	397
857.262	448
857.350	441
857.438	828
857.527	118
857.615	156
857.703	540
857.792	-278
857.880	413
857.968	-25
858.056	-78
858.145	115
858.233	111
858.321	-59
858.409	337
858.497	496
858.585	-547
858.673	857
858.761	-325
858.849	534
858.937	-638
859.025	417
859.113	429
859.201	-1146
859.289	284
859.377	-43
859.465	180
859.552	397
859.640	-654
859.728	-158
859.816	-583
859.903	917
859.991	-256
860.079	628
860.166	-326
860.254	897
860.342	116
860.429	67
860.517	-642
860.604	260
860.692	1015
860.779	451
860.867	-485
860.954	8
861.042	227
861.129	358
861.216	497
861.304	296
861.391	-148
861.478	151
861.565	49
861.653	264
861.740	-220
861.827	-745
861.914	546
862.001	213
862.089	367
862.176	327
862.263	-64
862.350	1003
862.437	-171
862.524	104
862.611	116
862.698	451
862.785	145
862.871	85
862.958	-98
863.045	685
863.132	487
863.219	-113
863.306	-834
863.392	916
863.479	-295
863.566	152
863.652	515
863.739	48
863.826	-90
863.912	271
863.999	-518
864.086	291
864.172	-1007
864.259	244
864.345	-62
864.432	-28
864.518	-359
864.604	-32
864.691	-477
864.777	-7
864.863	-9
864.950	242
865.036	-92
865.122	-319
865.209	-115
865.295	941
865.381	220
865.467	258
865.553	65
865.639	-127
865.726	154
865.812	1316
865.898	2218
865.984	4175
866.070	6162
866.156	12748
866.242	6749
866.328	1131
866.414	505
866.499	726
866.585	437
866.671	490
866.757	279
866.843	-17
866.928	-55
867.014	328
867.100	17
867.186	209
867.271	317
867.357	1107
867.442	1700
867.528	1741
867.614	-466
867.699	269
867.785	579
867.870	-227
867.956	-766
868.041	704
868.127	-538
868.212	691
868.297	503
868.383	531
868.468	322
868.553	303
868.639	865
868.724	988
868.809	3583
868.894	1433
868.979	-368
869.065	302
869.150	-465
869.235	308
869.320	-259
869.405	64
869.490	-471
869.575	-181
869.660	-756
869.745	-229
869.830	-61
869.915	-175
870.000	201
870.085	883
870.169	277
870.254	893
870.339	-807
870.424	-42
870.509	376
870.593	-44
870.678	62
870.763	-342
870.847	-90
870.932	-383
871.016	118
871.101	326
871.186	-197
871.270	-165
871.355	139
871.439	422
871.523	106
871.608	-1110
871.692	-376
871.777	165
871.861	-288
871.945	-864
872.030	304
872.114	370
872.198	2
872.282	-731
872.367	-75
872.451	-121
872.535	-820
872.619	266
872.703	-572
872.787	595
872.871	-550
872.955	-58
873.039	-2
873.123	101
873.207	-323
873.291	505
873.375	-771
873.459	171
873.543	734
873.627	-327
873.711	-290
873.794	-58
873.878	-115
873.962	-376
874.045	-508
874.129	13
874.137	-24
874.213	-395
874.245	-195
874.296	134
874.352	-73
874.380	-181
874.460	277
874.464	297
874.547	-317
874.568	-337
874.631	-417
874.676	-234
874.714	-52
874.784	-91
874.798	-113
874.881	-207
874.892	-97
874.965	699
874.999	351
875.048	-130
875.107	-193
875.131	-213
875.215	-30
875.215	-30
875.298	-547
875.323	-369
875.381	30
875.430	171
875.465	292
875.538	-379
875.548	-471
875.631	-98
875.646	-178
875.714	-635
875.753	-526
875.798	-330
875.861	-558
875.881	-648
875.964	-73
875.968	-73
876.047	-99
876.076	-131
876.130	-132
876.183	-434
876.213	-621
876.291	-291
876.296	-267
876.379	-541
876.398	-383
876.462	138
876.506	-230
876.545	-579
876.613	-482
876.628	-450
876.711	-11
876.721	-29
876.794	-229
876.828	-41
876.877	309
876.935	-425
876.960	-784
877.043	-273
877.043	-270
877.125	514
877.150	210
877.208	-576
877.258	2
877.291	454
877.365	-648
877.374	-794
877.456	839
877.472	643
877.539	64
877.579	202
877.622	23
877.687	144
877.704	310
877.787	736
877.794	714
877.869	217
877.901	248
877.952	386
878.008	9
878.034	-282
878.115	130
878.117	146
878.199	-324
878.222	-209
878.282	15
878.329	-33
878.364	-119
878.437	-224
878.447	-219
878.529	-713
878.544	-535
878.611	117
878.651	80
878.694	4
878.758	-243
878.776	-240
878.858	67
878.865	67
878.941	-357
878.972	-469
879.023	-345
879.078	-234
879.105	-259
879.185	-172
879.187	-169
879.269	298
879.292	119
879.351	-423
879.399	-180
879.433	118
879.506	-137
879.516	-220
879.598	-826
879.613	-847
879.680	-767
879.720	-197
879.762	430
879.827	-285
879.844	-529
879.926	-119
879.933	-246
880.007	-1255
880.040	-803
880.089	-1
880.147	29
880.171	8
880.253	143
880.254	144
880.335	284
880.360	432
880.417	790
880.467	419
880.499	247
880.574	1271
880.580	1342
880.662	506
880.680	366
880.744	-105
880.787	-369
880.825	-573
880.893	-425
880.907	-437
880.989	-598
881.000	-674
881.070	-701
881.106	-414
881.152	-255
881.213	-92
881.233	-50
881.315	-317
881.319	-328
881.396	-267
881.426	-310
881.478	-524
881.532	-329
881.559	-180
881.639	-500
881.641	-507
881.722	-152
881.745	-256
881.803	-606
881.852	-637
881.885	-622
881.958	-631
881.966	-616
882.047	-91
882.064	-64
882.129	-208
882.171	-86
882.210	146
882.277	-2
882.291	-156
882.372	-327
882.383	-452
882.454	-200
882.489	-56
882.535	-98
882.596	208
882.616	216
882.697	-203
882.702	-217
882.778	-270
882.808	-252
882.859	-422
882.914	-607
882.940	-608
883.020	-458
883.021	-458
883.102	-520
883.127	-568
883.183	-476
883.233	-568
883.264	-681
883.339	-862
883.345	-860
883.426	-764
883.445	-620
883.507	189
883.551	324
883.587	-192
883.657	-853
883.668	-793
883.749	-300
883.763	-196
883.830	-209
883.869	-303
883.910	-119
883.975	393
883.991	313
884.072	-991
884.081	-1015
884.152	-559
884.187	-666
884.233	-622
884.292	-429
884.314	-504
884.394	-436
884.398	-449
884.475	-573
884.504	-588
884.555	-335
884.610	-61
884.636	-190
884.716	-457
884.716	-456
884.797	-478
884.821	-484
884.877	-434
884.927	-306
884.958	-299
885.033	-386
885.038	-381
885.118	-286
885.139	-243
885.199	-194
885.244	-55
885.279	-60
885.350	-568
885.359	-590
885.439	-475
885.456	-466
885.520	-592
885.561	-487
885.600	-214
885.667	-98
885.680	-101
885.760	12
885.773	33
885.840	-61
885.878	-128
885.920	-351
885.984	-684
886.000	-745
886.080	-970
886.089	-1013
886.160	-589
886.195	-308
886.240	-489
886.300	-870
886.320	-871
886.400	-533
886.406	-521
886.480	-170
886.511	-96
886.560	-285
886.616	-370
886.640	-292
886.720	-20
886.722	-19
886.800	-647
886.827	-743
886.879	-405
886.932	-265
886.959	-281
887.038	-312
887.039	-311
887.119	-370
887.143	-257
887.198	4
887.248	14
887.278	-164
887.354	-559
887.358	-558
887.437	-530
887.459	-489
887.517	66
887.564	416
887.596	106
887.669	-402
887.676	-418
887.755	-832
887.774	-925
887.835	-927
887.880	-813
887.914	-616
887.985	-314
887.994	-305
888.073	-246
888.090	-213
888.153	-428
888.195	-635
888.232	-572
888.300	-402
888.311	-346
888.391	39
888.405	107
888.470	-58
888.510	-163
888.549	-388
888.615	-741
888.628	-724
888.708	-588
888.720	-568
888.787	-197
888.825	-16
888.866	-65
888.930	-56
888.945	-99
889.024	-377
889.035	-410
889.103	-607
889.140	-719
889.182	-539
889.245	-231
889.261	-286
889.340	-584
889.349	-613
889.419	-259
889.454	-77
889.498	-467
889.559	-1003
889.577	-919
889.656	-533
889.664	-489
889.735	121
889.768	410
889.814	227
889.873	-14
889.978	-532
890.083	-271
890.187	-26
890.292	-768
890.397	-753
890.501	-409
890.606	92
890.710	-457
890.815	-588
890.919	180
891.024	-1183
891.128	-395
891.233	-1117
891.337	-141
891.442	-820
891.546	-293
891.650	79
891.755	-480
891.859	-309
891.963	-640
892.068	-854
892.172	-798
892.276	-1429
892.380	-709
892.484	-185
892.589	-201
892.693	-797
892.797	-1036
892.901	191
893.005	15
893.109	-140
893.213	177
893.317	-423
893.421	198
893.525	-902
893.629	-795
893.733	-670
893.837	-643
893.941	-885
894.045	265
894.148	-961
894.252	-212
894.356	-521
894.460	-1012
894.564	-886
894.667	-268
894.771	-896
894.875	-795
894.978	-911
895.082	-564
895.186	-657
895.289	201
895.393	-681
895.496	-361
895.600	-1269
895.703	-927
895.807	-1074
895.910	-509
896.014	-1267
896.117	-434
896.221	-595
896.324	-692
896.427	-1077
896.531	-1132
896.634	-827
896.737	110
896.840	-1327
896.944	-566
897.047	-321
897.150	-86
897.253	-1060
897.356	-911
897.460	-863
897.563	103
897.666	-1850
897.769	-581
897.872	-245
897.975	-505
898.078	-1074
898.181	-111
898.284	-327
898.387	-715
898.490	-365
898.593	-418
898.695	-704
898.798	-690
898.901	-436
899.004	-858
899.107	-1044
899.209	-228
899.312	-1128
899.415	-908
899.518	-617
899.620	-1163
899.723	-290
899.826	-378
899.928	-1174
900.031	-903
900.133	-655
900.236	-304
900.338	-770
900.441	-629
900.543	-637
900.646	-564
900.748	-1257
900.851	-930
900.953	-810
901.055	-1530
901.158	-377
901.260	-433
901.362	-1275
901.465	-649
901.567	-729
901.669	-285
901.771	-230
901.873	-208
901.976	-541
902.078	-920
902.180	-562
902.282	-60
902.384	-1232
902.486	-911
902.588	-1322
902.690	87
902.792	-848
902.894	-1219
902.996	-455
903.098	-364
903.200	-813
903.302	-878
903.404	-512
903.505	-902
903.607	-674
903.709	-61
903.811	-211
903.913	-409
904.014	-1772
904.116	-748
904.218	-825
904.319	-1097
904.421	-755
904.523	-612
904.624	-317
904.726	-378
904.827	-923
904.929	-576
905.030	-1948
905.132	-566
905.233	-883
905.335	101
905.436	-1081
905.537	-498
905.639	-837
905.740	-696
905.841	-1267
905.943	-142
906.044	-962
906.145	-620
906.247	-840
906.348	-846
906.449	-869
906.550	-698
906.651	-670
906.752	-1362
906.854	-197
906.955	-654
907.056	-1700
907.157	-236
907.258	-497
907.359	-1116
907.460	-1100
907.561	-888
907.662	-502
907.762	4
907.863	-791
907.964	170
908.065	-548
908.166	-742
908.267	-1099
908.367	-66
908.468	-1249
908.569	-615
908.670	-232
908.770	-659
908.871	-285
908.971	-1018
909.072	-512
909.173	-545
909.273	-933
909.374	-278
909.474	-614
909.575	-557
909.675	-1357
909.776	-40
909.876	-193
909.977	-813
910.077	-622
910.177	-957
910.278	-907
910.378	-326
910.478	-352
910.579	-373
910.679	-618
910.779	-845
910.879	-939
910.980	-429
911.080	-1
911.180	-119
911.280	-860
911.380	-1191
911.480	-1288
911.580	-23
911.680	-74
911.780	-187
911.880	-704
911.980	-81
912.080	-527
912.180	-777
912.280	-353
912.380	-919
912.480	-925
912.580	-883
912.679	-1866
912.779	-595
912.879	-955
912.979	-1154
913.078	-863
913.178	-356
913.278	-1611
913.377	-691
913.477	-62
913.577	-1009
913.676	-796
913.776	-1240
913.875	-880
913.975	-420
914.074	-1162
914.174	-624
914.273	-1131
914.373	526
914.472	-1067
914.572	-901
914.671	-1449
914.770	-1227
914.870	-1204
914.969	-73
915.068	-879
915.167	-723
915.267	-1497
915.366	-1082
915.465	-1206
915.564	-685
915.663	-589
915.763	-1185
915.862	-978
915.961	-781
916.060	-1114
916.159	-881
916.258	-1565
916.357	-1213
916.456	-1652
916.555	-1153
916.654	-724
916.752	-959
916.851	-1358
916.950	407
917.049	-768
917.148	-895
917.247	-617
917.345	-1380
917.444	-1237
917.543	-782
917.642	-948
917.740	-1579
917.839	-610
917.937	-334
918.036	-664
918.135	-535
918.233	-1420
918.332	-430
918.430	-1311
918.529	-910
918.627	-378
918.726	-229
918.824	-318
918.923	-628
919.021	-1368
919.119	-680
919.218	-1372
919.316	-1198
919.414	-1283
919.512	-1069
919.611	-553
919.709	-1224
919.807	-927
919.905	-1377
920.003	-1089
920.102	-797
920.200	-832
920.298	-606
920.396	-1597
920.494	-1081
920.592	-995
920.690	-781
920.788	-1329
920.886	-1091
920.984	-357
921.082	-863
921.180	-408
921.277	-733
921.375	-1081
921.473	-251
921.571	-1284
921.669	-1248
921.766	-1282
921.864	-488
921.962	-1845
922.060	-1369
922.157	-390
922.255	-1165
922.352	-832
922.450	-1946
922.548	-1077
922.645	-380
922.743	-1680
922.840	-1653
922.938	-927
923.035	-5
923.133	-1095
923.230	-1133
923.327	-2154
923.425	-1053
923.522	-1137
923.619	-1008
923.717	-1252
923.814	-1060
923.911	-1272
924.008	-797
924.106	-810
924.203	-300
924.300	-497
924.397	-769
924.494	-1110
924.591	-1133
924.688	-1479
924.786	-1117
924.883	-1121
924.979	-617
925.077	-950
925.173	-750
925.270	-505
925.367	-1351
925.464	-1300
925.561	-593
925.658	-1263
925.755	-1215
925.852	-1770
925.948	-520
926.045	-1347
926.142	-1316
926.239	-1161
926.335	-1007
926.432	-479
926.529	-1000
926.625	-777
926.722	-1205
926.818	-1621
926.915	-468
927.011	-1147
927.108	-895
927.204	-1730
927.301	-806
927.397	-1047
927.494	-636
927.590	-1519
927.687	-1709
927.783	-1401
927.879	-1016
927.976	-892
928.072	-1042
928.168	-1387
928.264	-1447
928.361	-636
928.457	-805
928.553	-1870
928.649	-1104
928.745	-1267
928.841	-939
928.937	-1042
929.033	-1486
929.129	-887
929.225	-1423
929.321	-1019
929.417	-774
929.513	-1071
929.609	-1065
929.705	-1580
929.801	-601
929.897	-1576
929.993	-956
930.089	-1180
930.184	-1524
930.280	-792
930.376	-1456
930.471	-1595
930.567	-1025
930.663	-708
930.758	-929
930.854	-1563
930.950	-1538
931.045	-1551
931.141	-714
931.236	-1229
931.332	-908
931.427	-1452
931.523	-1804
931.618	-1525
931.714	-1173
931.809	-885
931.905	-1049
932.000	-1390
932.095	-963
932.191	-2254
932.286	-1103
932.381	-2033
932.476	-487
932.572	-1566
932.667	-1118
932.762	-1407
932.857	-899
932.952	-619
933.047	-975
933.142	-1345
933.237	-1482
933.332	-1630
933.427	-994
933.522	-825
933.617	-724
933.712	-1574
933.807	-1160
933.902	-684
933.997	-1453
934.092	-1612
934.187	-1023
934.282	-1338
934.376	-1158
934.471	-1197
934.566	-1478
934.661	-828
934.755	-882
934.850	-1687
934.945	-1090
935.039	-1382
935.134	-727
935.228	-1183
935.323	-1010
935.417	-1198
935.512	-856
935.606	-1508
935.701	-1121
935.795	-949
935.890	-1408
935.984	-1533
936.079	-586
936.173	-1247
936.267	-420
936.362	-1186
936.456	-337
936.550	-893
936.644	-941
936.738	-1191
936.833	-1042
936.927	-1704
937.021	-93
937.115	-1451
937.209	-1569
937.303	-1318
937.397	-1097
937.491	-1228
937.585	-836
937.679	-1841
937.773	-1092
937.867	-1610
937.961	-913
938.055	-883
938.149	-1586
938.243	-1454
938.337	-1646
938.430	-1603
938.524	-1513
938.618	-1108
938.712	-1190
938.805	-2131
938.899	-1612
938.993	-1704
939.086	-1175
939.180	-1920
939.274	-514
939.367	-394
939.461	-1767
939.554	-828
939.648	-1227
939.741	-985
939.835	-1619
939.928	-589
940.022	-1271
940.115	-1060
940.208	-733
940.302	-1556
940.395	-1086
940.488	-1972
940.582	-1000
940.675	-1407
940.768	-1498
940.861	-1073
940.954	-1699
941.048	-1629
941.141	-1285
941.234	-1397
941.327	-1411
941.420	-300
941.513	-220
941.606	-1011
941.699	-1120
941.792	-909
941.885	-656
941.978	-1661
942.071	-1611
942.164	-1184
942.257	-233
942.349	-1432
942.442	-1687
942.535	-1518
942.628	-687
942.721	-464
942.813	-1449
942.906	-1586
942.999	-1173
943.091	-1618
943.184	-71
943.277	-1429
943.369	-1501
943.462	-512
943.554	-1576
943.647	-1677
943.739	-283
943.832	-956
943.924	-1112
944.017	-568
944.109	-1035
944.201	-955
944.294	-635
944.386	-876
944.478	-1488
944.571	-824
944.663	-830
944.755	-1506
944.847	-1708
944.940	-1368
945.032	-736
945.124	-1428
945.216	-750
945.308	-759
945.400	-956
945.492	-1516
945.584	-1060
945.676	-1389
945.768	-896
945.860	-631
945.952	-1044
946.044	-1414
946.136	-676
946.228	-1248
946.320	-940
946.412	-812
946.503	-1282
946.595	-1188
946.687	-1023
946.779	-1605
946.870	-653
946.962	-1213
947.054	-1601
947.145	-1669
947.237	-1037
947.329	-1458
947.420	-773
947.512	-1363
947.603	-1686
947.695	-1052
947.786	-817
947.878	-1740
947.969	-818
948.061	-1279
948.152	-1462
948.243	-1455
948.335	-1445
948.426	-1573
948.517	-1491
948.609	-497
948.700	-1084
948.791	-1018
948.882	-960
948.973	-1197
949.065	-1221
949.156	-605
949.247	-1285
949.338	-928
949.429	-1889
949.520	-1153
949.611	-2025
949.702	-1022
949.793	-971
949.884	-1757
949.975	-831
950.066	-1195
950.157	-1159
950.247	-1384
950.338	-829
950.429	-1254
950.520	-915
950.611	-837
950.701	-652
950.792	-918
950.883	-1566
950.973	-908
951.064	-1158
951.155	-1162
951.245	-1219
951.336	-414
951.427	-1923
951.517	-1321
951.608	-904
951.698	-1600
951.788	-1755
951.879	-1343
951.969	-1488
952.060	-2127
952.150	-1305
952.240	-732
952.331	-1161
952.421	-986
952.511	-1214
952.602	-1147
952.692	-885
952.782	-1554
952.872	-1104
952.962	-1909
953.052	-1435
953.143	-1445
953.233	-1172
953.323	-863
953.413	-942
953.503	-1759
953.593	-871
953.683	-1418
953.773	-1497
953.863	-1214
953.953	-1731
954.042	-473
954.132	-1121
954.222	-1089
954.312	-1401
954.402	-1766
954.492	-1363
954.581	-2059
954.671	-1892
954.761	-2055
954.850	-1128
954.940	-1791
955.030	-576
955.119	-806
955.209	-706
955.298	-1041
955.388	-1062
955.477	-1392
955.567	-2115
955.656	-903
955.746	-1127
955.835	-1036
955.925	-1692
956.014	-965
956.103	-1272
956.193	-1817
956.282	-1603
956.371	-550
956.461	-851
956.550	-1149
956.639	-1195
956.728	-1611
956.817	-1096
956.906	-1640
956.995	-664
957.085	-1301
957.174	-1262
957.263	-1352
957.352	-1217
957.441	-1645
957.530	-995
957.619	-568
957.708	-1222
957.796	-1796
957.885	-1386
957.974	-1801
958.063	-981
958.152	-1472
958.241	-755
958.329	-1791
958.418	-1245
958.507	-1105
958.596	-1248
958.684	-1891
958.773	-270
958.861	-578
958.950	-700
959.039	-820
959.127	-475
959.216	-1243
959.304	-603
959.393	-596
959.481	-1250
959.570	-1126
959.658	-1272
959.746	-1452
959.835	-911
959.923	-1156
960.011	-994
960.100	-1221
960.188	-691
960.276	-1479
960.365	-296
960.453	-1489
960.541	-796
960.629	-1511
960.717	-986
960.805	-871
960.893	-1232
960.981	-1851
961.069	-790
961.158	-946
961.245	-988
961.333	-1632
961.421	-936
961.509	-1434
961.597	-683
961.685	-1333
961.773	-832
961.861	-885
961.949	-1307
962.036	-1655
962.124	-246
962.212	-1710
962.299	-926
962.387	-1229
962.475	-1074
962.562	-1746
962.650	-472
962.738	-542
962.825	-2238
962.913	-1726
963.000	-1516
963.088	-1619
963.175	-1060
963.263	-1433
963.350	-1309
963.438	-1833
963.525	-1236
963.612	-2298
963.700	-1043
963.787	-141
963.874	-439
963.962	-1292
964.049	-1182
964.136	-1094
964.223	-768
964.310	-1402
964.398	-1105
964.485	-705
964.572	-1028
964.659	-1375
964.746	-1457
964.833	-2179
964.920	-1217
965.007	-1884
965.094	-2383
965.181	-1490
965.268	-1377
965.355	-1738
965.441	-1310
965.528	-1512
965.615	-1395
965.702	-2740
965.789	-710
965.875	-2070
965.962	-1634
966.049	-1102
966.136	-167
966.222	-1601
966.309	-1714
966.395	-1188
966.482	-1717
966.569	-2061
966.655	-1109
966.742	-1364
966.828	-1165
966.915	-1940
967.001	-801
967.087	-1140
967.174	-1510
967.260	-1438
967.347	-1245
967.433	-1980
967.519	-434
967.605	-855
967.692	-969
967.778	-1460
967.864	-661
967.950	-2225
968.036	-1276
968.123	-1188
968.209	-1501
968.295	-1786
968.381	-295
968.467	-1088
968.553	-870
968.639	-1618
968.725	-1963
968.811	-1222
968.897	-1908
968.983	-1566
969.069	-1569
969.154	-1164
969.240	-712
969.326	-1201
969.412	-1973
969.497	-2233
969.583	-1292
969.669	-1027
969.755	-317
969.840	-1041
969.926	-1017
970.012	-2862
970.097	-1315
970.183	-1347
970.268	-1448
970.354	-802
970.439	-2623
970.525	-684
970.610	-890
970.696	-1777
970.781	-1435
970.866	-2094
970.952	-1610
971.037	-1941
971.122	-1685
971.208	-1441
971.293	-1212
971.378	-1764
971.463	-1668
971.549	-1225
971.634	-947
971.719	-1228
971.804	-1047
971.889	-1158
971.974	-551
972.059	-1921
972.144	-729
972.229	-2040
972.314	-793
972.399	-681
972.484	-837
972.569	-919
972.654	-1608
972.739	-1319
972.824	-1262
972.908	-1647
972.993	-1582
973.078	-834
973.163	-690
973.247	-924
973.332	-1566
973.417	-600
973.501	-1616
973.586	-1127
973.671	-1615
973.755	-1720
973.840	-1158
973.924	-971
974.009	-312
974.093	-1126
974.178	-467
974.262	-1397
974.346	-864
974.431	-731
974.515	-1464
974.600	-1783
974.684	-1176
974.768	-1472
974.852	-812
974.937	-1681
975.021	-822
975.105	-1431
975.189	-1221
975.273	-1793
975.358	-2133
975.442	-1236
975.526	-1190
975.610	-987
975.694	-1740
975.778	-1559
975.862	-1419
975.946	-1179
976.030	-785
976.114	-1030
976.198	-1407
976.281	-1863
976.365	-986
976.449	-1910
976.533	-1118
976.617	-2341
976.700	-870
976.784	-1912
976.868	-1599
976.951	-832
977.035	-199
977.119	-1426
977.202	-1327
977.286	-464
977.369	-1452
977.453	-1067
977.536	-1495
977.620	-730
977.703	-1745
977.787	-2226
977.870	-439
977.953	-1048
978.037	-1285
978.120	-763
978.203	-1545
978.287	-1046
978.370	-1454
978.453	-1364
978.536	-1717
978.620	-869
978.703	-1599
978.786	-1781
978.869	-1732
978.952	-1930
979.035	-792
979.118	-1964
979.201	-1553
979.284	-1013
979.367	-1754
979.450	-1523
979.533	-1895
979.616	-1768
979.699	-1220
979.782	-608
979.865	-1366
979.948	-1065
980.030	-1332
980.113	-816
980.196	-2004
980.279	-1372
980.361	-1478
980.444	-1880
980.526	-1580
980.609	-1519
980.692	-1064
980.774	-854
980.857	-2186
980.939	-1401
981.022	-1490
981.104	-1614
981.187	-1731
981.269	-353
981.352	-751
981.434	-2311
981.516	-1958
981.599	-1336
981.681	-1259
981.763	-982
981.846	-1621
981.928	-1637
982.010	-1130
982.092	-1511
982.174	-2305
982.256	-1197
982.339	-1315
982.421	-1996
982.503	-1149
982.585	-2071
982.667	-558
982.749	-862
982.831	-857
982.913	-1555
982.995	-1125
983.077	-844
983.158	-978
983.240	-911
983.322	-998
983.404	-1142
983.486	-831
983.568	-907
983.649	-1510
983.731	-529
983.813	-2061
983.894	-611
983.976	-1151
984.058	-1482
984.139	-799
984.221	-1000
984.302	-1687
984.384	-1265
984.465	-999
984.547	-780
984.628	-2163
984.710	-1894
984.791	-702
984.872	-1432
984.954	-1128
985.035	-771
985.116	-1397
985.198	-2145
985.279	-815
985.360	-1388
985.441	-1243
985.522	-1499
985.604	-565
985.685	-1938
985.766	-7
985.847	-682
985.928	-1673
986.009	-1724
986.090	-1748
986.171	-905
986.252	-1382
986.333	-1102
986.414	-807
986.495	-1188
986.576	-1273
986.656	-2276
986.737	-1137
986.818	-1320
986.899	-1194
986.980	-1768
987.060	-965
987.141	-804
987.222	-1503
987.302	-1645
987.383	-1016
987.464	-998
987.544	-551
987.625	-560
987.705	-928
987.786	-1170
987.866	-1107
987.947	-1233
988.027	-1377
988.108	-1449
988.188	-1225
988.268	-557
988.349	-510
988.429	-614
988.509	-1214
988.589	-1522
988.670	-2239
988.750	34
988.830	-1296
988.910	-1047
988.990	-764
989.070	-1333
989.151	-901
989.231	-1468
989.311	-399
989.391	-1215
989.471	-615
989.551	-1580
989.631	-786
989.711	-410
989.791	-1512
989.870	-1131
989.950	-251
990.030	-1329
990.110	-1414
990.190	-1572
990.269	-880
990.349	-1257
990.429	-772
990.509	-707
990.588	-1475
990.668	-1385
990.747	-585
990.827	-1022
990.907	-1493
990.986	-1095
991.066	-897
991.145	-1423
991.225	-960
991.304	-1374
991.383	-664
991.463	-1930
991.542	-1231
991.622	-1056
991.701	-1154
991.780	-1534
991.859	-1256
991.939	-1370
992.018	-742
992.097	-788
992.176	-33
992.256	-444
992.335	-819
992.414	-1002
992.493	-1447
992.572	-1452
992.651	-137
992.730	-1537
992.809	-764
992.888	-1317
992.967	-1092
993.046	-1292
993.125	-882
993.203	-1911
993.282	-1476
993.361	-1727
993.440	-1859
993.519	-2172
993.597	-1307
993.676	-1085
993.755	-1225
993.834	-1483
993.912	-1652
993.991	-927
994.069	-704
994.148	-1118
994.226	-928
994.305	-1548
994.384	-1256
994.462	-1709
994.540	-1081
994.619	-643
994.697	-958
994.776	-1391
994.854	-1346
994.932	-1528
995.011	-1513
995.089	-1182
995.167	-1681
995.245	-673
995.324	-1375
995.402	-1325
995.480	-1542
995.558	-1063
995.636	-1716
995.714	-1873
995.792	-938
995.870	-1667
995.948	-572
996.026	-447
996.104	-1523
996.182	-618
996.260	-1900
996.338	-1402
996.416	-1932
996.494	-1769
996.572	-1196
996.649	-1517
996.727	-1829
996.805	-1557
996.883	-1082
996.960	-1581
997.038	-758
997.116	-1141
997.193	-1922
997.271	-1143
997.348	-2088
997.426	-928
997.504	-1386
997.581	-564
997.658	-1346
997.736	-2064
997.813	-1777
997.891	-1229
997.968	-1622
998.046	-1370
998.123	-1699
998.200	-880
998.277	-1591
998.355	-1536
998.432	-1115
998.509	-636
998.586	-550
998.663	-1283
998.741	-1176
998.818	-1806
998.895	-1210
998.972	-380
999.049	-1772
999.126	-1143
999.203	-1032
999.280	-1341
999.357	-691
999.434	-893
999.511	-564
999.587	-314
999.664	-1283
999.741	-1548
999.818	-723
999.895	-1423
999.971	-1528
1000.048	-1378
1000.125	-1614
1000.202	-1788
1000.278	-1169
1000.355	-1385
1000.431	-1141
1000.508	-905
1000.584	-1032
1000.661	-1617
1000.738	-1249
1000.814	-1730
1000.890	-975
1000.967	-1304
1001.043	-1553
1001.120	-1014
1001.196	-646
1001.272	-1998
1001.349	-1061
1001.425	-1331
1001.501	-2026
1001.577	-1269
1001.654	-875
1001.730	-1474
1001.806	-1876
1001.882	-1771
1001.958	-722
1002.034	-1700
1002.110	-958
1002.186	-1441
1002.262	-1634
1002.338	-2391
1002.414	-117
1002.490	-1763
1002.566	-905
1002.642	-2260
1002.718	-1028
1002.794	-1826
1002.870	-749
1002.945	-1484
1003.021	-1610
1003.097	-1672
1003.173	-921
1003.248	-1791
1003.324	-891
1003.400	-1519
1003.475	-1102
1003.551	-827
1003.626	-1611
1003.702	-1501
1003.777	-1114
1003.853	-1130
1003.928	-1759
1004.004	-1338
1004.079	-649
1004.155	-996
1004.230	-2355
1004.305	-860
1004.381	-2400
1004.456	-1280
1004.531	-1066
1004.607	-1779
1004.682	-717
1004.757	-1152
1004.832	-1046
1004.907	-1372
1004.982	-1360
1005.057	-1491
1005.133	-1722
1005.208	-1555
1005.283	-1367
1005.358	-812
1005.433	-1312
1005.508	-956
1005.583	-1349
1005.657	-1129
1005.732	-614
1005.807	-1572
1005.882	-2324
1005.957	-1610
1006.032	-553
1006.106	-1500
1006.181	-689
1006.256	-1718
1006.331	-906
1006.405	-1329
1006.480	-578
1006.554	-1926
1006.629	-657
1006.704	-1178
1006.778	-1121
1006.853	-1450
1006.927	-1465
1007.002	-1845
1007.076	-2000
1007.150	-1884
1007.225	-996
1007.299	-1428
1007.373	-971
1007.448	-1528
1007.522	-1108
1007.596	-1583
1007.671	-1732
1007.745	-1819
1007.819	-1282
1007.893	-1898
1007.967	-1299
1008.041	-1191
1008.115	-1173
1008.190	-1489
1008.264	-1413
1008.338	-2375
1008.412	-888
1008.486	-1946
1008.560	-984
1008.633	-1881
1008.707	-1107
1008.781	-1152
1008.855	-1370
1008.929	-1787
1009.003	-1138
1009.076	-1809
1009.150	-737
1009.224	-847
1009.298	-409
1009.371	-1966
1009.445	-1548
1009.519	-1897
1009.592	-1069
1009.666	-1218
1009.739	-1528
1009.813	-1557
1009.886	-1461
1009.960	-1553
1010.033	-564
1010.107	-1366
1010.180	-1312
1010.253	-1152
1010.327	-1864
1010.400	-2117
1010.473	-1308
1010.547	-1257
1010.620	-1047
1010.693	-1620
1010.766	-1579
1010.840	-1766
1010.913	-1511
1010.986	-1922
1011.059	-1638
1011.132	-1411
1011.205	-1222
1011.278	-937
1011.351	-1600
1011.424	-1221
1011.497	-1504
1011.570	-1624
1011.643	-1486
1011.716	-2038
1011.789	-1584
1011.862	-1269
1011.934	-1391
1012.007	-2170
1012.080	-1559
1012.153	-1238
1012.225	-631
1012.298	-1549
1012.371	-1159
1012.443	-966
1012.516	-568
1012.588	-1250
1012.661	-1195
1012.733	-1899
1012.806	-725
1012.879	-1166
1012.951	-1202
1013.023	-1778
1013.096	-1118
1013.168	-1995
1013.241	-948
1013.313	-543
1013.385	-779
1013.458	-1292
1013.530	-548
1013.602	-1461
1013.674	-233
1013.746	-1934
1013.819	-644
1013.891	-1693
1013.963	-1042
1014.035	-1264
1014.107	-1362
1014.179	-1088
1014.251	-1296
1014.323	-1394
1014.395	-1272
1014.467	-1704
1014.539	-1006
1014.611	-1738
1014.683	-1265
1014.754	-1892
1014.826	-1157
1014.898	-1420
1014.970	-1299
1015.042	-189
1015.113	-1282
1015.185	-1375
1015.257	-1614
1015.328	-1071
1015.400	-942
1015.471	-843
1015.543	-2075
1015.615	-815
1015.686	-1406
1015.757	-1551
1015.829	-895
1015.901	-1317
1015.972	-871
1016.043	-723
1016.115	-667
1016.186	-1509
1016.257	-1420
1016.328	-447
1016.400	-1262
1016.471	-2132
1016.542	-1200
1016.613	-1693
1016.685	-1359
1016.756	-1581
1016.827	-834
1016.898	-1946
1016.969	-112
1017.040	-1954
1017.111	-1113
1017.182	-1670
1017.253	-950
1017.324	-1735
1017.395	-1557
1017.466	-472
1017.537	-1281
1017.608	-435
1017.678	-1115
1017.749	-411
1017.820	320
1017.891	-1535
1017.961	-1554
1018.032	-1167
1018.103	-888
1018.173	-930
1018.244	-414
1018.315	-1594
1018.385	-1200
1018.456	-1380
1018.526	-1270
1018.597	-1361
1018.667	-872
1018.738	-2157
1018.808	-1067
1018.878	-1641
1018.949	-1286
1019.019	-1261
1019.089	-1867
1019.160	-1267
1019.230	-1488
1019.300	-1105
1019.371	-1620
1019.441	-65
1019.511	-854
1019.581	-1266
1019.651	-1696
1019.721	-1879
1019.791	-1810
1019.861	-1661
1019.931	-793
1020.001	-1941
1020.071	-927
1020.141	-1226
1020.211	-1645
1020.281	-846
1020.351	-1165
1020.421	-702
1020.491	-884
1020.560	-1847
1020.630	-803
1020.700	-1226
1020.770	-1432
1020.839	-2033
1020.909	-1242
1020.979	-1038
1021.048	-1288
1021.118	-1477
1021.187	-1326
1021.257	-1168
1021.326	-853
1021.396	-1550
1021.465	-445
1021.535	-948
1021.604	-1571
1021.674	-1806
1021.743	-1021
1021.812	-1380
1021.882	-1156
1021.951	-734
1022.020	-1463
1022.089	-1093
1022.159	-1976
1022.228	-1197
1022.297	-1094
1022.366	-1957
1022.435	-1259
1022.504	-1195
1022.573	-1080
1022.642	-1094
1022.711	-1571
1022.781	-1937
1022.849	-849
1022.918	-1577
1022.987	-1340
1023.056	-982
1023.125	-1050
1023.194	-1794
1023.263	-860
1023.331	-1934
1023.400	-1243
1023.469	-1426
1023.538	-1256
1023.606	-1776
1023.675	-1649
1023.744	-1759
1023.812	-1150
1023.881	-1210
1023.949	-1277
1024.018	-1064
1024.086	-1570
1024.155	-1236
1024.223	-1501
1024.292	-1208
1024.360	-1250
1024.429	-1763
1024.497	-1900
1024.565	-1162
1024.634	-1132
1024.702	-1269
1024.770	-839
1024.838	-1981
1024.907	-1126
1024.975	-1995
1025.043	-497
1025.111	-1706
1025.179	-1394
1025.247	-1070
1025.315	-817
1025.383	-134
1025.451	-1435
1025.519	-1965
1025.587	-939
1025.655	-456
1025.723	-1768
1025.791	-1677
1025.859	-995
1025.927	-1523
1025.995	-1577
1026.062	-1019
1026.130	-1262
1026.198	-2072
1026.266	-1690
1026.333	-1624
1026.401	-1556
1026.469	-911
1026.536	-1537
1026.604	-1763
1026.671	-1690
1026.739	-1422
1026.806	-884
1026.874	-1387
1026.941	-1476
1027.009	-2045
1027.076	-1656
1027.144	-1084
1027.211	-1178
1027.278	-1829
1027.345	-1236
1027.413	-1008
1027.480	-1543
1027.547	-1461
1027.614	-2030
1027.682	-1130
1027.749	-1444
1027.816	-1211
1027.883	-1385
1027.950	-1436
1028.017	-804
1028.084	-1776
1028.151	-906
1028.218	-1356
1028.285	-1344
1028.352	-2064
1028.419	-2215
1028.486	-1694
1028.553	-562
1028.619	-1029
1028.686	-810
1028.753	-1664
1028.820	-1071
1028.886	-999
1028.953	-1337
1029.020	-1076
1029.086	-383
1029.153	-1332
1029.220	-1984
1029.286	-1436
1029.353	-930
1029.419	-1887
1029.486	-878
1029.552	-766
1029.619	-1301
1029.685	-2267
1029.751	-1305
1029.818	-1655
1029.884	-1592
1029.951	-481
1030.017	-2125
1030.083	-2043
1030.149	-775
1030.216	-1323
1030.282	-1863
1030.348	-1784
1030.414	-1682
1030.480	-1756
1030.546	-1793
1030.612	-1670
1030.678	-1599
1030.744	-1376
1030.810	-995
1030.876	-892
1030.942	-1267
1031.008	-2509
1031.074	-1327
1031.140	-1684
1031.206	-1194
1031.272	-2537
1031.337	-1398
1031.403	-2153
1031.469	-1807
1031.534	-1770
1031.600	-1479
1031.666	-1941
1031.731	-1941
1031.797	-1676
1031.863	-1036
1031.928	-1462
1031.994	-1426
1032.059	-1787
1032.125	-1714
1032.190	-2142
1032.256	-1784
1032.321	-1470
1032.386	-1092
1032.452	-1609
1032.517	-1468
1032.582	-1768
1032.647	-1628
1032.713	-1611
1032.778	-899
1032.843	-2306
1032.908	-867
1032.974	-2111
1033.039	-1911
1033.104	-1109
1033.169	-1824
1033.234	-2322
1033.299	-986
1033.364	-1790
1033.429	-1525
1033.494	-1310
1033.559	-1145
1033.624	-2085
1033.688	-1648
1033.753	-1475
1033.818	-1701
1033.883	-1860
1033.948	-1401
1034.013	-1759
1034.077	-1668
1034.142	-944
1034.207	-1094
1034.271	-1333
1034.336	-1637
1034.400	-2027
1034.465	-2330
1034.530	-1513
1034.594	-1826
1034.658	-1710
1034.723	-1818
1034.787	-1861
1034.852	-1686
1034.916	-1873
1034.981	-1418
1035.045	-1333
1035.109	-1949
1035.173	-841
1035.238	-2181
1035.302	-2021
1035.366	-1773
1035.430	-1011
1035.495	-1841
1035.559	-1180
1035.623	-1070
1035.687	-1840
1035.751	-1804
1035.815	-1804
1035.879	-1584
1035.943	-2099
1036.007	-1298
1036.071	-1863
1036.135	-1260
1036.198	-1524
1036.262	-1733
1036.326	-2132
1036.390	-1394
1036.454	-2266
1036.517	-1593
1036.581	-1438
1036.645	-1917
1036.709	-1885
1036.772	-957
1036.836	-1773
1036.900	-993
1036.963	-2904
1037.026	-1924
1037.090	-1960
1037.154	-1727
1037.217	-1697
1037.280	-1587
1037.344	-1716
1037.407	-2227
1037.471	-1890
1037.534	-1516
1037.597	-1813
1037.661	-1673
1037.724	-2001
1037.787	-2153
1037.850	-2074
1037.913	-1918
1037.977	-1973
1038.040	-1592
1038.103	-1845
1038.166	-1516
1038.229	-1291
1038.292	-1889
1038.355	-1612
1038.418	-1166
1038.481	-1366
1038.544	-1452
1038.607	-1798
1038.670	-780
1038.732	-1516
1038.795	-1697
1038.858	-2556
1038.921	-2093
1038.984	-1251
1039.046	-1716
1039.109	-2620
1039.172	-1475
1039.234	-1658
1039.297	-1352
1039.360	-1815
1039.422	-2319
1039.485	-1486
1039.547	-1872
1039.610	-2132
1039.672	-1397
1039.734	-2097
1039.797	-2014
1039.859	-2114
1039.922	-2481
1039.984	-1213
1040.046	-1197
1040.109	-2381
1040.171	-2060
1040.233	-1439
1040.295	-2094
1040.358	-1547
1040.420	-1367
1040.482	-1788
1040.544	-985
1040.606	-1995
1040.668	-1957
1040.730	-1773
1040.792	-2008
1040.854	-1723
1040.916	-2106
1040.978	-1434
1041.040	-1474
1041.102	-1672
1041.164	-1751
1041.225	-2032
1041.287	-1117
1041.349	-1586
1041.411	-1752
1041.472	-877
1041.534	-1402
1041.596	-2011
1041.657	-1610
1041.719	-1712
1041.781	-2279
1041.842	-2653
1041.904	-2209
1041.965	-1631
1042.027	-2114
1042.088	-2071
1042.150	-1624
1042.211	-1383
1042.272	-1168
1042.334	-1651
1042.395	-1704
1042.456	-2025
1042.518	-2160
1042.579	-1655
1042.640	-2092
1042.701	-1734
1042.763	-1825
1042.824	-2213
1042.885	-2119
1042.946	-2180
1043.007	-1354
1043.068	-1739
1043.129	-1913
1043.190	-2662
1043.251	-1696
1043.312	-2145
1043.373	-1492
1043.434	-2517
1043.495	-1584
1043.556	-998
1043.616	-1290
1043.677	-1600
1043.738	-1304
1043.799	-1662
1043.859	-1676
1043.920	-2112
1043.981	-1066
1044.041	-2093
1044.102	-1523
1044.162	-1664
1044.223	-2038
1044.284	-1092
1044.344	-2014
1044.405	-1079
1044.465	-1516
1044.525	-2221
1044.586	-1352
1044.646	-1969
1044.707	-1515
1044.767	-1244
1044.827	-2142
1044.887	-1903
1044.948	-1356
1045.008	-997
1045.068	-1939
1045.128	-1999
1045.188	-1153
1045.249	-1313
1045.309	-1489
1045.369	-1460
1045.429	-1162
1045.489	-1083
1045.549	-2300
1045.609	-1326
1045.669	-1375
1045.729	-1548
1045.789	-1959
1045.848	-1486
1045.908	-1262
1045.968	-1782
1046.028	-1273
1046.088	-1317
1046.147	-1722
1046.207	-1415
1046.267	-639
1046.326	-1202
1046.386	-403
1046.446	-2
1046.505	-739
1046.565	-457
1046.624	-835
1046.684	-962
1046.743	-918
1046.803	-727
1046.862	83
1046.922	0
