'Start Wavelength	183.907
'End Wavelength	1046.922
'Gate Delay	5.000
'Gate Width (ms)	1.050
'Laser Output Level	0.000
'X Position	0.000
'Y Position	0.000
'Z Position	0.000
'Grid Point Number	1.000
'Shot Number	100.000
183.907	354.000
183.977	-452.000
184.047	125
184.116	771
184.186	371
184.256	-476
184.325	-720
184.395	-636
184.465	211
184.534	-136
184.604	-726
184.674	-151
184.743	-481
184.813	-652
184.883	-70
184.952	694
185.022	23
185.092	281
185.161	32
185.231	-568
185.301	-50
185.370	630
185.440	-305
185.509	218
185.579	149
185.649	502
185.718	578
185.788	510
185.857	-358
185.927	248
185.996	442
186.066	281
186.136	-327
186.205	295
186.275	216
186.344	-731
186.414	-356
186.483	136
186.553	1000
186.622	136
186.692	155
186.761	-424
186.831	-290
186.900	-495
186.970	486
187.039	147
187.109	596
187.178	94
187.248	-31
187.317	1012
187.387	-429
187.456	341
187.526	-211
187.595	386
187.664	-294
187.734	374
187.803	-100
187.873	43
187.942	150
188.012	339
188.081	-100
188.150	-377
188.220	-258
188.289	-473
188.358	201
188.428	559
188.497	-241
188.567	-160
188.636	10
188.705	69
188.775	-259
188.844	37
188.913	-96
188.983	-763
189.052	396
189.121	20
189.191	62
189.260	-62
189.329	841
189.399	-44
189.468	245
189.537	-6
189.606	-24
189.676	-50
189.745	184
189.814	254
189.883	-31
189.953	642
190.022	93
190.091	838
190.161	1380
190.230	1005
190.299	522
190.368	-238
190.437	-48
190.507	-195
190.576	638
190.645	9
190.714	356
190.783	-645
190.853	628
190.922	-159
190.991	116
191.060	94
191.129	-193
191.198	-192
191.268	-95
191.337	-335
191.406	360
191.475	-149
191.544	102
191.613	168
191.682	-43
191.752	445
191.821	257
191.890	753
191.959	-126
192.028	-192
192.097	175
192.166	-408
192.235	-276
192.304	372
192.373	-12
192.442	-254
192.511	580
192.580	15
192.650	-393
192.719	211
192.788	468
192.857	-411
192.926	-607
192.995	237
193.064	1156
193.133	133
193.202	811
193.271	760
193.340	328
193.409	273
193.478	118
193.547	-136
193.615	633
193.684	1011
193.753	131
193.822	1056
193.891	395
193.960	603
194.029	7
194.098	350
194.167	-322
194.236	-118
194.305	-144
194.374	289
194.443	141
194.512	358
194.580	1120
194.649	-17
194.718	835
194.787	259
194.856	-644
194.925	273
194.994	-203
195.062	497
195.131	295
195.200	772
195.269	522
195.338	74
195.407	867
195.475	173
195.544	34
195.613	154
195.682	354
195.751	482
195.819	343
195.888	610
195.957	494
196.026	553
196.094	-132
196.163	109
196.232	572
196.301	484
196.369	714
196.438	451
196.507	-37
196.576	-1078
196.644	269
196.713	-510
196.782	-478
196.850	514
196.919	628
196.988	32
197.056	-683
197.125	742
197.194	794
197.262	615
197.331	-496
197.400	57
197.468	-423
197.537	113
197.606	13
197.674	794
197.743	948
197.812	265
197.880	1278
197.949	664
198.017	1656
198.086	79
198.155	247
198.223	456
198.292	989
198.360	406
198.429	85
198.497	349
198.566	1138
198.635	1245
198.703	967
198.772	449
198.840	2043
198.909	1894
198.977	447
199.046	916
199.114	699
199.183	708
199.251	966
199.320	77
199.388	291
199.457	-715
199.525	-180
199.594	338
199.662	-782
199.731	-105
199.799	573
199.867	92
199.936	318
200.004	-101
200.073	743
200.141	-67
200.210	-1
200.278	-24
200.346	835
200.415	-500
200.483	-261
200.552	322
200.620	766
200.688	-636
200.757	657
200.825	145
200.893	364
200.962	862
201.030	-164
201.098	-646
201.167	1122
201.235	10
201.303	398
201.372	333
201.440	114
201.508	-475
201.577	-340
201.645	400
201.713	-15
201.781	416
201.850	779
201.918	456
201.986	636
202.055	-488
202.123	483
202.191	-26
202.259	358
202.327	122
202.396	-5
202.464	-74
202.532	-22
202.600	1709
202.669	1103
202.737	275
202.805	17
202.873	-296
202.941	-229
203.009	486
203.078	-486
203.146	-55
203.214	173
203.282	-301
203.350	-396
203.418	-54
203.487	-211
203.555	242
203.623	-136
203.691	-51
203.759	165
203.827	352
203.895	-208
203.963	-485
204.031	-521
204.099	-131
204.168	326
204.236	732
204.304	-163
204.372	228
204.440	893
204.508	-750
204.576	-253
204.644	377
204.712	-412
204.780	288
204.848	180
204.916	6
204.984	303
205.052	447
205.120	-107
205.188	777
205.256	286
205.324	585
205.392	-438
205.460	-77
205.528	138
205.596	-12
205.664	204
205.732	346
205.799	1519
205.867	2655
205.935	46
206.003	308
206.071	740
206.139	683
206.207	297
206.275	280
206.343	330
206.411	15
206.478	340
206.546	102
206.614	18
206.682	-303
206.750	598
206.818	-77
206.885	98
206.953	-938
207.021	656
207.089	-79
207.157	-812
207.225	173
207.292	-560
207.360	798
207.428	-179
207.496	-338
207.563	-42
207.631	460
207.699	56
207.767	1059
207.834	-132
207.902	77
207.970	71
208.038	-131
208.105	-64
208.173	8
208.241	615
208.309	890
208.376	488
208.444	1269
208.512	264
208.579	-58
208.647	295
208.715	1276
208.782	132
208.850	107
208.918	939
208.985	-303
209.053	199
209.120	306
209.188	377
209.256	-80
209.323	-409
209.391	1248
209.459	1389
209.526	-222
209.594	18
209.661	132
209.729	435
209.796	-73
209.864	-159
209.932	-1041
209.999	1081
210.067	313
210.134	249
210.202	-1
210.269	669
210.337	1363
210.404	902
210.472	196
210.539	795
210.607	-42
210.674	427
210.742	-100
210.809	-4
210.877	892
210.944	896
211.012	172
211.079	1355
211.146	532
211.214	-14
211.281	228
211.349	-432
211.416	43
211.484	275
211.551	135
211.618	127
211.686	157
211.753	-489
211.821	983
211.888	-264
211.955	168
212.023	663
212.090	743
212.157	136
212.225	788
212.292	1041
212.359	2544
212.427	10505
212.494	3593
212.561	784
212.629	511
212.696	553
212.763	206
212.831	527
212.898	502
212.965	550
213.032	864
213.100	709
213.167	185
213.234	1237
213.301	397
213.369	1006
213.436	-490
213.503	821
213.570	198
213.638	397
213.705	-530
213.772	55
213.839	379
213.906	1276
213.973	801
214.041	-45
214.108	725
214.175	477
214.242	-221
214.309	-183
214.376	640
214.444	457
214.511	820
214.578	248
214.645	448
214.712	1018
214.779	237
214.846	-546
214.913	1118
214.980	1715
215.048	985
215.115	598
215.182	1346
215.249	32
215.316	-325
215.383	625
215.450	435
215.517	475
215.584	444
215.651	-323
215.718	-169
215.785	551
215.852	248
215.919	1193
215.986	346
216.053	-87
216.120	-42
216.187	-15
216.254	408
216.321	635
216.388	167
216.455	939
216.522	-128
216.589	865
216.656	1740
216.722	1842
216.789	780
216.856	946
216.923	916
216.990	1271
217.057	852
217.124	1185
217.191	541
217.258	1372
217.324	1880
217.391	2889
217.458	1470
217.525	984
217.592	1158
217.659	98
217.725	1164
217.792	1128
217.859	2045
217.926	-102
217.993	162
218.059	1227
218.126	232
218.193	411
218.260	-4
218.327	-121
218.393	-161
218.460	314
218.527	-57
218.594	230
218.660	1607
218.727	2357
218.794	-468
218.860	693
218.927	531
218.994	-183
219.061	-186
219.127	123
219.194	1119
219.261	867
219.327	436
219.394	-111
219.461	-629
219.527	849
219.594	357
219.661	402
219.727	-654
219.794	962
219.860	-471
219.927	571
219.994	631
220.060	1688
220.127	1020
220.193	377
220.260	1001
220.326	1653
220.393	2131
220.460	4176
220.526	2712
220.593	655
220.659	1817
220.726	840
220.792	4506
220.859	2973
220.925	4379
220.992	8536
221.058	7481
221.125	7092
221.191	4788
221.258	1238
221.324	934
221.391	1004
221.457	1150
221.524	356
221.590	1450
221.657	6825
221.723	3198
221.789	3470
221.856	3209
221.922	552
221.989	530
222.055	57
222.121	-582
222.188	1551
222.254	-150
222.321	-617
222.387	-500
222.453	363
222.520	-467
222.586	-638
222.652	-231
222.719	-40
222.785	-177
222.851	163
222.918	-17
222.984	-609
223.050	-551
223.116	-752
223.183	1461
223.249	-605
223.315	-285
223.382	97
223.448	193
223.514	-353
223.580	443
223.647	-446
223.713	-58
223.779	-584
223.845	-88
223.911	584
223.978	-769
224.044	201
224.110	-815
224.176	922
224.242	-266
224.309	-889
224.375	374
224.441	287
224.507	323
224.573	-476
224.639	193
224.705	73
224.772	-174
224.838	79
224.904	255
224.970	-461
225.036	95
225.102	-982
225.168	-206
225.234	990
225.300	-213
225.366	611
225.432	-134
225.499	-168
225.565	86
225.631	114
225.697	-62
225.763	233
225.829	313
225.895	746
225.961	1019
226.027	247
226.093	929
226.159	1511
226.225	1327
226.291	4503
226.357	10481
226.423	4640
226.489	1397
226.554	1062
226.620	570
226.686	1194
226.752	1462
226.818	3930
226.884	14089
226.950	12978
227.016	2834
227.082	1495
227.148	757
227.214	1326
227.279	536
227.345	1095
227.411	-273
227.477	363
227.543	10
227.609	373
227.674	1271
227.740	-681
227.806	171
227.872	-514
227.938	-223
228.003	478
228.069	99
228.135	-344
228.201	-47
228.267	-145
228.332	32
228.398	-567
228.464	23
228.530	-425
228.595	230
228.661	-497
228.727	248
228.792	1203
228.858	-184
228.924	-1872
228.990	1908
229.055	-807
229.121	699
229.187	550
229.252	-507
229.318	6
229.384	737
229.449	826
229.515	-1036
229.581	-320
229.646	1462
229.712	-135
229.777	1291
229.843	1519
229.909	581
229.974	948
230.040	-214
230.105	353
230.171	-450
230.236	1476
230.302	1650
230.368	827
230.433	110
230.499	664
230.564	1110
230.630	-553
230.695	-985
230.761	914
230.826	-800
230.892	1626
230.957	-79
231.023	58
231.088	-195
231.154	22
231.219	882
231.284	380
231.350	823
231.415	-294
231.481	-468
231.546	473
231.612	261
231.677	-429
231.742	-1384
231.808	462
231.873	-527
231.939	-1239
232.004	1172
232.069	1144
232.135	-884
232.200	-111
232.265	-374
232.331	-642
232.396	-772
232.461	-95
232.527	-544
232.592	-800
232.657	321
232.723	1330
232.788	800
232.853	969
232.918	-231
232.984	-799
233.049	-636
233.114	382
233.179	810
233.245	2256
233.310	2771
233.375	-282
233.440	657
233.506	6
233.571	-738
233.636	450
233.701	-643
233.766	931
233.832	2646
233.897	-106
233.962	-359
234.027	1593
234.092	-99
234.157	479
234.222	-747
234.288	1439
234.353	6132
234.418	5466
234.483	2112
234.548	1618
234.613	252
234.678	1161
234.743	32
234.808	7453
234.873	3056
234.938	1134
235.004	85
235.069	48
235.134	-376
235.199	406
235.264	599
235.329	-696
235.394	801
235.459	1354
235.524	-112
235.589	961
235.654	-59
235.719	-1235
235.784	1590
235.849	92
235.913	3144
235.978	3579
236.043	3059
236.108	732
236.173	725
236.238	1536
236.303	-316
236.368	537
236.433	2417
236.498	4315
236.563	1555
236.627	3014
236.692	18686
236.757	12983
236.822	3700
236.887	2560
236.952	1945
237.017	793
237.081	2546
237.146	2116
237.211	6226
237.276	16684
237.341	34092
237.405	11982
237.470	4172
237.535	2621
237.600	1667
237.664	1858
237.729	769
237.794	1325
237.859	4180
237.923	3148
237.988	927
238.053	2998
238.118	2364
238.182	9675
238.247	9761
238.312	1857
238.376	1727
238.441	608
238.506	1561
238.570	-1338
238.635	2072
238.700	147
238.764	179
238.829	3649
238.893	4137
238.958	1752
239.023	342
239.087	-249
239.152	1225
239.216	-237
239.281	187
239.346	590
239.410	105
239.475	331
239.539	8997
239.604	6255
239.668	1254
239.733	112
239.797	239
239.862	1024
239.926	5741
239.991	2274
240.055	385
240.120	589
240.184	292
240.249	-288
240.313	43
240.378	1240
240.442	3842
240.507	9933
240.571	1576
240.635	3110
240.700	4025
240.764	546
240.829	377
240.893	-517
240.957	904
241.022	4775
241.086	10020
241.151	3234
241.215	-471
241.279	1713
241.344	3980
241.408	1316
241.472	-244
241.537	1293
241.601	749
241.665	-510
241.730	-285
241.794	1247
241.858	-101
241.922	455
241.987	-119
242.051	-413
242.115	-1089
242.179	367
242.244	-778
242.308	315
242.372	245
242.436	113
242.501	348
242.565	-829
242.629	-693
242.693	874
242.757	-367
242.822	878
242.886	534
242.950	1242
243.014	-490
243.078	131
243.142	-481
243.206	333
243.271	592
243.335	-21
243.399	1973
243.463	7557
243.527	26837
243.591	7239
243.655	1904
243.719	205
243.783	1873
243.847	2528
243.911	2370
243.975	2679
244.040	183
244.104	2313
244.168	-177
244.232	918
244.296	1571
244.360	2462
244.424	147
244.488	138
244.552	724
244.615	-1082
244.679	648
244.743	-311
244.807	663
244.871	384
244.935	519
244.999	-885
245.063	-82
245.127	1319
245.191	729
245.255	1635
245.319	430
245.383	-519
245.446	850
245.510	-108
245.574	197
245.638	958
245.702	-649
245.766	3236
245.829	1970
245.893	-460
245.957	105
246.021	996
246.085	35
246.149	1094
246.212	4958
246.276	8327
246.340	1531
246.404	1537
246.467	1767
246.531	971
246.595	1605
246.659	2536
246.722	-238
246.786	903
246.850	1312
246.913	2223
246.977	-477
247.041	547
247.104	1024
247.168	596
247.232	3379
247.295	11350
247.359	4750
247.423	889
247.486	2352
247.550	1814
247.614	203
247.677	2093
247.741	604
247.804	400
247.868	1067
247.932	2679
247.995	11035
248.059	2364
248.122	-24
248.186	2651
248.249	3115
248.313	16886
248.376	16707
248.440	10240
248.503	1716
248.567	2998
248.630	2673
248.694	4777
248.757	6685
248.821	19435
248.884	9587
248.948	7789
249.011	13455
249.075	22706
249.138	18685
249.202	4668
249.265	2071
249.328	5408
249.392	2298
249.455	2358
249.519	822
249.582	1571
249.645	2872
249.709	2673
249.772	1635
249.835	2060
249.899	2029
249.962	2364
250.025	1296
250.089	5804
250.152	9116
250.215	3017
250.279	1285
250.342	2231
250.405	2559
250.468	1394
250.532	2789
250.595	5562
250.658	24434
250.721	43648
250.785	10585
250.848	6330
250.911	2689
250.974	2826
251.038	5061
251.101	12144
251.164	4789
251.227	4835
251.290	4401
251.354	7040
251.417	37909
251.480	34024
251.543	18603
251.606	71700
251.669	46662
251.732	14124
251.795	14567
251.859	15154
251.922	43015
251.985	20946
252.048	7939
252.111	4956
252.174	3756
252.237	9253
252.300	23110
252.363	22474
252.426	57846
252.489	20144
252.552	9362
252.615	4889
252.678	6994
252.741	17108
252.804	22339
252.867	57076
252.930	29030
252.993	14478
253.056	6055
253.119	3956
253.182	2372
253.245	7239
253.308	4920
253.371	4262
253.434	3866
253.497	4402
253.559	10409
253.622	5805
253.685	5835
253.748	5625
253.811	2234
253.874	5223
253.937	3771
254.000	2344
254.062	5967
254.125	10509
254.188	7051
254.251	4765
254.314	2465
254.376	4528
254.439	5580
254.502	4199
254.565	5625
254.628	12265
254.690	4161
254.753	2363
254.816	1706
254.878	2499
254.941	7876
255.004	7452
255.067	2062
255.129	1453
255.192	850
255.255	-93
255.317	693
255.380	537
255.443	-111
255.505	241
255.568	-306
255.631	579
255.693	241
255.756	-962
255.819	574
255.881	83
255.944	28
256.006	-300
256.069	311
256.132	437
256.194	1206
256.257	7619
256.319	4704
256.382	2611
256.444	1170
256.507	858
256.569	669
256.632	70
256.694	1183
256.757	8860
256.819	26783
256.882	7747
256.944	2306
257.007	2805
257.069	1435
257.132	507
257.194	1418
257.257	639
257.319	457
257.381	1335
257.444	5911
257.506	32560
257.569	31639
257.631	14395
257.693	6238
257.756	1748
257.818	2038
257.880	819
257.943	1649
258.005	-75
258.067	38
258.130	722
258.192	1496
258.254	3499
258.317	2143
258.379	1407
258.441	4271
258.503	5200
258.566	8592
258.628	13295
258.690	1705
258.753	1874
258.815	3021
258.877	558
258.939	573
259.001	1443
259.064	177
259.126	1336
259.188	3074
259.250	1700
259.312	1946
259.375	7404
259.437	3560
259.499	582
259.561	4
259.623	588
259.685	-388
259.747	608
259.809	8619
259.872	16770
259.934	25542
259.996	19453
260.058	3742
260.120	1003
260.182	943
260.244	1066
260.306	-344
260.368	687
260.430	-4
260.492	2028
260.554	6900
260.616	4974
260.678	10283
260.740	17499
260.802	2725
260.864	1887
260.926	-207
260.988	997
261.050	161
261.112	2741
261.174	15648
261.236	13757
261.298	2261
261.359	6329
261.421	10541
261.483	942
261.545	2005
261.607	-559
261.669	196
261.731	4047
261.793	10101
261.854	1525
261.916	1256
261.978	357
262.040	108
262.102	1322
262.164	1992
262.225	2347
262.287	159
262.349	3347
262.411	1955
262.472	1093
262.534	3292
262.596	11445
262.658	2321
262.719	542
262.781	2043
262.843	9506
262.904	3921
262.966	1997
263.028	2189
263.090	18255
263.151	46835
263.213	11758
263.275	3772
263.336	1529
263.398	1222
263.459	-345
263.521	-356
263.583	2806
263.644	1712
263.706	30
263.767	-693
263.829	231
263.891	-654
263.952	-317
264.014	-371
264.075	-455
264.137	1661
264.198	1132
264.260	-1124
264.321	-167
264.383	882
264.444	4825
264.506	377
264.567	478
264.629	2254
264.690	1371
264.752	1475
264.813	578
264.875	-472
264.936	459
264.998	-1162
265.059	-1163
265.120	58
265.182	548
265.243	11973
265.305	10035
265.366	2017
265.427	554
265.489	-229
265.550	-490
265.611	456
265.673	241
265.734	-811
265.795	1398
265.857	-353
265.918	-347
265.979	2672
266.040	22443
266.102	14546
266.163	3223
266.224	1634
266.286	119
266.347	-411
266.408	54
266.469	456
266.530	-101
266.592	-501
266.653	938
266.714	2166
266.775	182
266.836	661
266.898	-562
266.959	-95
267.020	187
267.081	46
267.142	-869
267.203	-515
267.264	-1015
267.326	903
267.387	-723
267.448	-1256
267.509	-550
267.570	-930
267.631	-214
267.692	-425
267.753	-471
267.814	-700
267.875	1245
267.936	3566
267.997	705
268.058	-22
268.119	-950
268.180	480
268.241	-1329
268.302	-398
268.363	-823
268.424	-461
268.485	-179
268.546	-353
268.607	-738
268.668	-927
268.729	-333
268.790	-820
268.851	-38
268.912	1094
268.972	2431
269.033	-70
269.094	-1196
269.155	-1
269.216	-119
269.277	-290
269.338	-614
269.398	-496
269.459	-987
269.520	50
269.581	522
269.642	455
269.702	-256
269.763	-49
269.824	-530
269.885	-147
269.945	1932
270.006	629
270.067	-349
270.128	-773
270.188	-908
270.249	-760
270.310	-1344
270.370	-711
270.431	-201
270.492	-973
270.553	-24
270.613	1143
270.674	3774
270.734	128
270.795	572
270.856	169
270.916	-13
270.977	543
271.038	123
271.098	-518
271.159	1484
271.219	340
271.280	128
271.340	-72
271.401	-413
271.462	3606
271.522	1414
271.583	-32
271.643	1170
271.704	312
271.764	548
271.825	2224
271.885	14506
271.946	23479
272.006	5112
272.066	8873
272.127	20270
272.187	3442
272.248	1546
272.308	922
272.369	12931
272.429	5780
272.489	2490
272.550	2406
272.610	2143
272.671	955
272.731	2586
272.791	5255
272.852	1757
272.912	1210
272.972	79
273.033	223
273.093	1797
273.153	1123
273.214	1147
273.274	530
273.334	6759
273.394	15780
273.455	4030
273.515	4029
273.575	11694
273.635	3983
273.696	7064
273.756	17991
273.816	4997
273.876	2588
273.936	9398
273.997	17746
274.057	3817
274.117	1459
274.177	2989
274.237	19421
274.297	19871
274.358	13135
274.418	12186
274.478	7863
274.538	2283
274.598	1548
274.658	14971
274.718	19656
274.778	6569
274.838	3197
274.898	6627
274.958	27658
275.018	21064
275.078	10386
275.138	4145
275.198	813
275.258	644
275.318	1212
275.378	2814
275.438	2826
275.498	2150
275.558	10971
275.618	24623
275.678	10689
275.738	4930
275.798	3023
275.858	973
275.918	583
275.978	301
276.038	268
276.098	412
276.157	1701
276.217	7722
276.277	2376
276.337	984
276.397	228
276.457	674
276.517	-80
276.576	919
276.636	-434
276.696	1430
276.756	4449
276.815	2767
276.875	1142
276.935	482
276.995	270
277.055	-818
277.114	333
277.174	851
277.234	6256
277.293	2493
277.353	1030
277.413	212
277.472	409
277.532	-99
277.592	1133
277.651	3276
277.711	8401
277.771	2275
277.830	10027
277.890	7682
277.950	5187
278.009	22959
278.069	6725
278.128	5344
278.188	7319
278.248	1720
278.307	7600
278.367	5159
278.426	938
278.486	1214
278.545	411
278.605	235
278.664	870
278.724	-373
278.783	5729
278.843	19164
278.902	4208
278.962	1916
279.021	821
279.081	2505
279.140	2102
279.199	1662
279.259	1581
279.318	1839
279.378	3014
279.437	6648
279.496	27387
279.556	89048
279.615	68943
279.675	14169
279.734	7797
279.793	10857
279.853	22119
279.912	7242
279.971	3833
280.031	3629
280.090	7645
280.149	15277
280.208	9490
280.268	59408
280.327	63628
280.386	11516
280.445	7211
280.505	6296
280.564	2639
280.623	1406
280.682	2727
280.742	5984
280.801	1849
280.860	537
280.919	396
280.978	615
281.037	724
281.097	-239
281.156	857
281.215	692
281.274	779
281.333	9975
281.392	7524
281.451	1175
281.510	382
281.569	-506
281.628	-660
281.688	333
281.747	606
281.806	-41
281.865	280
281.924	-588
281.983	-452
282.042	-340
282.101	-606
282.160	845
282.219	-363
282.278	-207
282.337	3290
282.396	2248
282.454	619
282.513	509
282.572	5209
282.631	2735
282.690	-411
282.749	-243
282.808	580
282.867	441
282.926	236
282.985	192
283.043	-863
283.102	-576
283.161	-316
283.220	2791
283.279	8466
283.338	1827
283.396	23
283.455	860
283.514	204
283.573	932
283.631	1094
283.690	322
283.749	-467
283.808	1334
283.866	1600
283.925	-329
283.984	839
284.043	743
284.101	78
284.160	301
284.219	642
284.277	-137
284.336	1117
284.395	8495
284.453	7559
284.512	1717
284.570	2399
284.629	1072
284.688	505
284.746	1065
284.805	730
284.863	1704
284.922	3023
284.981	3285
285.039	4296
285.098	8513
285.156	25771
285.215	112129
285.273	104282
285.332	30686
285.390	13414
285.449	7641
285.507	4356
285.566	3482
285.624	2563
285.683	2410
285.741	1183
285.799	1005
285.858	615
285.916	464
285.975	205
286.033	-317
286.091	-13
286.150	-194
286.208	331
286.267	-68
286.325	1141
286.383	537
286.442	567
286.500	-486
286.558	-376
286.616	366
286.675	552
286.733	290
286.791	-235
286.850	-63
286.908	1313
286.966	2803
287.024	86
287.083	-73
287.141	64
287.199	-252
287.257	985
287.315	763
287.374	714
287.432	3150
287.490	1777
287.548	768
287.606	288
287.664	85
287.723	950
287.781	2694
287.839	1610
287.897	2716
287.955	3269
288.013	5591
288.071	10786
288.129	53552
288.187	175602
288.245	72293
288.303	19380
288.361	10921
288.419	7026
288.477	4073
288.535	2389
288.593	1538
288.651	1857
288.709	1002
288.767	637
288.825	391
288.883	-37
288.941	-637
288.999	-143
289.057	-17
289.115	-536
289.173	143
289.231	-268
289.289	744
289.346	169
289.404	690
289.462	1222
289.520	1284
289.578	5
289.636	-366
289.694	-430
289.751	-642
289.809	-459
289.867	-413
289.925	723
289.983	914
290.040	-274
290.098	-175
290.156	-470
290.214	213
290.271	-1221
290.329	-7
290.387	-1268
290.444	-113
290.502	-600
290.560	-711
290.617	-941
290.675	-17
290.733	-703
290.790	558
290.848	-46
290.906	-843
290.963	-511
291.021	160
291.078	-82
291.136	-280
291.194	2872
291.251	6882
291.309	2156
291.366	-631
291.424	-957
291.481	-152
291.539	-579
291.596	-50
291.654	-1018
291.711	-1259
291.769	142
291.826	1244
291.884	155
291.941	-322
291.999	-383
292.056	90
292.114	-220
292.171	209
292.228	-362
292.286	249
292.343	434
292.401	2638
292.458	273
292.515	319
292.573	-121
292.630	88
292.687	1644
292.745	-205
292.802	721
292.859	3124
292.917	9197
292.974	4795
293.031	687
293.089	-733
293.146	165
293.203	-155
293.260	124
293.318	152
293.375	587
293.432	-667
293.489	-39
293.546	60
293.604	590
293.661	7225
293.718	21969
293.775	9778
293.832	2942
293.889	1184
293.947	2706
294.004	1221
294.061	932
294.118	2551
294.175	7231
294.232	8003
294.289	2800
294.346	159
294.403	271
294.460	1497
294.517	-178
294.574	356
294.631	331
294.688	940
294.745	4408
294.802	23284
294.859	20136
294.916	7473
294.973	4408
295.030	2917
295.087	1640
295.144	1598
295.201	1097
295.258	534
295.315	1291
295.372	7990
295.429	18905
295.486	7274
295.542	1664
295.599	5775
295.656	10463
295.713	7736
295.770	13406
295.827	5574
295.883	2629
295.940	991
295.997	1975
296.054	2686
296.111	1261
296.167	810
296.224	-155
296.281	204
296.338	-494
296.394	487
296.451	955
296.508	4849
296.564	10768
296.621	6614
296.678	18770
296.734	30282
296.791	8953
296.848	3735
296.904	2930
296.961	7803
297.018	17516
297.074	13290
297.131	4010
297.187	3252
297.244	4238
297.301	20318
297.357	41397
297.414	13144
297.470	4602
297.527	1932
297.583	1485
297.640	823
297.696	464
297.753	568
297.809	162
297.866	-274
297.922	142
297.979	683
298.035	-106
298.092	2198
298.148	8487
298.204	9757
298.261	4498
298.317	7601
298.374	25274
298.430	15433
298.486	6055
298.543	4025
298.599	2392
298.656	2779
298.712	4719
298.768	16974
298.824	13914
298.881	3410
298.937	1385
298.993	692
299.050	1282
299.106	1435
299.162	535
299.218	900
299.275	973
299.331	1845
299.387	4311
299.443	22308
299.500	21869
299.556	6545
299.612	1958
299.668	1650
299.724	787
299.780	1516
299.837	728
299.893	2861
299.949	13205
300.005	16119
300.061	14576
300.117	29648
300.173	14574
300.229	4587
300.285	4641
300.341	5783
300.397	1960
300.453	883
300.510	-373
300.566	1273
300.622	1132
300.678	1980
300.734	8031
300.790	13123
300.845	21095
300.901	10398
300.957	11493
301.013	9939
301.069	2675
301.125	1803
301.181	1744
301.237	724
301.293	326
301.349	888
301.405	220
301.461	12
301.516	-372
301.572	828
301.628	2032
301.684	2927
301.740	5183
301.796	9226
301.851	6150
301.907	10116
301.963	10793
302.019	20046
302.074	67070
302.130	67272
302.186	27443
302.242	10423
302.297	5646
302.353	5557
302.409	9788
302.464	8530
302.520	6068
302.576	19247
302.631	23369
302.687	11465
302.743	4305
302.798	2501
302.854	965
302.910	1638
302.965	2270
303.021	3949
303.076	4564
303.132	5118
303.187	5726
303.243	2559
303.299	897
303.354	966
303.410	410
303.465	22
303.521	1413
303.576	1101
303.632	1008
303.687	4711
303.743	20346
303.798	17662
303.853	6428
303.909	2820
303.964	917
304.020	2567
304.075	4389
304.130	3606
304.186	7468
304.241	8451
304.297	5955
304.352	3745
304.358	3430
304.407	871
304.449	901
304.463	915
304.518	460
304.539	959
304.573	1739
304.629	984
304.630	1039
304.684	3686
304.720	10586
304.739	14002
304.794	23785
304.811	19902
304.850	10782
304.902	4801
304.905	4415
304.960	1871
304.992	1933
305.015	1978
305.071	1834
305.083	1726
305.126	1368
305.173	816
305.181	728
305.236	726
305.264	819
305.292	861
305.347	951
305.354	983
305.402	1361
305.445	1582
305.457	1569
305.512	1941
305.535	1923
305.567	2114
305.622	2464
305.626	2612
305.678	5677
305.716	15392
305.733	19047
305.788	21378
305.807	18230
305.843	13211
305.897	19859
305.898	19926
305.953	20346
305.988	13131
306.008	9195
306.063	3559
306.078	3157
306.118	2519
306.168	1537
306.173	1410
306.228	1336
306.259	828
306.283	640
306.338	1026
306.349	1095
306.393	986
306.440	1318
306.448	1479
306.503	1567
306.530	2113
306.558	2846
306.613	6398
306.620	6917
306.668	10387
306.711	14317
306.723	14844
306.778	11786
306.801	8959
306.833	5921
306.888	2544
306.892	2454
306.943	1611
306.982	1296
306.997	1139
307.052	1033
307.072	1034
307.107	1283
307.162	2462
307.163	2480
307.217	4238
307.253	5094
307.272	5226
307.327	5101
307.343	4528
307.381	3527
307.434	3035
307.436	3103
307.491	6776
307.524	11360
307.546	13004
307.600	12280
307.614	10707
307.655	6366
307.704	3501
307.710	3365
307.765	4146
307.795	5375
307.819	6197
307.874	10833
307.885	10614
307.929	8554
307.975	6984
307.984	7006
308.038	8527
308.065	10594
308.093	19732
308.148	45959
308.156	53475
308.202	86687
308.246	102218
308.257	101332
308.312	52609
308.336	35654
308.366	24201
308.421	14475
308.426	13789
308.475	8620
308.517	5860
308.530	5050
308.585	3864
308.607	3660
308.639	3981
308.694	4748
308.697	4839
308.748	8053
308.787	12817
308.803	13368
308.857	10341
308.877	8812
308.912	6971
308.967	5528
308.967	5538
309.021	7881
309.058	10363
309.076	13120
309.130	23377
309.148	28359
309.185	61320
309.238	125638
309.239	125814
309.293	137943
309.328	112380
309.348	94863
309.402	41085
309.418	29580
309.457	18601
309.508	11117
309.511	10759
309.566	8315
309.598	7840
309.620	7844
309.674	9007
309.688	9490
309.729	9078
309.778	7014
309.783	6851
309.837	5099
309.868	4464
309.892	5529
309.946	9244
309.959	10677
310.001	13904
310.049	15892
310.055	15475
310.109	9524
310.139	5919
310.163	4441
310.218	2517
310.229	2259
310.272	2058
310.319	2170
310.326	2033
310.381	1246
310.409	765
310.435	891
310.489	1338
310.499	1395
310.543	1176
310.589	1091
310.598	1127
310.652	1394
310.679	1445
310.706	1205
310.760	745
310.769	695
310.814	918
310.859	974
310.868	842
310.923	275
310.948	4
310.977	504
311.031	1326
311.038	1485
311.085	1192
311.128	642
311.139	687
311.193	1080
311.218	1217
311.247	1168
311.301	1005
311.308	988
311.356	1094
311.398	1253
311.410	1212
311.464	934
311.488	788
311.518	740
311.572	735
311.578	729
311.626	1113
311.668	1488
311.680	1528
311.734	1617
311.758	1660
311.788	1215
311.842	439
311.847	358
311.896	1649
311.937	2820
311.950	2691
312.004	2092
312.027	1814
312.058	1623
312.112	1311
312.117	1283
312.165	1014
312.207	795
312.297	779
312.386	749
312.476	1854
312.566	1865
312.656	2409
312.745	95
312.835	631
312.925	382
313.015	840
313.104	870
313.194	1203
313.284	327
313.374	1365
313.463	854
313.553	1138
313.643	-199
313.732	991
313.822	501
313.912	1377
314.001	1242
314.091	1323
314.180	1236
314.270	1943
314.360	1244
314.449	1520
314.539	1107
314.628	657
314.718	568
314.808	1619
314.897	670
314.987	1388
315.076	1082
315.166	1536
315.255	988
315.345	1190
315.434	1248
315.524	2004
315.613	921
315.703	1814
315.792	1046
315.881	2251
315.971	530
316.060	3515
316.150	4656
316.239	4844
316.328	762
316.418	1239
316.507	135
316.597	1960
316.686	749
316.775	3421
316.865	6518
316.954	1307
317.043	460
317.133	1231
317.222	267
317.311	1313
317.400	-1051
317.490	2305
317.579	908
317.668	1323
317.757	689
317.847	2459
317.936	2061
318.025	3376
318.114	654
318.203	1279
318.293	1356
318.382	3902
318.471	2766
318.560	6017
318.649	11517
318.738	1641
318.828	1725
318.917	2069
319.006	2040
319.095	6548
319.184	15791
319.273	6806
319.362	2337
319.451	669
319.540	1500
319.629	3933
319.718	4485
319.807	2742
319.896	4973
319.985	21778
320.074	4848
320.163	1915
320.252	3379
320.341	2979
320.430	922
320.519	2404
320.608	1474
320.697	1190
320.786	-55
320.875	1887
320.964	1670
321.053	3790
321.142	4243
321.230	5149
321.319	2662
321.408	8607
321.497	2663
321.586	4799
321.675	5733
321.764	4643
321.852	2315
321.941	5910
322.030	2631
322.119	4149
322.207	9718
322.296	7442
322.385	2206
322.474	3636
322.562	9838
322.651	4147
322.740	3544
322.829	6362
322.917	6137
323.006	2804
323.095	2177
323.183	2440
323.272	3419
323.361	9855
323.449	27791
323.538	7850
323.626	18993
323.715	9303
323.804	4671
323.892	16618
323.981	5867
324.069	3509
324.158	9815
324.246	7180
324.335	2298
324.424	3921
324.512	819
324.601	1104
324.689	1685
324.778	4139
324.866	3867
324.954	2107
325.043	618
325.131	3128
325.220	6818
325.308	6423
325.397	5352
325.485	2646
325.574	-101
325.662	1565
325.750	794
325.839	1850
325.927	47
326.015	1303
326.104	2124
326.192	3354
326.280	554
326.369	1287
326.457	1440
326.545	2703
326.634	477
326.722	613
326.810	962
326.898	861
326.987	1078
327.075	2302
327.163	2470
327.251	1262
327.340	843
327.428	1685
327.516	375
327.604	786
327.692	371
327.781	1462
327.869	2373
327.957	2068
328.045	1491
328.133	1146
328.221	992
328.309	1110
328.397	895
328.485	2336
328.574	1279
328.662	6218
328.750	2464
328.838	1573
328.926	888
329.014	727
329.102	728
329.190	3635
329.278	1756
329.366	674
329.454	-496
329.542	730
329.630	-891
329.718	96
329.806	464
329.893	1616
329.981	110
330.069	1164
330.157	2145
330.245	7256
330.333	2550
330.421	905
330.509	2106
330.597	7152
330.684	2915
330.772	2449
330.860	2115
330.948	2484
331.036	440
331.123	920
331.211	328
331.299	219
331.387	2190
331.475	3793
331.562	714
331.650	621
331.738	1057
331.825	2426
331.913	175
332.001	641
332.089	974
332.176	3521
332.264	8891
332.352	4621
332.439	853
332.527	465
332.614	981
332.702	1534
332.790	666
332.877	3776
332.965	6070
333.052	976
333.140	597
333.228	3044
333.315	499
333.403	1062
333.490	3986
333.578	2140
333.665	1687
333.753	1423
333.840	35
333.928	1855
334.015	5161
334.103	8767
334.190	22581
334.278	3902
334.365	1387
334.452	1987
334.540	809
334.627	1636
334.715	1406
334.802	6322
334.889	36457
334.977	26583
335.064	2048
335.151	1401
335.239	1208
335.326	2388
335.413	11809
335.501	12558
335.588	806
335.675	1624
335.762	972
335.850	2529
335.937	901
336.024	7961
336.111	31001
336.199	7732
336.286	285
336.373	769
336.460	-752
336.547	1292
336.635	592
336.722	980
336.809	516
336.896	1606
336.983	5169
337.070	15383
337.157	23152
337.245	21959
337.332	12187
337.419	1405
337.506	893
337.593	1204
337.680	4673
337.767	11962
337.854	2424
337.941	4234
338.028	4847
338.115	1660
338.202	2317
338.289	6555
338.376	20465
338.463	5110
338.550	6776
338.637	7069
338.724	3751
338.811	5361
338.898	1010
338.984	902
339.071	75
339.158	1619
339.245	3185
339.332	2428
339.419	3923
339.506	3618
339.593	-877
339.679	412
339.766	77
339.853	1728
339.940	1908
340.027	821
340.113	-146
340.200	1367
340.287	794
340.374	1748
340.460	994
340.547	-189
340.634	1842
340.720	7266
340.807	2388
340.894	844
340.980	321
341.067	614
341.154	866
341.240	1548
341.327	2361
341.414	1530
341.500	-120
341.587	1742
341.674	1006
341.760	2314
341.847	1789
341.933	1217
342.020	-77
342.106	812
342.193	808
342.279	1435
342.366	1192
342.452	2072
342.539	-121
342.625	2843
342.712	6358
342.798	3105
342.885	350
342.971	707
343.058	-239
343.144	672
343.230	326
343.317	819
343.403	-229
343.490	974
343.576	621
343.662	1081
343.749	568
343.835	1330
343.921	3050
344.008	30384
344.094	54366
344.180	9097
344.267	2299
344.353	13069
344.439	9677
344.525	3320
344.612	2075
344.698	1167
344.784	450
344.870	1274
344.957	-65
345.043	1407
345.129	174
345.215	1947
345.301	708
345.387	185
345.474	-313
345.560	1123
345.646	-339
345.732	1006
345.818	82
345.904	661
345.990	45
346.076	1224
346.162	1042
346.249	1888
346.335	-523
346.421	1030
346.507	4691
346.593	17387
346.679	1513
346.765	1192
346.851	141
346.937	328
347.023	373
347.108	473
347.194	-50
347.280	1186
347.366	527
347.452	5934
347.538	22085
347.624	14550
347.710	9362
347.796	1561
347.882	346
347.967	793
348.053	602
348.139	242
348.225	-528
348.311	113
348.397	680
348.482	949
348.568	456
348.654	130
348.740	-525
348.825	-818
348.911	2452
348.997	11959
349.083	19059
349.168	2484
349.254	359
349.340	1031
349.425	-34
349.511	1390
349.597	467
349.682	2729
349.768	9223
349.854	3658
349.939	732
350.025	-93
350.110	-646
350.196	40
350.282	-289
350.367	1042
350.453	872
350.538	367
350.624	331
350.709	1559
350.795	-1
350.880	209
350.966	1166
351.051	1897
351.137	385
351.222	1167
351.308	2625
351.393	6374
351.479	415
351.564	274
351.649	416
351.735	538
351.820	40
351.906	195
351.991	127
352.076	5253
352.162	6587
352.247	985
352.332	193
352.418	1307
352.503	1974
352.588	11266
352.673	5929
352.759	1513
352.844	-516
352.929	1101
353.014	-201
353.100	1342
353.185	1379
353.270	1924
353.355	1573
353.441	626
353.526	-243
353.611	2644
353.696	1443
353.781	2448
353.866	14
353.952	1478
354.037	1715
354.122	5713
354.207	3671
354.292	1395
354.377	-700
354.462	890
354.547	-413
354.632	444
354.717	1031
354.802	1619
354.887	121
354.972	685
355.057	245
355.142	-270
355.227	920
355.312	1954
355.397	2346
355.482	8732
355.567	2490
355.652	3602
355.737	2495
355.822	11508
355.907	6880
355.991	1828
356.076	28
356.161	689
356.246	-894
356.331	1466
356.416	2541
356.501	27343
356.585	20702
356.670	1699
356.755	2342
356.840	2979
356.924	18581
357.009	60440
357.094	17020
357.179	2264
357.263	605
357.348	2447
357.433	1227
357.517	1589
357.602	880
357.687	437
357.771	2039
357.856	4996
357.941	3357
358.025	17406
358.110	66901
358.195	23765
358.279	1135
358.364	1422
358.448	7773
358.533	18979
358.617	12196
358.702	13340
358.787	3499
358.871	1867
358.956	858
359.040	-226
359.125	-32
359.209	1154
359.294	2028
359.378	2873
359.462	1158
359.547	1123
359.631	739
359.716	-381
359.800	-427
359.885	1940
359.969	-28
360.053	1023
360.138	-46
360.222	1570
360.306	1563
360.391	2343
360.475	3103
360.559	6892
360.644	6315
360.728	4272
360.812	14995
360.896	36592
360.981	9982
361.065	3463
361.149	1511
361.233	898
361.318	-541
361.402	1158
361.486	1499
361.570	-52
361.654	1423
361.739	3704
361.823	24972
361.907	34845
361.991	4099
362.075	2025
362.159	3347
362.243	3744
362.327	52
362.411	1902
362.495	589
362.580	92
362.664	184
362.748	194
362.832	-99
362.916	-109
363.000	3640
363.084	23321
363.168	38281
363.252	6522
363.336	978
363.420	3824
363.503	14750
363.587	15774
363.671	1549
363.755	793
363.839	1888
363.923	718
364.007	1583
364.091	2128
364.175	4932
364.258	23776
364.342	7660
364.426	3189
364.510	153
364.594	2636
364.677	6450
364.761	31968
364.845	19753
364.929	3925
365.013	2669
365.096	3425
365.180	2250
365.264	7860
365.347	24289
365.431	8457
365.515	178
365.598	176
365.682	1033
365.766	430
365.849	1087
365.933	761
366.017	1723
366.100	-152
366.184	-905
366.267	1602
366.351	-506
366.435	-127
366.518	-722
366.602	592
366.685	162
366.769	894
366.852	512
366.936	2901
367.019	1394
367.103	750
367.186	2083
367.270	260
367.353	-1033
367.436	862
367.520	-857
367.603	1467
367.687	-660
367.770	1999
367.853	1742
367.937	8920
368.020	11405
368.104	1410
368.187	1575
368.270	2399
368.353	1393
368.437	5577
368.520	12134
368.603	5713
368.687	8421
368.770	13254
368.853	2589
368.936	3321
369.020	1885
369.103	1655
369.186	-898
369.269	378
369.352	1288
369.436	1953
369.519	1369
369.602	-837
369.685	1080
369.768	-319
369.851	935
369.934	225
370.018	370
370.101	1321
370.184	3062
370.267	813
370.350	1424
370.433	4281
370.516	14007
370.599	15115
370.682	1361
370.765	7393
370.848	10964
370.931	18923
371.014	6086
371.097	268
371.180	594
371.263	286
371.346	-1514
371.429	492
371.511	-344
371.594	1049
371.677	1847
371.760	2876
371.843	3352
371.926	26393
372.009	51656
372.091	14004
372.174	8614
372.257	21936
372.340	6285
372.423	3818
372.505	4185
372.588	1541
372.671	6224
372.754	17969
372.836	7658
372.919	6197
373.002	10594
373.085	2301
373.167	2631
373.250	8361
373.332	19067
373.415	35966
373.498	68464
373.580	22433
373.663	33252
373.746	41179
373.828	5869
373.911	2975
373.993	1392
374.076	12241
374.159	9926
374.241	5773
374.324	14158
374.406	10793
374.489	21749
374.571	54523
374.654	17852
374.736	9818
374.819	32150
374.901	51896
374.983	47029
375.066	6308
375.148	1649
375.231	11048
375.313	18008
375.395	5215
375.478	-409
375.560	886
375.643	1721
375.725	10768
375.807	40736
375.890	31617
375.972	9066
376.054	5746
376.136	9532
376.219	3944
376.301	12499
376.383	32156
376.465	9716
376.548	5306
376.630	7890
376.712	25307
376.794	9298
376.877	343
376.959	-702
377.041	1078
377.123	1109
377.205	1215
377.287	-1152
377.369	989
377.452	-307
377.534	8
377.616	-671
377.698	653
377.780	-975
377.862	165
377.944	916
378.026	-301
378.108	-114
378.190	-345
378.272	-95
378.354	-42
378.436	-87
378.518	586
378.600	2929
378.682	3792
378.764	8676
378.846	6863
378.928	527
379.010	1348
379.091	565
379.173	1111
379.255	-1551
379.337	645
379.419	4089
379.501	14785
379.583	3716
379.664	817
379.746	1796
379.828	10215
379.910	12404
379.991	11174
380.073	605
380.155	879
380.237	-781
380.318	804
380.400	-874
380.482	1800
380.564	1491
380.645	2235
380.727	1872
380.809	1909
380.890	-467
380.972	147
381.053	-618
381.135	951
381.217	2821
381.298	10217
381.380	3060
381.461	5239
381.543	26138
381.624	29256
381.706	3060
381.787	1699
381.869	2127
381.951	15968
382.032	53388
382.113	31410
382.195	2086
382.276	3942
382.358	6572
382.439	22950
382.521	30901
382.602	45197
382.684	17693
382.765	27538
382.846	20864
382.928	19585
383.009	8275
383.090	7124
383.172	31172
383.253	45179
383.334	19370
383.416	32235
383.497	14102
383.578	2672
383.659	6042
383.741	29417
383.822	73118
383.903	34436
383.984	17731
384.066	37635
384.147	18311
384.228	3327
384.309	974
384.390	1010
384.471	628
384.553	972
384.634	554
384.715	1547
384.796	606
384.877	919
384.958	9056
385.039	8829
385.120	687
385.201	1744
385.282	90
385.363	2293
385.444	-138
385.525	4266
385.606	17155
385.687	14621
385.768	1621
385.849	4068
385.930	26142
386.011	44447
386.092	7910
386.173	1018
386.254	-142
386.335	1903
386.416	737
386.496	5346
386.577	8365
386.658	2374
386.739	510
386.820	1086
386.901	-155
386.981	927
387.062	-816
387.143	1347
387.224	8037
387.304	8271
387.385	1285
387.466	-192
387.547	348
387.627	20
387.708	3896
387.789	19993
387.869	22073
387.950	5875
388.031	-270
388.111	-1434
388.192	1640
388.273	3887
388.353	1227
388.434	1564
388.514	4287
388.595	24656
388.676	26710
388.756	9380
388.837	7919
388.917	3887
388.998	-1365
389.078	918
389.159	515
389.239	-1266
389.320	1430
389.400	-224
389.480	3493
389.561	10776
389.641	3768
389.722	952
389.802	354
389.883	5462
389.963	14250
390.043	8328
390.124	632
390.204	3649
390.284	9633
390.365	6186
390.445	9429
390.525	27784
390.605	20586
390.686	3608
390.766	514
390.846	738
390.927	-259
391.007	-1042
391.087	193
391.167	334
391.247	-1962
391.328	1723
391.408	1821
391.488	864
391.568	-2465
391.648	113
391.728	899
391.808	1599
391.888	257
391.969	5254
392.049	7044
392.129	3355
392.209	4155
392.289	12570
392.369	5225
392.449	3324
392.529	1255
392.609	1869
392.689	2754
392.769	11647
392.849	8232
392.929	6414
393.009	14639
393.089	9243
393.169	2012
393.248	11411
393.328	63309
393.408	63297
393.488	7844
393.568	1203
393.648	259
393.728	440
393.807	-1084
393.887	1257
393.967	32
394.047	1467
394.127	1713
394.206	5852
394.286	34908
394.366	146289
394.446	139379
394.525	23871
394.605	3420
394.685	3043
394.764	6787
394.844	9998
394.924	6237
395.003	1947
395.083	725
395.163	1172
395.242	52
395.322	1657
395.402	-1519
395.481	2473
395.561	3890
395.640	12133
395.720	8951
395.799	15402
395.879	10899
395.958	9629
396.038	49866
396.117	192621
396.197	185916
396.276	39356
396.356	8450
396.435	5791
396.515	2363
396.594	1479
396.673	3325
396.753	16773
396.832	56176
396.912	42602
396.991	7756
397.070	2067
397.150	-1074
397.229	1328
397.308	-588
397.388	-39
397.467	493
397.546	661
397.625	-1605
397.705	1199
397.784	95
397.863	-721
397.942	-1566
398.022	-151
398.101	2724
398.180	12012
398.259	4246
398.338	1312
398.417	-961
398.497	547
398.576	196
398.655	-794
398.734	-96
398.813	516
398.892	4333
398.971	14279
399.050	4628
399.129	-398
399.208	-1212
399.287	210
399.366	-1467
399.445	311
399.524	-231
399.603	-1217
399.682	-16
399.761	4683
399.840	16458
399.919	11731
399.998	-478
400.077	-1197
400.156	-1954
400.235	1992
400.313	-1249
400.392	14
400.471	4478
400.550	7645
400.629	316
400.708	-248
400.786	-897
400.865	1444
400.944	994
401.023	1909
401.102	-854
401.180	-198
401.259	-866
401.338	283
401.416	-26
401.495	-873
401.574	282
401.652	-1180
401.731	-442
401.810	-912
401.888	-430
401.967	-665
402.046	-747
402.124	201
402.203	-1359
402.281	533
402.360	-165
402.438	3247
402.517	185
402.596	-443
402.674	-1033
402.753	-315
402.831	-1029
402.910	1315
402.988	2378
403.066	11120
403.145	5893
403.223	4620
403.302	8022
403.380	7021
403.459	5108
403.537	941
403.615	69
403.694	-1778
403.772	-856
403.850	-704
403.929	-1679
404.007	-1093
404.085	711
404.164	693
404.242	-1225
404.320	3091
404.398	8465
404.477	12513
404.555	34677
404.633	28797
404.711	6372
404.789	3044
404.868	-595
404.946	-981
405.024	-1125
405.102	-783
405.180	-1929
405.258	-1712
405.336	-1099
405.415	-1153
405.493	408
405.571	532
405.649	-1426
405.727	-1530
405.805	22
405.883	-115
405.961	113
406.039	-489
406.117	-1943
406.195	519
406.273	6089
406.351	25173
406.429	14220
406.507	524
406.585	-757
406.663	-78
406.740	-578
406.818	-241
406.896	-1039
406.974	496
407.052	-13
407.130	15123
407.208	17819
407.285	3874
407.363	-1212
407.441	-25
407.519	-1609
407.596	-252
407.674	-50
407.752	2272
407.830	3031
407.907	1839
407.985	-1587
408.063	139
408.141	-1248
408.218	764
408.296	-1577
408.373	67
408.451	-761
408.529	-817
408.606	-1640
408.684	-329
408.762	-1433
408.839	-1841
408.917	-2608
408.994	-500
409.072	-2184
409.149	-635
409.227	-554
409.304	-827
409.382	-1788
409.459	-1048
409.537	-598
409.614	-908
409.692	-1992
409.769	-501
409.846	-2232
409.924	600
410.001	-3393
410.079	-498
410.156	106
410.233	-701
410.311	-1100
410.388	-1421
410.465	-935
410.543	-984
410.620	-562
410.697	360
410.775	-1134
410.852	-1606
410.929	-209
411.006	142
411.083	-1658
411.161	-303
411.238	312
411.315	477
411.392	-2069
411.469	-378
411.547	-1273
411.624	-1945
411.701	-1999
411.778	-965
411.855	-631
411.932	-849
412.009	-1491
412.086	-890
412.163	-861
412.240	-931
412.317	-910
412.394	-190
412.471	-1445
412.548	-1071
412.625	-1788
412.702	-235
412.779	-983
412.856	-271
412.933	-1761
413.010	-86
413.087	-239
413.164	3625
413.241	4867
413.318	281
413.395	-368
413.471	271
413.548	-857
413.625	-317
413.702	-1727
413.779	-330
413.855	-1501
413.932	-1433
414.009	-2149
414.086	-624
414.162	-1387
414.239	732
414.316	2811
414.393	9717
414.469	441
414.546	-916
414.623	-1735
414.699	-1670
414.776	-1595
414.853	-483
414.929	-1392
415.006	-1117
415.082	-438
415.159	-1211
415.236	-1471
415.312	-580
415.389	195
415.465	-234
415.542	-1023
415.618	-761
415.695	-954
415.771	-1006
415.848	-1559
415.924	-960
416.000	-1798
416.077	-73
416.153	-2642
416.230	-1276
416.306	-1689
416.383	-906
416.459	-1206
416.535	-891
416.612	-2031
416.688	-1091
416.764	-1552
416.841	-1640
416.917	-751
416.993	65
417.069	-1431
417.146	-110
417.222	-1052
417.298	-701
417.374	-1919
417.451	270
417.527	-2041
417.603	-1175
417.679	-1737
417.755	-671
417.831	-2181
417.908	-1101
417.984	-1657
418.060	-1471
418.136	-205
418.212	-37
418.288	-970
418.364	208
418.440	-1686
418.516	-48
418.592	-1139
418.668	1018
418.744	984
418.820	1226
418.896	-1552
418.972	-1195
419.048	-2026
419.124	1291
419.200	-2263
419.276	-385
419.352	-1868
419.428	-979
419.504	-2031
419.579	-1049
419.655	-1935
419.731	-555
419.807	-225
419.883	2503
419.959	252
420.034	20
420.110	530
420.186	4657
420.262	3670
420.337	-871
420.413	-1151
420.489	-1178
420.565	-681
420.640	-1386
420.716	-1049
420.792	-1232
420.867	-609
420.943	-1440
421.019	-768
421.094	-1211
421.170	-1123
421.245	-498
421.321	-1665
421.397	-1465
421.472	-665
421.548	-229
421.623	-726
421.699	-880
421.774	-1280
421.850	-1230
421.925	-785
422.001	-626
422.076	-1265
422.152	-1343
422.227	-1169
422.302	-672
422.378	-810
422.453	-166
422.529	2208
422.604	20766
422.679	47937
422.755	20605
422.830	1548
422.905	481
422.981	-1679
423.056	-887
423.131	-1188
423.207	-961
423.282	-1554
423.357	290
423.432	-902
423.508	529
423.583	774
423.658	623
423.733	-1592
423.808	-643
423.883	-802
423.959	-898
424.034	-2062
424.109	-402
424.184	-1989
424.259	-849
424.334	-1318
424.409	-1058
424.484	-1531
424.559	-833
424.634	-1763
424.709	-1194
424.784	-982
424.859	-1367
424.934	-1448
425.009	3867
425.084	5540
425.159	1618
425.234	-1387
425.309	-870
425.384	-396
425.459	162
425.534	-1320
425.609	-1477
425.683	-1982
425.758	-809
425.833	-1508
425.908	138
425.983	1297
426.058	7084
426.132	1055
426.207	-1080
426.282	-308
426.357	-1036
426.431	-1392
426.506	-331
426.581	-1583
426.655	-696
426.730	-1972
426.805	-1179
426.879	-755
426.954	-109
427.029	-755
427.103	8730
427.178	19463
427.253	8280
427.327	155
427.402	-312
427.476	454
427.551	-683
427.625	-1523
427.700	-399
427.774	-1594
427.849	-122
427.923	-2397
427.998	-1508
428.072	-1163
428.147	214
428.221	964
428.296	2441
428.370	-880
428.444	-1175
428.519	-1040
428.593	978
428.667	851
428.742	1176
428.816	-55
428.890	2562
428.965	2820
429.039	2160
429.113	1603
429.188	-393
429.262	-1474
429.336	182
429.410	1378
429.485	1458
429.559	185
429.633	-15
429.707	-1126
429.781	-226
429.855	3513
429.930	7461
430.004	5599
430.078	10962
430.152	6930
430.226	2743
430.300	1831
430.374	-1005
430.448	-102
430.522	3128
430.596	11475
430.670	6372
430.744	12478
430.818	20680
430.892	3167
430.966	-848
431.040	-734
431.114	-1101
431.188	-1776
431.262	-898
431.336	-1213
431.410	634
431.484	759
431.557	1420
431.631	-1592
431.705	-1162
431.779	-1644
431.853	315
431.927	-636
432.000	-1414
432.074	-1630
432.148	-540
432.222	-1719
432.295	-867
432.369	-2001
432.443	-546
432.516	8586
432.590	23193
432.664	7141
432.737	-313
432.811	-2605
432.885	-1265
432.958	-1133
433.032	-1555
433.106	-2196
433.179	-530
433.253	-1923
433.326	-1342
433.400	-1749
433.473	-1234
433.547	-2121
433.620	-1125
433.694	-1894
433.767	-405
433.841	-2302
433.914	-688
433.988	-1850
434.061	-562
434.134	-1702
434.208	-1041
434.281	-2364
434.355	-816
434.428	-1819
434.501	-1233
434.575	-2127
434.648	-1329
434.721	-1312
434.795	-654
434.868	-2175
434.941	-1885
435.014	-2326
435.088	-1484
435.161	-1142
435.234	-605
435.307	-1007
435.381	-999
435.454	-1892
435.527	-1433
435.600	-2244
435.673	-1409
435.746	-2169
435.819	-864
435.892	-2199
435.966	-1197
436.039	-2321
436.112	-340
436.185	-2256
436.258	-2133
436.331	-2520
436.404	-1144
436.477	-1751
436.550	-1506
436.623	-1661
436.696	-1350
436.769	-1196
436.842	-1094
436.915	-1634
436.987	-562
437.060	-1274
437.133	-1033
437.206	-2230
437.279	-526
437.352	-2755
437.425	-1665
437.498	-1953
437.570	-109
437.643	-546
437.716	-1148
437.789	-2330
437.861	-733
437.934	167
438.007	-325
438.080	-1573
438.152	-971
438.225	-78
438.298	15378
438.370	38893
438.443	15720
438.516	1003
438.588	-475
438.661	-2455
438.734	-1394
438.806	-1629
438.879	-565
438.951	-1599
439.024	-384
439.096	-2080
439.169	-1725
439.241	-1838
439.314	-1084
439.386	-1576
439.459	-58
439.531	-936
439.604	-636
439.676	-1365
439.749	-1165
439.821	-2100
439.893	-800
439.966	-1595
440.038	-1309
440.110	-852
440.183	-685
440.255	-1428
440.327	490
440.400	3721
440.472	21397
440.544	14036
440.617	1300
440.689	-38
440.761	61
440.833	-697
440.905	-121
440.978	-1916
441.050	-1247
441.122	-1315
441.194	-2003
441.266	-1636
441.338	-1094
441.411	-781
441.483	5382
441.555	7307
441.627	1228
441.699	-573
441.771	-647
441.843	-1680
441.915	-1025
441.987	-2531
442.059	-1756
442.131	-1489
442.203	-1074
442.275	-1376
442.347	64
442.419	-1612
442.491	-322
442.563	218
442.635	1131
442.706	1723
442.778	1564
442.850	-1628
442.922	-976
442.994	-1663
443.066	-551
443.137	-1206
443.209	-1024
443.281	-1998
443.353	-573
443.425	263
443.496	1781
443.568	651
443.640	-715
443.711	-1907
443.783	-252
443.855	-2105
443.926	-514
443.998	-2009
444.070	-589
444.141	-1321
444.213	-386
444.285	-336
444.356	-169
444.428	-1108
444.499	-926
444.571	-2058
444.642	-656
444.714	-1565
444.785	-736
444.857	-726
444.928	1620
445.000	-416
445.071	414
445.143	-115
445.214	-417
445.285	-435
445.357	3174
445.428	2577
445.500	6386
445.571	3906
445.642	1517
445.714	580
445.785	3264
445.856	-814
445.928	-27
445.999	-1307
446.070	-335
446.141	-1106
446.213	743
446.284	-884
446.355	-1323
446.426	-1575
446.497	-1556
446.569	-321
446.640	-245
446.711	-616
446.782	-18
446.853	-1240
446.924	-288
446.995	-577
447.066	-1052
447.138	-473
447.209	-493
447.280	-1645
447.351	-915
447.422	-2014
447.493	-1136
447.564	-1460
447.635	-112
447.706	-1596
447.777	-1723
447.847	-1774
447.918	-1778
447.989	-1823
448.060	-487
448.131	-35
448.202	975
448.273	-151
448.344	20
448.414	-1100
448.485	-925
448.556	-780
448.627	-921
448.698	-956
448.768	-1337
448.839	-1590
448.910	-491
448.981	-182
449.051	-1100
449.122	-1612
449.193	-1629
449.263	-1629
449.334	-952
449.405	-989
449.475	375
449.546	263
449.616	52
449.687	-392
449.758	-575
449.828	-1671
449.899	-252
449.969	-2188
450.040	-425
450.110	-1567
450.181	254
450.251	-1852
450.322	-456
450.392	-1390
450.463	-386
450.533	-984
450.604	-567
450.674	-1540
450.744	-400
450.815	-1662
450.885	-1111
450.955	-1055
451.026	-521
451.096	-2616
451.166	-372
451.237	-600
451.307	2195
451.377	-136
451.447	-1607
451.518	-1146
451.588	-763
451.658	-1144
451.728	-95
451.799	1252
451.869	4058
451.939	-1133
452.009	-1005
452.079	-1625
452.149	344
452.219	-329
452.289	3327
452.360	1818
452.430	-542
452.500	-1504
452.570	20
452.640	-104
452.710	1222
452.780	1316
452.850	2754
452.920	1891
452.990	430
453.060	-628
453.129	-254
453.199	-206
453.269	4592
453.339	12087
453.409	19613
453.479	16111
453.549	24964
453.619	24858
453.688	10488
453.758	537
453.828	-1109
453.898	-1009
453.968	-392
454.037	-1202
454.087	-426
454.107	-116
454.168	-1070
454.177	-1224
454.247	-845
454.249	-859
454.316	-1643
454.330	-1307
454.386	-126
454.411	45
454.456	117
454.492	1443
454.525	2664
454.574	661
454.595	-227
454.655	-648
454.665	-694
454.734	-806
454.736	-734
454.804	402
454.817	997
454.873	2874
454.898	3469
454.943	4484
454.979	2649
455.013	1059
455.060	414
455.082	248
455.141	155
455.152	227
455.221	4450
455.222	4613
455.291	9242
455.303	10262
455.360	13152
455.384	17501
455.430	21876
455.465	16715
455.499	13222
455.546	6500
455.569	3351
455.627	2695
455.638	2632
455.707	-554
455.708	-540
455.777	-256
455.789	-304
455.846	-632
455.869	-519
455.916	-309
455.950	-681
455.985	-1033
456.031	-384
456.054	-75
456.112	-572
456.124	-684
456.193	-619
456.193	-631
456.262	-736
456.274	-357
456.332	1208
456.355	863
456.401	61
456.436	82
456.470	40
456.516	-521
456.540	-756
456.597	-506
456.609	-463
456.678	-118
456.678	-126
456.747	-245
456.759	-492
456.817	-1570
456.840	-1177
456.886	-411
456.920	-575
456.955	-718
457.001	-344
457.024	-78
457.082	308
457.093	354
457.162	1872
457.163	1893
457.232	535
457.243	457
457.301	107
457.324	-431
457.370	-1023
457.405	-555
457.439	-98
457.485	-321
457.508	-451
457.566	-174
457.577	-128
457.646	-533
457.647	-517
457.715	377
457.727	406
457.784	392
457.808	408
457.853	370
457.889	-38
457.922	-328
457.969	535
457.991	776
458.050	-249
458.060	-385
458.129	575
458.130	581
458.198	234
458.211	292
458.267	462
458.292	271
458.336	139
458.372	337
458.405	532
458.453	429
458.474	306
458.533	1265
458.543	1441
458.611	1419
458.614	1459
458.680	1229
458.694	830
458.749	-161
458.775	83
458.818	646
458.855	552
458.887	187
458.936	260
458.955	470
459.016	265
459.024	206
459.093	1027
459.097	1001
459.162	255
459.177	416
459.230	1308
459.257	1459
459.299	1256
459.338	1126
459.368	1045
459.418	944
459.437	974
459.499	1044
459.505	1016
459.574	140
459.579	170
459.643	584
459.659	451
459.711	554
459.740	906
459.780	1097
459.820	1078
459.849	961
459.900	948
459.917	1032
459.981	1234
459.986	1195
460.054	1302
460.061	1214
460.123	1308
460.141	1572
460.191	2146
460.222	2409
460.260	2457
460.302	2676
460.328	2525
460.382	1497
460.397	1420
460.462	1413
460.465	1440
460.534	2340
460.543	2464
460.602	4326
460.623	5069
460.671	7437
460.703	9830
460.739	8303
460.783	5056
460.808	4342
460.864	2006
460.876	1897
460.944	1135
460.945	1119
461.013	1726
461.024	1616
461.081	1300
461.104	1582
461.150	1724
461.184	1441
461.218	1279
461.264	1292
461.286	1272
461.345	1155
461.355	1165
461.423	1491
461.425	1478
461.491	1492
461.505	1697
461.559	4270
461.585	5423
461.628	7669
461.665	9766
461.696	9612
461.745	9822
461.764	8499
461.825	3019
461.832	3034
461.901	2305
461.905	2342
461.969	1409
461.985	1136
462.037	1861
462.065	2217
462.105	2234
462.145	2359
462.173	3264
462.225	5053
462.241	5516
462.305	7686
462.310	7408
462.378	2899
462.385	2247
462.446	1680
462.465	1879
462.514	2176
462.545	2092
462.582	1717
462.625	1404
462.650	1400
462.705	1420
462.718	1597
462.785	2927
462.786	2940
462.854	2829
462.865	2941
462.922	3805
462.945	4075
462.990	3048
463.025	2083
463.058	2035
463.104	1852
463.126	1526
463.184	986
463.194	1125
463.262	1374
463.264	1420
463.330	1878
463.344	1846
463.398	2231
463.424	2385
463.466	1929
463.504	1738
463.533	2065
463.583	2209
463.601	2179
463.663	2211
463.669	2349
463.737	4240
463.743	4396
463.805	6800
463.823	7515
463.873	10517
463.903	12308
463.940	11649
463.982	11212
464.008	8905
464.062	3221
464.076	3133
464.142	2544
464.144	2531
464.211	2170
464.221	2192
464.279	2324
464.301	2204
464.347	2476
464.381	2922
464.414	3534
464.461	4123
464.482	3916
464.540	3685
464.550	3671
464.617	2902
464.620	2888
464.685	4051
464.699	4248
464.753	5093
464.779	5558
464.820	5241
464.859	4913
464.888	4690
464.938	4252
464.956	4582
465.018	5655
465.023	5568
465.091	4362
465.098	4224
465.158	3295
465.177	3088
465.226	3794
465.257	4085
465.293	4164
465.336	4245
465.361	4747
465.416	5890
465.428	6368
465.495	9065
465.496	9100
465.563	11895
465.575	12433
465.631	13525
465.654	13960
465.698	9037
465.734	4745
465.765	4474
465.813	3779
465.833	3583
465.893	3547
465.900	3564
465.968	3438
465.972	3433
466.035	3706
466.052	3737
466.102	4153
466.131	4406
466.170	4051
466.210	3608
466.237	3798
466.290	4261
466.304	4377
466.369	4705
466.372	4675
466.439	3616
466.449	3439
466.506	4956
466.528	5562
466.573	8516
466.607	10666
466.641	14023
466.687	18709
466.708	19505
466.766	21587
466.775	19862
466.842	6611
466.845	5968
466.909	4342
466.925	3979
466.977	4378
467.004	4587
467.044	5269
467.083	5954
467.111	6904
467.163	8637
467.178	8579
467.242	8276
467.245	8260
467.312	7645
467.321	7552
467.379	6716
467.400	6395
467.446	7467
467.480	8222
467.559	6956
467.638	6128
467.717	7066
467.796	7796
467.875	7323
467.955	6190
468.034	12639
468.113	22019
468.192	27660
468.271	6139
468.350	4926
468.429	5388
468.508	4871
468.588	5611
468.667	5654
468.746	6400
468.825	4789
468.904	5348
468.983	7143
469.062	9406
469.141	11128
469.220	4479
469.299	5821
469.378	6470
469.456	7777
469.535	6092
469.614	6404
469.693	6956
469.772	7926
469.851	11496
469.930	6111
470.009	6108
470.088	5532
470.166	6890
470.245	9295
470.324	9675
470.403	7281
470.482	5437
470.560	5651
470.639	6964
470.718	8412
470.797	6413
470.875	7895
470.954	9220
471.033	9000
471.111	5236
471.190	4121
471.269	4403
471.347	4811
471.426	5037
471.505	6095
471.583	6508
471.662	5316
471.740	4802
471.819	5745
471.898	5429
471.976	5720
472.055	5419
472.133	5382
472.212	8006
472.290	6531
472.369	4595
472.447	4638
472.526	3814
472.604	4926
472.683	5578
472.761	5836
472.839	5525
472.918	5096
472.996	5261
473.075	5976
473.153	5004
473.231	5251
473.310	5869
473.388	5910
473.466	5277
473.545	6200
473.623	8333
473.701	6859
473.780	5138
473.858	3908
473.936	7010
474.014	5199
474.093	5575
474.171	7433
474.249	10915
474.327	5420
474.405	3962
474.484	5739
474.562	5087
474.640	3587
474.718	4777
474.796	3908
474.874	4388
474.952	3505
475.030	3339
475.108	3755
475.187	3374
475.265	5880
475.343	9219
475.421	8591
475.499	4242
475.577	4918
475.655	8123
475.733	13738
475.811	19351
475.889	17350
475.966	9170
476.044	4936
476.122	6715
476.200	8159
476.278	5233
476.356	4364
476.434	4670
476.512	5716
476.590	7735
476.667	6191
476.745	3997
476.823	5276
476.901	4883
476.979	4052
477.056	4452
477.134	4354
477.212	4986
477.290	4130
477.367	4060
477.445	3461
477.523	3535
477.601	4142
477.678	3176
477.756	4638
477.834	4753
477.911	4156
477.989	3937
478.066	2866
478.144	5129
478.222	6468
478.299	10231
478.377	6336
478.454	3041
478.532	3242
478.609	4138
478.687	4940
478.764	3974
478.842	4518
478.919	4590
478.997	4251
479.074	3648
479.152	4022
479.229	4841
479.307	3005
479.384	2599
479.461	3170
479.539	2797
479.616	4611
479.694	3857
479.771	3860
479.848	4235
479.926	5006
480.003	6351
480.080	3890
480.157	3031
480.235	3486
480.312	2630
480.389	3904
480.467	6936
480.544	7645
480.621	3836
480.698	3372
480.775	3536
480.853	4113
480.930	3370
481.007	4090
481.084	4645
481.161	4494
481.238	3664
481.315	2377
481.392	2833
481.470	2820
481.547	2980
481.624	3078
481.701	2587
481.778	3484
481.855	4101
481.932	6146
482.009	10664
482.086	4188
482.163	4136
482.240	7616
482.317	12746
482.393	6259
482.470	1825
482.547	3536
482.624	3036
482.701	2921
482.778	3006
482.855	2605
482.932	3224
483.009	2089
483.085	2549
483.162	2069
483.239	3359
483.316	2280
483.393	1375
483.469	2823
483.546	3969
483.623	3554
483.699	2214
483.776	2700
483.853	4012
483.930	7947
484.006	18236
484.083	26276
484.160	16383
484.236	23641
484.313	15731
484.389	12391
484.466	13032
484.543	10676
484.619	11207
484.696	10564
484.772	12044
484.849	11826
484.925	10374
485.002	10022
485.078	10918
485.155	10687
485.231	9951
485.308	9360
485.384	10215
485.461	14492
485.537	19984
485.614	19098
485.690	10046
485.766	10037
485.843	11406
485.919	16350
485.995	13919
486.072	8339
486.148	8375
486.224	9582
486.301	9326
486.377	9927
486.453	8306
486.530	10888
486.606	15754
486.682	15855
486.758	18436
486.835	18034
486.911	16407
486.987	28247
487.063	30242
487.139	35426
487.215	22166
487.292	10824
487.368	8972
487.444	10430
487.520	11368
487.596	9005
487.672	10536
487.748	15272
487.824	15489
487.900	9372
487.976	8765
488.052	9957
488.128	10806
488.204	10215
488.280	10119
488.356	13772
488.432	23678
488.508	28941
488.584	9834
488.660	8620
488.736	9342
488.812	9926
488.888	11855
488.964	20221
489.039	42564
489.115	53993
489.191	21974
489.267	9294
489.343	8628
489.418	6893
489.494	7142
489.570	5703
489.646	7011
489.722	6971
489.797	7018
489.873	13837
489.949	24878
490.024	15581
490.100	6963
490.176	7555
490.251	9190
490.327	12057
490.403	6311
490.478	6493
490.554	5605
490.629	6288
490.705	5690
490.781	7097
490.856	5211
490.932	7861
491.007	7033
491.083	7032
491.158	6164
491.234	10092
491.309	18582
491.385	13704
491.460	5851
491.536	7041
491.611	5811
491.686	7320
491.762	11940
491.837	26648
491.913	40829
491.988	59135
492.063	56248
492.139	12814
492.214	7922
492.289	4858
492.365	4831
492.440	6437
492.515	5831
492.590	5714
492.666	5252
492.741	8270
492.816	10431
492.891	5620
492.967	5266
493.042	5855
493.117	6387
493.192	9062
493.267	30253
493.342	86016
493.418	81755
493.493	7362
493.568	4475
493.643	4744
493.718	6964
493.793	9894
493.868	10531
493.943	6113
494.018	4545
494.093	3958
494.168	4527
494.243	3628
494.318	4387
494.393	4154
494.468	3625
494.543	3477
494.618	5208
494.693	3085
494.768	3589
494.842	4127
494.917	3280
494.992	3622
495.067	3149
495.142	4106
495.217	4567
495.292	4414
495.366	5714
495.441	4740
495.516	8097
495.591	18064
495.665	64373
495.740	113594
495.815	22230
495.890	5336
495.964	2901
496.039	5832
496.114	4085
496.188	3647
496.263	4504
496.338	2823
496.412	5250
496.487	5624
496.561	6767
496.636	6084
496.710	5464
496.785	6309
496.860	5375
496.934	3504
497.009	5276
497.083	4424
497.158	4025
497.232	6677
497.307	5963
497.381	5434
497.455	6984
497.530	8620
497.604	4727
497.679	6157
497.753	11139
497.827	10277
497.902	9330
497.976	16689
498.050	63341
498.125	185237
498.199	115088
498.273	15393
498.348	11644
498.422	8703
498.496	9339
498.570	8091
498.645	5865
498.719	5426
498.793	8653
498.867	14848
498.941	24757
499.016	86262
499.090	168057
499.164	28530
499.238	5083
499.312	5930
499.386	6995
499.460	5607
499.534	5519
499.609	7465
499.683	9446
499.757	12044
499.831	42723
499.905	124175
499.979	70013
500.053	14232
500.127	13854
500.201	10448
500.275	5804
500.349	6156
500.422	6452
500.496	14574
500.570	33883
500.644	73938
500.718	96149
500.792	12594
500.866	5993
500.940	7818
501.013	5619
501.087	7255
501.161	13615
501.235	15611
501.309	44833
501.382	102448
501.456	56982
501.530	17678
501.603	26585
501.677	6426
501.751	3457
501.825	8010
501.898	16854
501.972	36617
502.046	13378
502.119	7675
502.193	21483
502.266	37029
502.340	12713
502.413	20096
502.487	30745
502.561	13790
502.634	5253
502.708	5071
502.781	3539
502.855	3849
502.928	2862
503.002	3416
503.075	2471
503.149	2870
503.222	3401
503.295	3161
503.369	5315
503.442	9544
503.516	34722
503.589	66507
503.662	29922
503.736	13496
503.809	32780
503.882	20520
503.956	37016
504.029	20728
504.102	10318
504.175	7430
504.249	2391
504.322	4927
504.395	3635
504.468	3437
504.542	2469
504.615	1232
504.688	3172
504.761	1685
504.834	4411
504.907	6663
504.980	8113
505.053	3684
505.127	4301
505.200	6791
505.273	4762
505.346	3061
505.419	2135
505.492	2775
505.565	1972
505.638	3105
505.711	1960
505.784	1829
505.857	1373
505.930	2734
506.003	901
506.076	3877
506.149	3382
506.221	2960
506.294	7237
506.367	18435
506.440	50339
506.513	15630
506.586	4904
506.659	2454
506.731	3300
506.804	4593
506.877	5036
506.950	2607
507.022	3064
507.095	2934
507.168	4641
507.241	3875
507.313	2745
507.386	3002
507.459	5760
507.531	2087
507.604	1604
507.677	1855
507.749	1420
507.822	5768
507.894	9700
507.967	9872
508.040	3855
508.112	4596
508.185	3965
508.257	3450
508.330	6702
508.402	3956
508.475	3862
508.547	4170
508.620	4819
508.692	6623
508.765	3484
508.837	1972
508.909	2725
508.982	2906
509.054	3861
509.127	2595
509.199	2352
509.271	1650
509.344	3261
509.416	2029
509.488	3399
509.560	3893
509.633	3833
509.705	4749
509.777	5271
509.849	5866
509.922	2812
509.994	3438
510.066	4656
510.138	3189
510.210	10073
510.283	7468
510.355	6356
510.427	5912
510.499	4870
510.571	4815
510.643	4781
510.715	9013
510.787	4074
510.859	5446
510.931	6034
511.003	6810
511.076	5675
511.148	4233
511.219	4546
511.291	7929
511.363	7670
511.435	3810
511.507	2675
511.579	4478
511.651	4698
511.723	3608
511.795	4085
511.867	3605
511.939	5983
512.010	9846
512.082	6234
512.154	3950
512.226	4579
512.298	8276
512.369	9255
512.441	7520
512.513	8015
512.585	4747
512.656	7117
512.728	5780
512.800	4334
512.871	5779
512.943	4437
513.015	3011
513.086	5502
513.158	5103
513.230	4714
513.301	9230
513.373	9693
513.444	5038
513.516	3895
513.588	3776
513.659	6089
513.731	6808
513.802	5709
513.874	17807
513.945	19071
514.016	4410
514.088	4645
514.159	3797
514.231	8491
514.302	7356
514.374	6571
514.445	4977
514.516	12643
514.588	5904
514.659	6019
514.730	9341
514.802	7443
514.873	3425
514.944	6414
515.016	5135
515.087	5501
515.158	7208
515.229	9263
515.301	3308
515.372	4963
515.443	3573
515.514	4341
515.585	2374
515.656	4460
515.728	4011
515.799	2683
515.870	4922
515.941	5414
516.012	3919
516.083	7827
516.154	7798
516.225	9488
516.296	8979
516.367	5391
516.438	6541
516.509	8637
516.580	16257
516.651	58334
516.722	134409
516.793	32732
516.864	12530
516.935	10847
517.006	12401
517.077	20705
517.148	55536
517.219	183749
517.289	160209
517.360	49263
517.431	12401
517.502	5861
517.573	7041
517.643	5945
517.714	7743
517.785	8153
517.856	7231
517.926	9443
517.997	9658
518.068	10700
518.138	16491
518.209	34015
518.280	153879
518.350	345261
518.421	56821
518.492	10578
518.562	7816
518.633	6585
518.703	3904
518.774	8094
518.845	8997
518.915	7237
518.986	5563
519.056	10180
519.127	20355
519.197	32186
519.268	55571
519.338	21028
519.408	8119
519.479	10434
519.549	6558
519.620	5619
519.690	3841
519.760	3827
519.831	3838
519.901	3854
519.971	3793
520.042	3989
520.112	4512
520.182	6616
520.253	6767
520.323	4280
520.393	3963
520.463	8473
520.534	4572
520.604	11635
520.674	5109
520.744	6159
520.814	12156
520.885	11707
520.955	25366
521.025	60927
521.095	11711
521.165	5504
521.235	4250
521.305	3015
521.375	3374
521.445	4409
521.515	5929
521.585	8325
521.655	3917
521.725	6615
521.795	4403
521.865	1810
521.935	7922
522.005	3176
522.075	2463
522.145	4972
522.215	3901
522.285	6351
522.355	8766
522.424	16944
522.494	9164
522.564	8517
522.634	23799
522.704	45642
522.774	8800
522.843	4696
522.913	5217
522.983	5875
523.053	3487
523.122	4865
523.192	9197
523.262	34250
523.331	15293
523.401	3821
523.471	3518
523.540	3103
523.610	1938
523.680	3014
523.749	2532
523.819	3626
523.888	1975
523.958	1687
524.027	3572
524.097	3079
524.166	2652
524.236	2330
524.305	4686
524.375	2141
524.444	1264
524.514	3697
524.583	2978
524.653	3356
524.722	3747
524.791	1565
524.861	4241
524.930	1006
524.999	2703
525.069	4948
525.138	2256
525.207	3070
525.277	3538
525.346	2586
525.415	2966
525.484	2783
525.554	2525
525.623	2750
525.692	2788
525.761	2602
525.830	2956
525.900	1875
525.969	3369
526.038	3229
526.107	2800
526.176	8408
526.245	4297
526.314	7789
526.383	7422
526.452	4483
526.522	15109
526.591	18515
526.660	16979
526.729	6253
526.797	10555
526.867	38764
526.935	125483
527.004	59521
527.073	13408
527.142	3054
527.211	3274
527.280	5065
527.349	4081
527.418	711
527.487	3768
527.555	2055
527.624	1736
527.693	187
527.762	3279
527.831	989
527.899	2431
527.968	1708
528.037	431
528.106	3837
528.174	6789
528.243	5310
528.312	10301
528.380	7643
528.449	1491
528.518	3130
528.586	213
528.655	2031
528.723	1858
528.792	1231
528.861	1062
528.929	261
528.998	2386
529.066	1732
529.135	1156
529.203	847
529.272	527
529.340	1305
529.409	3019
529.477	975
529.545	1517
529.614	3604
529.682	1712
529.751	2473
529.819	5279
529.887	1324
529.956	226
530.024	2435
530.092	371
530.161	3260
530.229	4343
530.297	546
530.365	1010
530.434	1831
530.502	-18
530.570	1546
530.638	-472
530.707	1897
530.775	2842
530.843	637
530.911	791
530.979	738
531.047	891
531.115	1541
531.183	792
531.252	1810
531.320	878
531.388	154
531.456	1292
531.524	-1068
531.592	1830
531.660	2698
531.728	-99
531.796	-19
531.864	1655
531.932	1282
532.000	855
532.067	1030
532.135	2114
532.203	2765
532.271	2785
532.339	10259
532.407	22173
532.475	6384
532.542	3495
532.610	4242
532.678	9023
532.746	53245
532.814	69284
532.881	8794
532.949	2475
533.017	1426
533.084	1475
533.152	290
533.220	1298
533.287	921
533.355	1358
533.423	2095
533.490	-39
533.558	967
533.625	2047
533.693	1082
533.761	1832
533.828	2381
533.896	1911
533.963	7545
534.031	8215
534.098	9807
534.166	1662
534.233	512
534.300	2501
534.368	2015
534.435	633
534.503	1692
534.570	1884
534.637	111
534.705	197
534.772	1648
534.840	785
534.907	4707
534.974	1805
535.041	1475
535.109	1721
535.176	21
535.243	1592
535.310	1792
535.378	474
535.445	1755
535.512	1007
535.579	1532
535.646	1006
535.714	1713
535.781	2471
535.848	2489
535.915	2386
535.982	1399
536.049	1154
536.116	3690
536.183	1256
536.250	2154
536.317	1341
536.384	3762
536.451	6700
536.518	5018
536.585	1287
536.652	6704
536.719	8638
536.786	2721
536.853	2210
536.920	8003
536.987	12576
537.053	12490
537.120	50402
537.187	18626
537.254	1836
537.321	1657
537.388	3168
537.454	618
537.521	696
537.588	188
537.654	2856
537.721	2080
537.788	2578
537.855	984
537.921	1559
537.988	1363
538.055	3048
538.121	1096
538.188	2541
538.254	8116
538.321	13275
538.388	4695
538.454	1598
538.521	1988
538.587	1240
538.654	1284
538.720	1751
538.787	1611
538.853	2231
538.920	3498
538.986	1876
539.053	876
539.119	2229
539.185	2018
539.252	4387
539.318	4918
539.385	4390
539.451	1883
539.517	2597
539.583	5185
539.650	16027
539.716	23506
539.782	3878
539.849	1724
539.915	2479
539.981	2269
540.047	3966
540.114	2528
540.180	3924
540.246	1609
540.312	5716
540.378	12835
540.444	10806
540.510	17073
540.576	28422
540.643	4260
540.709	1336
540.775	2329
540.841	2221
540.907	4934
540.973	6876
541.039	6951
541.105	6137
541.171	2035
541.237	890
541.303	2885
541.369	4800
541.435	6895
541.500	10819
541.566	3233
541.632	1584
541.698	1725
541.764	2561
541.830	861
541.896	858
541.961	2169
542.027	1930
542.093	2578
542.159	2706
542.224	2909
542.290	6196
542.356	12118
542.421	9760
542.487	4398
542.553	2548
542.618	2689
542.684	2098
542.750	1982
542.815	3898
542.881	9705
542.947	31763
543.012	10061
543.078	2180
543.143	1584
543.209	2581
543.274	2391
543.340	4144
543.405	13578
543.471	10168
543.536	1766
543.602	2240
543.667	441
543.732	2641
543.798	1038
543.863	2836
543.928	1694
543.994	659
544.059	2407
544.124	2285
544.190	1554
544.255	1516
544.320	2387
544.386	1562
544.451	4767
544.516	5124
544.581	5471
544.646	23115
544.712	19105
544.777	3947
544.842	2371
544.907	2458
544.972	2296
545.037	2157
545.102	2669
545.168	2008
545.233	3338
545.298	4278
545.363	2967
545.428	5270
545.493	15829
545.558	19020
545.623	3733
545.688	1846
545.753	2944
545.818	2427
545.883	3247
545.947	1464
546.012	3285
546.077	1347
546.142	3099
546.207	2209
546.272	5064
546.337	3620
546.401	3487
546.466	1997
546.531	1491
546.596	2091
546.661	2411
546.725	3328
546.790	1971
546.855	2225
546.919	651
546.984	1872
547.049	3039
547.113	2588
547.178	1192
547.243	2811
547.307	2335
547.372	4351
547.436	2456
547.501	2167
547.565	3197
547.630	4399
547.695	3795
547.759	4164
547.823	1458
547.888	2074
547.952	1879
548.017	1965
548.081	4062
548.146	4838
548.210	2836
548.274	1847
548.339	1705
548.403	2850
548.468	1236
548.532	1850
548.596	2234
548.660	2341
548.725	3263
548.789	3394
548.853	3945
548.917	2525
548.982	5116
549.046	3624
549.110	1494
549.174	1628
549.238	1389
549.303	996
549.367	3179
549.431	1476
549.495	1790
549.559	1560
549.623	2065
549.687	3348
549.751	5439
549.815	1957
549.879	1839
549.943	608
550.007	2724
550.071	2088
550.135	3547
550.199	1669
550.263	2798
550.327	4809
550.391	3586
550.455	2288
550.519	1777
550.582	3505
550.646	4505
550.710	3391
550.774	3397
550.838	2492
550.901	2158
550.965	3108
551.029	2039
551.093	3353
551.156	6113
551.220	13521
551.284	7907
551.347	6668
551.411	18243
551.475	9920
551.538	2297
551.602	1924
551.666	2110
551.729	1013
551.793	2513
551.856	2081
551.920	2514
551.983	2036
552.047	2325
552.110	1697
552.174	1358
552.237	1140
552.301	1493
552.364	2338
552.428	2325
552.491	984
552.554	2831
552.618	1905
552.681	2832
552.745	2950
552.808	7430
552.871	7046
552.934	3041
552.998	3034
553.061	2526
553.124	2731
553.187	2747
553.251	3258
553.314	3457
553.377	4042
553.440	10638
553.503	35642
553.567	29346
553.630	2728
553.693	2808
553.756	2191
553.819	2257
553.882	2064
553.945	1735
554.008	1103
554.071	1708
554.134	1890
554.197	1081
554.260	1945
554.323	3973
554.386	2491
554.449	2148
554.512	2417
554.575	813
554.638	2339
554.701	1448
554.764	1994
554.827	1860
554.889	866
554.952	318
555.015	701
555.078	1960
555.141	1796
555.203	1583
555.266	1667
555.329	1752
555.391	1123
555.454	2106
555.517	1638
555.580	1418
555.642	1282
555.705	1491
555.768	761
555.830	2295
555.893	1355
555.955	1720
556.018	1736
556.080	2175
556.143	1368
556.206	1363
556.268	2773
556.330	2034
556.393	2026
556.455	2384
556.518	4933
556.580	3326
556.643	1624
556.705	1678
556.767	849
556.830	2595
556.892	4267
556.955	6551
557.017	1285
557.079	1549
557.142	1594
557.204	4103
557.266	10653
557.328	4373
557.391	988
557.453	2560
557.515	1233
557.577	2721
557.639	3271
557.701	1112
557.764	898
557.826	1441
557.888	1970
557.950	1162
558.012	1401
558.074	1733
558.136	3232
558.198	4199
558.260	2188
558.322	900
558.384	1453
558.446	2502
558.508	2926
558.570	4518
558.632	12679
558.694	12205
558.756	5214
558.818	14341
558.880	17659
558.942	3459
559.003	3478
559.065	1587
559.127	2270
559.189	1054
559.251	1065
559.312	2618
559.374	6645
559.436	12051
559.498	3929
559.559	1644
559.621	2032
559.683	2472
559.744	5199
559.806	9600
559.868	6607
559.929	1877
559.991	2518
560.052	2977
560.114	4423
560.176	3218
560.237	5879
560.299	4489
560.360	1788
560.422	1566
560.483	1710
560.545	1682
560.606	1635
560.667	1326
560.729	1570
560.790	1648
560.852	2288
560.913	2099
560.974	1380
561.036	1401
561.097	1876
561.158	2214
561.220	2830
561.281	1504
561.342	2535
561.403	4138
561.465	6295
561.526	19544
561.587	13633
561.648	2068
561.709	1785
561.771	2589
561.832	1958
561.893	1914
561.954	1968
562.015	2266
562.076	2113
562.137	2373
562.198	923
562.259	3033
562.320	2159
562.381	2833
562.442	4574
562.503	2380
562.564	2058
562.625	2464
562.686	1724
562.747	2060
562.808	2092
562.869	1343
562.930	3238
562.991	3237
563.051	2656
563.112	1484
563.173	935
563.234	2095
563.294	1672
563.355	1450
563.416	2338
563.477	2525
563.537	1776
563.598	3362
563.659	2393
563.720	1498
563.780	2470
563.841	2485
563.901	2302
563.962	2776
564.023	1729
564.083	1788
564.144	2461
564.204	1827
564.265	3099
564.325	3641
564.386	7696
564.446	4314
564.507	2029
564.567	1963
564.628	1897
564.688	1813
564.749	2446
564.809	3313
564.869	2679
564.930	1808
564.990	2437
565.050	2226
565.111	1931
565.171	2448
565.231	1457
565.292	2026
565.352	2051
565.412	3014
565.472	2478
565.532	2660
565.593	1128
565.653	1066
565.713	2456
565.773	3523
565.833	3691
565.893	5349
565.953	1850
566.013	2112
566.074	2760
566.134	5554
566.194	6853
566.254	5300
566.314	2779
566.374	1449
566.434	2564
566.494	2543
566.554	1990
566.614	2157
566.673	2496
566.733	2619
566.793	2573
566.853	2867
566.913	2513
566.973	2542
567.033	3197
567.092	2459
567.152	2124
567.212	3407
567.272	2968
567.331	3179
567.391	2066
567.451	3494
567.511	5082
567.570	3530
567.630	1546
567.690	2736
567.749	2893
567.809	2362
567.868	3280
567.928	3433
567.988	2786
568.047	3561
568.107	3241
568.166	4915
568.226	6299
568.285	7479
568.345	5491
568.404	4998
568.464	5031
568.523	4950
568.582	4930
568.642	4867
568.701	6404
568.761	9020
568.820	11890
568.879	11052
568.939	9147
568.998	6666
569.057	4704
569.116	4184
569.176	3443
569.235	4024
569.294	2369
569.353	2715
569.413	2581
569.472	2461
569.531	1507
569.590	2206
569.649	1999
569.708	2455
569.767	2259
569.827	3161
569.886	2961
569.945	2272
570.004	2019
570.063	2332
570.122	2228
570.181	4048
570.240	2908
570.299	3646
570.358	2323
570.417	2147
570.475	2122
570.534	2558
570.593	2286
570.652	3304
570.711	3352
570.770	2402
570.829	3541
570.887	4037
570.946	3393
571.005	1520
571.064	1446
571.122	2754
571.181	2681
571.240	2167
571.299	2433
571.357	2393
571.416	2581
571.475	3061
571.533	2439
571.592	1990
571.650	1902
571.709	2019
571.768	1709
571.826	2059
571.885	1770
571.943	1512
572.002	2027
572.060	1754
572.119	2364
572.177	2451
572.236	788
572.294	1961
572.352	2340
572.411	2497
572.469	1888
572.528	1795
572.586	2016
572.644	2708
572.703	1769
572.761	1938
572.819	1405
572.877	737
572.936	1912
572.994	1106
573.052	1480
573.110	1209
573.169	1524
573.227	951
573.285	1437
573.343	770
573.401	1283
573.459	2696
573.517	1577
573.576	951
573.634	1616
573.692	1883
573.750	1734
573.808	1733
573.866	2574
573.924	3296
573.982	2225
574.040	2192
574.098	2512
574.155	2054
574.213	1557
574.271	873
574.329	1776
574.387	1037
574.445	1081
574.503	1037
574.560	1083
574.618	908
574.676	607
574.734	1091
574.792	966
574.849	736
574.907	1093
574.965	1276
575.022	996
575.080	1303
575.138	1432
575.195	2088
575.253	1891
575.311	1602
575.368	1083
575.426	1461
575.483	1392
575.541	1491
575.598	1315
575.656	1974
575.713	1577
575.771	1461
575.828	1467
575.886	2449
575.943	1539
576.001	1200
576.058	1327
576.115	2289
576.173	2481
576.230	3030
576.287	4053
576.345	1970
576.402	1865
576.459	1958
576.517	1181
576.574	2704
576.631	1326
576.688	2046
576.746	1915
576.803	2600
576.860	1019
576.917	2480
576.974	1295
577.031	2048
577.089	1860
577.146	1930
577.203	1549
577.260	2375
577.317	1531
577.374	2650
577.431	1650
577.488	1797
577.545	1579
577.602	2871
577.659	2294
577.716	3421
577.773	2292
577.830	1573
577.886	2219
577.943	2067
578.000	1428
578.057	3074
578.114	3792
578.171	5065
578.227	5276
578.284	4787
578.341	3885
578.398	3055
578.454	3614
578.511	3165
578.568	3884
578.625	1989
578.681	1304
578.738	1890
578.794	1246
578.851	2553
578.908	1370
578.964	2160
579.021	2466
579.077	2161
579.134	1889
579.190	1625
579.247	1686
579.303	1895
579.360	1402
579.416	2291
579.473	1745
579.529	2155
579.586	1581
579.642	1745
579.698	2032
579.755	2950
579.811	2560
579.867	2371
579.924	2324
579.980	3610
580.036	4770
580.093	6993
580.149	9797
580.205	10320
580.261	7400
580.317	5439
580.374	4168
580.430	4173
580.486	3564
580.542	2286
580.598	2498
580.619	2422
580.654	2292
580.692	2584
580.710	2731
580.765	2631
580.767	2630
580.823	2488
580.838	2464
580.879	2374
580.911	1652
580.935	1143
580.984	1998
580.991	2120
581.047	2579
581.057	2586
581.103	2590
581.130	3115
581.159	3681
581.203	3825
581.215	3868
581.270	3449
581.276	3366
581.326	2577
581.349	2611
581.382	2709
581.422	3009
581.438	3130
581.494	2294
581.494	2287
581.550	1489
581.567	1766
581.606	2381
581.640	1660
581.661	1254
581.713	3507
581.717	3682
581.773	2948
581.786	2822
581.829	2437
581.859	2294
581.885	2210
581.932	2517
581.940	2568
581.996	2648
582.004	2643
582.052	2500
582.077	2608
582.107	2828
582.150	2612
582.163	2528
582.219	2447
582.223	2438
582.274	2379
582.296	2381
582.330	2389
582.368	2537
582.386	2625
582.441	2491
582.441	2490
582.497	1893
582.514	2159
582.552	2974
582.587	2974
582.608	2880
582.659	2561
582.663	2536
582.719	2384
582.732	2297
582.774	2124
582.805	2148
582.830	2178
582.877	3176
582.885	3331
582.941	2577
582.950	2668
582.996	3114
583.023	3431
583.052	3889
583.095	4275
583.107	4372
583.162	5421
583.168	5504
583.218	6049
583.240	5493
583.273	4659
583.313	3915
583.328	3674
583.384	4074
583.385	4033
583.439	2769
583.458	2982
583.494	3324
583.531	2477
583.549	2162
583.603	2925
583.605	2935
583.660	2292
583.676	2101
583.715	1725
583.748	1864
583.770	2168
583.820	2893
583.825	2915
583.881	2614
583.893	2541
583.936	2342
583.965	2220
583.991	2214
584.038	2400
584.046	2385
584.101	1758
584.110	1659
584.156	1486
584.183	2253
584.211	2794
584.255	2142
584.266	2113
584.321	2111
584.328	2164
584.376	2245
584.400	2514
584.431	2887
584.472	2558
584.486	2424
584.541	2206
584.545	2216
584.596	2326
584.617	2182
584.651	2384
584.689	3135
584.706	3190
584.761	2747
584.762	2745
584.816	2822
584.834	2725
584.871	2658
584.906	2983
584.926	2963
584.978	2295
584.980	2287
585.035	2769
585.051	2919
585.090	3262
585.123	3268
585.145	3163
585.195	3163
585.200	3204
585.254	3698
585.267	4028
585.309	4987
585.340	5193
585.364	5135
585.412	3464
585.419	3241
585.473	3796
585.484	3645
585.528	3118
585.556	3238
585.583	3423
585.628	4282
585.637	4557
585.692	6468
585.700	6660
585.747	7157
585.772	6599
585.801	5387
585.845	3662
585.856	3407
585.910	3368
585.917	3370
585.965	3389
585.989	3239
586.019	3233
586.061	3848
586.074	3934
586.128	3154
586.133	3203
586.183	4031
586.205	4101
586.237	3942
586.277	3652
586.292	3737
586.346	3605
586.349	3661
586.401	3955
586.421	3751
586.455	4007
586.493	5116
586.509	5537
586.564	6038
586.565	6102
586.618	9585
586.637	9224
586.672	6635
586.709	4780
586.727	4327
586.781	3788
586.781	3787
586.835	4234
586.853	4183
586.889	4316
586.925	4461
586.944	4403
586.996	4876
586.998	4887
587.052	4925
587.068	4817
587.106	4553
587.140	4580
587.161	4747
587.212	4950
587.215	4938
587.269	4771
587.284	4705
587.323	4603
587.356	4820
587.377	5049
587.427	5570
587.431	5613
587.485	6046
587.499	6119
587.539	5838
587.571	5680
587.593	5930
587.643	6871
587.648	6913
587.702	6736
587.715	6836
587.755	7287
587.786	7528
587.810	7640
587.858	7889
587.864	7947
587.917	9152
587.930	9313
587.971	9687
588.001	10128
588.025	10745
588.073	12165
588.079	12311
588.133	13727
588.145	14209
588.187	15878
588.217	16751
588.241	17589
588.288	19904
588.295	20289
588.348	23720
588.360	24561
588.402	27936
588.431	30677
588.456	32864
588.503	37642
588.510	38417
588.564	46112
588.575	48170
588.617	57019
588.646	64374
588.671	71347
588.718	89943
588.725	94454
588.778	139940
588.789	153048
588.832	242478
588.861	314703
588.886	422969
588.932	649607
588.939	668397
588.993	718470
589.004	712017
589.047	442939
589.075	280606
589.100	210058
589.147	110821
589.154	105773
589.207	80556
589.218	76457
589.261	73267
589.290	74036
589.314	77657
589.361	90845
589.368	95818
589.421	147609
589.433	162304
589.475	281982
589.504	381410
589.528	483209
589.576	642444
589.582	622868
589.635	352568
589.647	300834
589.689	159010
589.718	76092
589.742	61130
589.790	38081
589.795	36809
589.849	27807
589.861	26101
589.902	23204
589.932	20634
589.955	18289
590.004	14566
590.009	14432
590.062	13314
590.075	13053
590.115	11714
590.146	10943
590.168	10635
590.218	9917
590.222	9847
590.275	9083
590.289	8941
590.328	8735
590.360	8509
590.381	8185
590.431	7494
590.435	7475
590.488	7329
590.503	7307
590.541	7105
590.574	6984
590.594	7035
590.645	7350
590.647	7313
590.700	6167
590.716	5844
590.753	6236
590.787	6681
590.806	6511
590.859	6204
590.859	6196
590.912	5783
590.930	5660
590.965	5498
591.001	5476
591.018	5519
591.071	5536
591.072	5541
591.124	4784
591.143	4566
591.177	5007
591.214	5574
591.230	5549
591.283	5223
591.285	5223
591.336	5950
591.356	6226
591.389	6056
591.427	5816
591.442	5700
591.495	5328
591.498	5302
591.547	5016
591.569	4918
591.600	4959
591.640	4873
591.653	4881
591.706	5180
591.711	5209
591.759	5221
591.782	5186
591.811	4955
591.853	4668
591.864	4645
591.917	4494
591.924	4483
591.969	4812
591.995	5034
592.022	5224
592.066	5533
592.075	5487
592.127	5231
592.137	5195
592.180	5275
592.208	5282
592.233	4787
592.279	3939
592.285	3955
592.338	4193
592.350	4257
592.390	4233
592.421	4233
592.443	4453
592.491	4967
592.495	4896
592.548	4026
592.562	3806
592.600	4119
592.633	4409
592.653	4106
592.704	3350
592.705	3387
592.775	4391
592.846	4623
592.916	4293
592.987	4816
593.058	4476
593.128	3923
593.199	4167
593.270	4092
593.341	3700
593.411	3579
593.482	3841
593.553	4500
593.623	3888
593.694	3523
593.764	4068
593.835	3576
593.906	3886
593.976	3775
594.047	3864
594.117	4642
594.188	4596
594.258	3872
594.329	3007
594.399	3571
594.470	3894
594.540	3572
594.611	3844
594.681	4141
594.751	3788
594.822	3911
594.892	3858
594.963	3677
595.033	3940
595.103	3375
595.174	4584
595.244	5973
595.314	6257
595.384	2977
595.455	3828
595.525	4002
595.595	3327
595.665	4341
595.736	3362
595.806	4201
595.876	2744
595.946	3432
596.016	3755
596.087	3212
596.157	3454
596.227	2802
596.297	4067
596.367	3486
596.437	4478
596.507	4728
596.577	6544
596.647	4406
596.717	3826
596.787	3182
596.857	3903
596.927	3466
596.997	3398
597.067	3562
597.137	4723
597.207	3642
597.277	3461
597.347	4023
597.417	3628
597.487	4201
597.557	4077
597.626	3971
597.696	4439
597.766	3914
597.836	6246
597.906	3929
597.975	4263
598.045	3572
598.115	3399
598.185	3693
598.254	5065
598.324	3821
598.394	4344
598.464	3281
598.533	3893
598.603	3826
598.672	3186
598.742	4435
598.812	4046
598.881	3697
598.951	3435
599.020	2431
599.090	3835
599.159	3328
599.229	3395
599.299	2454
599.368	3600
599.437	3739
599.507	3816
599.576	3547
599.646	4343
599.715	4391
599.785	2942
599.854	3409
599.924	4372
599.993	3623
600.062	3153
600.132	3063
600.201	2824
600.270	3083
600.340	3827
600.409	3476
600.478	3593
600.547	3304
600.617	3301
600.686	3028
600.755	4101
600.824	2758
600.894	3557
600.963	3693
601.032	3133
601.101	2986
601.170	2865
601.239	2360
601.308	3478
601.378	3089
601.447	3156
601.516	2568
601.585	3569
601.654	4054
601.723	3636
601.792	2517
601.861	3779
601.930	4719
601.999	3765
602.068	3120
602.137	4434
602.206	3140
602.275	2916
602.343	3210
602.412	3682
602.481	2427
602.550	2612
602.619	2344
602.688	3403
602.756	2156
602.825	3397
602.894	3187
602.963	2349
603.032	3201
603.100	2371
603.169	2231
603.238	2087
603.307	2793
603.375	3418
603.444	3192
603.513	3255
603.581	2598
603.650	3784
603.719	2794
603.787	2523
603.856	3049
603.924	2803
603.993	3006
604.061	1941
604.130	2807
604.198	2825
604.267	3379
604.335	2324
604.404	3077
604.472	3012
604.541	1749
604.609	2801
604.678	2103
604.746	2975
604.815	3125
604.883	2906
604.951	2736
605.020	2863
605.088	2613
605.156	2627
605.225	2980
605.293	2516
605.361	1948
605.429	2880
605.498	3138
605.566	2695
605.634	2915
605.702	2756
605.771	2759
605.839	2776
605.907	2657
605.975	2946
606.043	2396
606.111	3141
606.180	2454
606.248	3719
606.316	4483
606.384	2252
606.452	3416
606.520	4113
606.588	3508
606.656	2440
606.724	2010
606.792	2484
606.860	1778
606.928	1735
606.996	2207
607.064	1740
607.132	2064
607.200	2805
607.267	2121
607.335	1998
607.403	2182
607.471	2046
607.539	1987
607.607	2377
607.674	2401
607.742	2360
607.810	1401
607.878	1701
607.946	2500
608.013	1573
608.081	2365
608.149	2427
608.216	1652
608.284	2539
608.352	2359
608.419	1860
608.487	3928
608.555	2073
608.622	2522
608.690	2025
608.757	1830
608.825	2583
608.893	2344
608.960	2456
609.028	2928
609.095	4946
609.163	2252
609.230	2050
609.298	3057
609.365	2881
609.432	3119
609.500	2509
609.567	2175
609.635	2626
609.702	2364
609.769	2657
609.837	2511
609.904	3105
609.971	2016
610.039	4767
610.106	4501
610.173	7448
610.241	19230
610.308	31362
610.375	22910
610.442	5063
610.509	3048
610.577	3417
610.644	1947
610.711	2645
610.778	2180
610.845	2830
610.912	2666
610.980	3603
611.047	4287
611.114	4460
611.181	2438
611.248	1897
611.315	3620
611.382	2290
611.449	1994
611.516	3225
611.583	2249
611.650	2635
611.717	2104
611.784	1626
611.851	1771
611.918	3028
611.984	2973
612.051	4626
612.118	6935
612.185	14934
612.252	8890
612.319	2960
612.386	2392
612.452	2808
612.519	2922
612.586	3977
612.653	2992
612.719	2607
612.786	2057
612.853	2009
612.919	1582
612.986	3276
613.053	1912
613.120	1704
613.186	1422
613.253	3792
613.319	1857
613.386	2695
613.453	2500
613.519	3734
613.586	2436
613.652	6066
613.719	3657
613.785	3140
613.852	2257
613.918	2369
613.985	4593
614.051	5432
614.118	16499
614.184	14752
614.250	2869
614.317	3156
614.383	1552
614.449	1770
614.516	2596
614.582	2701
614.648	1393
614.715	3495
614.781	2002
614.847	2472
614.914	1733
614.980	2002
615.046	2212
615.112	2271
615.179	1220
615.245	2833
615.311	2270
615.377	2703
615.443	2950
615.509	2330
615.575	2929
615.642	1822
615.708	2866
615.774	2710
615.840	2535
615.906	3474
615.972	5129
616.038	6670
616.104	11952
616.170	21120
616.236	15968
616.302	7196
616.368	3217
616.434	1877
616.500	3283
616.565	3715
616.631	3449
616.697	2328
616.763	2796
616.829	3220
616.895	5302
616.961	3709
617.026	4035
617.092	1931
617.158	2863
617.224	2530
617.289	2674
617.355	2531
617.421	1398
617.487	3076
617.552	2341
617.618	1850
617.684	911
617.749	3649
617.815	2064
617.880	2510
617.946	2018
618.012	3023
618.077	2307
618.143	2038
618.208	1960
618.274	2844
618.339	2425
618.405	1816
618.470	2594
618.536	2660
618.601	2939
618.667	2994
618.732	2328
618.798	3091
618.863	2245
618.928	1931
618.994	3401
619.059	3883
619.124	3952
619.190	2723
619.255	2149
619.320	2500
619.386	2368
619.451	1578
619.516	2170
619.581	2003
619.647	2392
619.712	2998
619.777	2614
619.842	2575
619.907	2295
619.972	2262
620.038	2672
620.103	1775
620.168	1769
620.233	2547
620.298	1704
620.363	2742
620.428	2727
620.493	2201
620.558	1952
620.623	1991
620.688	1671
620.753	2311
620.818	1290
620.883	2460
620.948	2193
621.013	2220
621.078	2263
621.143	1159
621.207	4538
621.272	2832
621.337	2870
621.402	2949
621.467	3482
621.532	4329
621.596	4142
621.661	3018
621.726	3192
621.791	2794
621.855	3149
621.920	4332
621.985	3491
622.049	3811
622.114	2725
622.179	2922
622.243	2768
622.308	2314
622.373	4809
622.437	3479
622.502	2578
622.566	3535
622.631	2291
622.695	4368
622.760	3016
622.824	3730
622.889	2557
622.953	3708
623.018	6186
623.082	4785
623.147	3172
623.211	2891
623.276	2454
623.340	2165
623.404	3186
623.469	2573
623.533	2978
623.597	2422
623.662	2352
623.726	2222
623.790	2942
623.854	2314
623.919	2669
623.983	2989
624.047	3035
624.111	2979
624.176	2396
624.240	3214
624.304	3244
624.368	2247
624.432	2237
624.496	3075
624.560	3419
624.625	2324
624.689	3168
624.753	2702
624.817	2942
624.881	2378
624.945	2126
625.009	3493
625.073	2298
625.137	2899
625.201	3853
625.265	3721
625.329	2700
625.393	3384
625.456	2274
625.520	2573
625.584	2518
625.648	3760
625.712	5986
625.776	12836
625.839	14688
625.903	5288
625.967	2151
626.031	6570
626.095	8080
626.158	3060
626.222	1629
626.286	2863
626.349	875
626.413	1434
626.477	3765
626.540	1650
626.604	1733
626.668	2720
626.731	1732
626.795	1816
626.858	2340
626.922	1710
626.986	2751
627.049	1147
627.113	2870
627.176	2499
627.240	1809
627.303	1683
627.366	1506
627.430	2139
627.493	2261
627.557	1218
627.620	3680
627.684	1502
627.747	2466
627.810	678
627.874	2059
627.937	662
628.000	3564
628.064	2716
628.127	-3
628.190	2232
628.253	1225
628.317	1685
628.380	1734
628.443	2266
628.506	1579
628.569	2245
628.632	1107
628.696	1106
628.759	1230
628.822	1723
628.885	521
628.948	1905
629.011	1620
629.074	2490
629.137	1253
629.200	1511
629.263	2082
629.326	1281
629.389	1329
629.452	1104
629.515	2510
629.578	1335
629.641	1620
629.704	1351
629.767	679
629.830	2448
629.892	1243
629.955	1690
630.018	2770
630.081	1038
630.144	2904
630.207	669
630.269	2806
630.332	1632
630.395	2090
630.458	1962
630.520	309
630.583	1692
630.646	2029
630.708	977
630.771	495
630.834	2155
630.896	914
630.959	791
631.021	411
631.084	952
631.146	1521
631.209	1715
631.272	1011
631.334	1506
631.397	691
631.459	172
631.522	1205
631.584	898
631.646	1713
631.709	911
631.771	1778
631.834	1353
631.896	1620
631.958	1061
632.021	2112
632.083	-377
632.145	1564
632.208	755
632.270	1112
632.332	1975
632.395	715
632.457	1365
632.519	397
632.581	1983
632.643	-464
632.706	2480
632.768	-291
632.830	1684
632.892	548
632.954	558
633.016	1650
633.078	1055
633.141	315
633.203	1041
633.265	1432
633.327	1022
633.389	618
633.451	836
633.513	760
633.575	1454
633.637	1156
633.698	1842
633.760	1281
633.822	990
633.884	437
633.946	949
634.008	-10
634.070	1538
634.132	2059
634.193	1669
634.255	971
634.317	974
634.379	635
634.441	582
634.502	846
634.564	1046
634.626	700
634.687	876
634.749	1386
634.811	2109
634.873	199
634.934	923
634.996	2031
635.057	255
635.119	570
635.181	1105
635.242	1128
635.304	-867
635.365	2781
635.427	148
635.488	573
635.550	588
635.611	1214
635.673	-592
635.734	2075
635.796	1054
635.857	1751
635.918	556
635.980	569
636.041	319
636.102	877
636.164	860
636.225	1556
636.286	-268
636.348	457
636.409	1323
636.470	-108
636.531	1469
636.593	914
636.654	1886
636.715	1043
636.776	985
636.838	-181
636.899	1600
636.960	269
637.021	184
637.082	96
637.143	1295
637.204	-110
637.265	-20
637.326	294
637.387	789
637.448	-1330
637.509	1372
637.570	-534
637.631	1182
637.692	-550
637.753	-266
637.814	59
637.875	659
637.936	1146
637.997	-307
638.058	959
638.119	908
638.179	-442
638.240	132
638.301	-247
638.362	-600
638.423	-651
638.483	2065
638.544	-985
638.605	-29
638.666	-806
638.726	834
638.787	1045
638.848	67
638.908	752
638.969	-35
639.030	675
639.090	-493
639.151	-724
639.211	734
639.272	1017
639.332	2513
639.393	1069
639.453	-171
639.514	332
639.574	834
639.635	-106
639.695	895
639.756	-860
639.816	693
639.877	50
639.937	2315
639.997	3046
640.058	-86
640.118	-825
640.178	2168
640.239	433
640.299	215
640.359	65
640.420	438
640.480	-130
640.540	92
640.600	-523
640.661	466
640.721	-876
640.781	1785
640.841	-1414
640.901	1620
640.961	726
641.021	334
641.082	-51
641.142	1186
641.202	2098
641.262	-406
641.322	1044
641.382	-917
641.442	899
641.502	-67
641.562	590
641.622	-377
641.682	-66
641.742	290
641.802	-146
641.861	254
641.921	316
641.981	1115
642.041	901
642.101	971
642.161	-987
642.221	-299
642.280	48
642.340	79
642.400	-1554
642.460	1479
642.519	-67
642.579	-430
642.639	711
642.698	-1974
642.758	1818
642.818	638
642.877	-1152
642.937	707
642.997	242
643.056	1325
643.116	-542
643.175	1869
643.235	-605
643.294	550
643.354	592
643.414	-144
643.473	-241
643.532	-945
643.592	-38
643.651	939
643.711	1970
643.770	2674
643.830	5679
643.889	14371
643.948	2709
644.008	800
644.067	-153
644.126	-722
644.186	-457
644.245	1152
644.304	-1065
644.363	1310
644.423	-308
644.482	772
644.541	389
644.600	-1387
644.659	134
644.719	-360
644.778	-538
644.837	132
644.896	1039
644.955	2633
645.014	320
645.073	857
645.132	-35
645.191	-632
645.250	-866
645.309	1988
645.368	-429
645.427	600
645.486	-740
645.545	728
645.604	-206
645.663	718
645.722	241
645.781	288
645.840	370
645.898	-134
645.957	767
646.016	-1100
646.075	1636
646.134	1757
646.192	5408
646.251	9588
646.310	-111
646.369	399
646.427	-795
646.486	-589
646.545	198
646.603	234
646.662	220
646.721	-185
646.779	-1027
646.838	-556
646.896	-77
646.955	623
647.014	-108
647.072	-407
647.131	1209
647.189	-32
647.248	-842
647.306	81
647.365	459
647.423	-1897
647.481	647
647.540	-1685
647.598	-385
647.657	-270
647.715	360
647.773	-665
647.832	130
647.890	-1752
647.948	-732
648.007	1032
648.065	-986
648.123	-447
648.181	875
648.240	721
648.298	-201
648.356	-567
648.414	115
648.472	-303
648.531	-300
648.589	387
648.647	-388
648.705	-148
648.763	-251
648.821	319
648.879	27
648.937	-306
648.995	-292
649.053	-573
649.111	-597
649.169	767
649.227	552
649.285	1393
649.343	3641
649.401	2928
649.459	3470
649.516	2888
649.574	369
649.632	6279
649.690	7717
649.748	1863
649.806	-214
649.863	2557
649.921	1940
649.979	-851
650.037	933
650.094	-1222
650.152	-370
650.210	-318
650.268	176
650.325	349
650.383	-1062
650.440	-1230
650.498	230
650.556	-607
650.613	-383
650.671	-469
650.728	-422
650.786	270
650.843	-256
650.901	-1438
650.958	-432
651.016	-109
651.073	-446
651.131	-451
651.188	-1378
651.246	536
651.303	-901
651.360	-15
651.418	-928
651.475	148
651.532	-1721
651.590	828
651.647	-1087
651.704	-989
651.762	-828
651.819	10
651.876	-1004
651.933	-278
651.990	-86
652.048	-1252
652.105	-1144
652.162	61
652.219	-705
652.276	1260
652.333	-451
652.390	-1544
652.448	-446
652.505	-1029
652.562	-145
652.619	62
652.676	381
652.733	1888
652.790	-815
652.847	-899
652.904	-730
652.961	-1465
653.017	-1723
653.074	640
653.131	-854
653.188	-1157
653.245	-753
653.302	-615
653.359	-1021
653.415	74
653.472	-984
653.529	-231
653.586	-1029
653.642	-484
653.699	-395
653.756	-897
653.813	-1058
653.869	-767
653.926	-1549
653.983	-408
654.039	-450
654.096	-211
654.152	-23
654.209	-1105
654.266	1
654.322	-515
654.379	-148
654.435	153
654.492	-1292
654.548	-228
654.605	-239
654.661	1106
654.717	-456
654.774	-83
654.830	-225
654.887	-377
654.943	-1425
655.000	341
655.056	-53
655.112	97
655.168	-1543
655.225	-965
655.281	-374
655.337	-239
655.394	-196
655.450	-204
655.506	-233
655.562	101
655.618	718
655.675	-603
655.731	-1054
655.787	-1101
655.843	121
655.899	-1413
655.955	-435
656.011	87
656.067	-1373
656.123	-222
656.179	-667
656.235	704
656.291	-2049
656.347	559
656.403	-1069
656.459	-447
656.515	140
656.571	-235
656.627	-150
656.683	-485
656.739	-113
656.795	-194
656.850	-477
656.906	-419
656.962	62
657.018	-1292
657.074	-565
657.129	-638
657.185	-521
657.241	-651
657.297	-719
657.352	-8
657.408	-1167
657.464	-628
657.519	-286
657.575	-1581
657.630	-1216
657.686	-105
657.742	-1708
657.797	-195
657.853	-1608
657.908	314
657.964	-1341
658.019	-543
658.075	-483
658.130	25
658.186	-1373
658.241	-644
658.297	-905
658.352	-991
658.407	-420
658.463	-1181
658.518	-742
658.573	-308
658.629	-2147
658.684	-616
658.739	-215
658.795	-1389
658.850	-475
658.905	-776
658.960	-328
659.016	-958
659.071	-1258
659.126	-473
659.181	-777
659.236	1116
659.291	194
659.346	-7
659.401	-705
659.457	398
659.512	-769
659.567	1145
659.622	-1437
659.677	-969
659.732	-1874
659.787	-829
659.842	-1355
659.897	-1271
659.952	-528
660.007	-883
660.061	-646
660.116	-1254
660.171	-1350
660.226	-620
660.281	373
660.336	-908
660.391	410
660.445	-1027
660.500	-1324
660.555	-1307
660.610	-1082
660.664	-399
660.719	-1263
660.774	-161
660.828	-432
660.883	-485
660.938	-634
660.992	-1495
661.047	-797
661.101	-516
661.156	-686
661.211	-913
661.265	-378
661.320	-1195
661.374	-1056
661.429	-1339
661.483	-432
661.538	-1213
661.592	-1369
661.647	-1375
661.701	-799
661.755	-118
661.810	-1306
661.864	-1352
661.919	-1117
661.973	-524
662.027	-1508
662.081	-691
662.136	-1882
662.190	-212
662.244	-711
662.299	-939
662.353	-676
662.407	-1101
662.461	-699
662.515	-226
662.569	-1466
662.624	736
662.678	-1076
662.732	-1148
662.786	-1031
662.840	-670
662.894	-881
662.948	-996
663.002	-1134
663.056	-684
663.110	-1668
663.164	-1555
663.218	-53
663.272	-163
663.326	-687
663.380	-1023
663.434	-267
663.488	-1502
663.542	-1447
663.595	-483
663.649	-303
663.703	-33
663.757	-1038
663.811	-864
663.864	-1447
663.918	593
663.972	-1612
664.026	-661
664.079	-1266
664.133	-446
664.187	-727
664.240	-1308
664.294	-671
664.348	102
664.401	-452
664.455	-902
664.508	-1005
664.562	-391
664.615	-249
664.669	-1072
664.722	-357
664.776	-1049
664.829	-628
664.883	-717
664.936	-1280
664.990	-462
665.043	-391
665.097	-856
665.150	-275
665.203	-1607
665.257	-804
665.310	-661
665.363	-673
665.417	-889
665.470	-616
665.523	-458
665.576	-947
665.630	-760
665.683	-478
665.736	-684
665.789	-1384
665.842	-550
665.895	-1117
665.949	-421
666.002	-811
666.055	-31
666.108	-458
666.161	-765
666.214	-797
666.267	-105
666.320	-922
666.373	-423
666.426	-997
666.479	-1095
666.532	-513
666.585	-992
666.638	-114
666.691	-192
666.744	-401
666.796	-177
666.849	-789
666.902	-404
666.955	-795
667.008	-153
667.060	-1480
667.113	-1296
667.166	-1132
667.219	-1129
667.271	-826
667.324	-737
667.377	-689
667.430	236
667.482	-706
667.535	-191
667.587	-73
667.640	334
667.693	-987
667.745	-164
667.798	-344
667.850	-434
667.903	-750
667.955	-744
668.008	-1670
668.060	-304
668.113	-697
668.165	-261
668.218	-841
668.270	-808
668.322	-798
668.375	-276
668.427	-617
668.479	-796
668.532	-967
668.584	-953
668.636	-1568
668.689	-539
668.741	-1028
668.793	469
668.845	-901
668.898	-434
668.950	-585
669.002	142
669.054	-1457
669.106	-1711
669.158	-255
669.211	-543
669.263	-1084
669.315	-146
669.367	-158
669.419	-568
669.471	810
669.523	-924
669.575	-86
669.627	-59
669.679	-1032
669.731	-107
669.783	-537
669.835	-63
669.886	-920
669.938	-522
669.990	493
670.042	-493
670.094	649
670.146	128
670.197	-898
670.249	481
670.301	1166
670.353	2473
670.404	4210
670.456	6964
670.508	13072
670.560	22191
670.611	40117
670.663	70691
670.715	170785
670.766	268766
670.818	78907
670.869	12958
670.921	5933
670.972	3560
671.024	2050
671.075	1474
671.127	783
671.178	400
671.230	-118
671.281	64
671.333	606
671.384	-1005
671.436	-769
671.487	528
671.538	-348
671.590	605
671.641	-84
671.692	-386
671.744	-54
671.795	494
671.846	-765
671.897	-318
671.949	-795
672.000	-584
672.051	-672
672.102	348
672.153	-1251
672.204	-388
672.256	-712
672.307	-533
672.358	-315
672.409	-1218
672.460	-317
672.511	-904
672.562	-1260
672.613	-1095
672.664	-1556
672.715	-889
672.766	-607
672.817	-741
672.868	-1898
672.919	-1175
672.970	-380
673.021	-761
673.071	-1302
673.122	-306
673.173	-1555
673.224	-812
673.275	-1220
673.326	-1177
673.376	-1059
673.427	-727
673.478	-1276
673.528	-439
673.579	-1013
673.630	-1358
673.680	-153
673.731	-685
673.782	-1121
673.832	-766
673.883	-225
673.934	-450
673.984	-1506
674.035	-1123
674.085	-1140
674.136	-442
674.186	-602
674.237	-601
674.287	-133
674.338	-1339
674.388	-1173
674.438	-891
674.489	-1402
674.539	-1028
674.589	-976
674.640	-663
674.690	-1583
674.740	-1147
674.791	-545
674.841	-345
674.891	-1248
674.942	-896
674.992	-1509
675.042	-1314
675.092	-371
675.142	-1067
675.193	-731
675.243	-1009
675.293	-1138
675.343	-1432
675.393	-1340
675.443	60
675.493	-807
675.543	-1837
675.593	-1814
675.643	-470
675.693	-1540
675.743	-340
675.793	-506
675.843	-1284
675.893	-1685
675.943	-1041
675.993	-1388
676.043	-606
676.093	-901
676.142	-1349
676.192	-882
676.242	-873
676.292	-1714
676.341	-1387
676.391	-1532
676.441	-1382
676.491	-956
676.540	-933
676.590	-236
676.640	-1544
676.689	-1383
676.739	-1602
676.789	-1058
676.838	-1187
676.888	-301
676.937	-829
676.987	-1000
677.037	-1498
677.086	-1549
677.136	-1026
677.185	-1291
677.235	-1368
677.284	-773
677.333	-285
677.383	-1404
677.432	-1732
677.482	-1046
677.531	-839
677.580	-1380
677.630	-1436
677.679	-1659
677.728	-891
677.778	-1373
677.827	-1685
677.876	-1173
677.925	-1153
677.975	-104
678.024	-1700
678.073	-1532
678.122	-918
678.171	-1375
678.220	-1061
678.269	-670
678.319	-1190
678.368	-1050
678.417	-563
678.466	-1201
678.515	-1146
678.564	-866
678.613	-1174
678.662	-1265
678.711	-537
678.760	-1487
678.809	-1086
678.857	-1310
678.906	-1265
678.955	-985
679.004	-781
679.053	-1750
679.102	-1064
679.151	-1512
679.199	-1825
679.248	-516
679.297	-32
679.346	-1193
679.394	-1230
679.443	-1218
679.492	-736
679.540	-646
679.589	-1675
679.638	-1274
679.686	-938
679.735	-1104
679.784	-1994
679.832	-1354
679.881	-1660
679.929	-1808
679.978	-2049
680.026	-1160
680.075	-1120
680.123	-980
680.172	-1300
680.220	-686
680.268	-322
680.317	-1955
680.365	-1295
680.414	-1507
680.462	-919
680.510	-1155
680.559	-1198
680.607	-1327
680.655	-1728
680.703	-1475
680.752	-397
680.800	-1368
680.848	-507
680.896	-1451
680.945	-1341
680.993	-1199
681.041	-1098
681.089	-899
681.137	-889
681.185	-1000
681.233	-661
681.258	-968
681.281	-1275
681.329	-1265
681.377	-1272
681.380	-1220
681.425	-582
681.473	-684
681.502	-992
681.521	-1240
681.569	-1558
681.617	-811
681.624	-955
681.665	-2005
681.713	-881
681.745	-737
681.761	-689
681.809	-543
681.857	-1387
681.867	-1256
681.904	-868
681.952	-1494
681.989	-875
682.000	-714
682.048	-1154
682.096	-35
682.111	-284
682.143	-854
682.191	-1067
682.233	355
682.239	554
682.286	-44
682.334	-707
682.354	-526
682.382	-312
682.430	-107
682.476	-863
682.477	-892
682.525	-993
682.572	-1220
682.598	-709
682.620	-305
682.667	-4
682.715	161
682.720	110
682.763	-487
682.810	-688
682.841	10
682.857	330
682.905	-207
682.952	-401
682.963	-351
683.000	-206
683.047	300
683.085	939
683.095	1097
683.142	-233
683.190	-323
683.206	-299
683.237	-264
683.284	630
683.328	97
683.332	35
683.379	401
683.426	182
683.449	74
683.473	-35
683.521	411
683.568	402
683.571	391
683.615	61
683.662	428
683.693	673
683.709	795
683.757	251
683.804	644
683.814	539
683.851	101
683.898	1196
683.936	1094
683.945	1067
683.992	570
684.039	860
684.057	867
684.086	847
684.133	456
684.179	600
684.180	593
684.227	869
684.274	661
684.300	872
684.321	1051
684.368	297
684.415	643
684.422	757
684.462	1310
684.509	275
684.543	911
684.556	1149
684.603	1388
684.649	678
684.665	828
684.696	1106
684.743	916
684.786	1042
684.790	1049
684.837	1705
684.883	1338
684.908	1544
684.930	1677
684.977	1481
685.023	1886
685.029	1887
685.070	1788
685.117	1407
685.150	1288
685.164	1298
685.210	1808
685.257	2198
685.272	2344
685.303	2406
685.350	1173
685.393	909
685.396	905
685.443	1524
685.490	2493
685.514	2560
685.536	2478
685.583	2068
685.629	1773
685.636	1719
685.675	1467
685.722	1499
685.757	2305
685.768	2571
685.815	2014
685.861	1793
685.878	1892
685.908	2064
685.954	2293
686.000	2634
686.000	2634
686.047	2400
686.093	2983
686.121	2851
686.139	2714
686.185	2438
686.232	2379
686.242	2408
686.278	2547
686.324	2391
686.363	2381
686.370	2393
686.416	2660
686.463	2544
686.484	2579
686.509	2582
686.555	2742
686.601	2735
686.606	2727
686.647	2655
686.693	2580
686.727	2421
686.739	2303
686.785	2789
686.831	2361
686.848	2478
686.877	2757
686.923	2378
686.969	2209
686.969	2208
687.015	2134
687.061	2617
687.090	2723
687.107	2758
687.153	2788
687.199	3276
687.211	3000
687.245	2239
687.291	2336
687.332	2865
687.336	2938
687.382	3360
687.428	2702
687.453	2973
687.474	2957
687.520	2912
687.565	2550
687.574	2532
687.611	2866
687.657	2712
687.695	3286
687.702	3361
687.748	3477
687.794	3517
687.816	3355
687.839	3106
687.885	3628
687.931	2614
687.937	2641
687.976	3018
688.022	2806
688.058	3393
688.067	3547
688.113	3326
688.158	3381
688.179	3352
688.204	3223
688.249	3204
688.295	3665
688.300	3634
688.340	3506
688.386	3945
688.421	3816
688.431	3767
688.477	3137
688.522	3526
688.542	3442
688.567	3546
688.613	4034
688.658	3983
688.663	4024
688.703	3905
688.749	3521
688.784	3660
688.794	3771
688.839	3381
688.884	3603
688.905	3558
688.930	3410
688.975	3624
689.020	3216
689.026	3170
689.065	3180
689.110	3253
689.146	3558
689.155	3602
689.201	3547
689.246	4009
689.267	3926
689.291	3895
689.336	4189
689.381	4269
689.388	4193
689.426	3742
689.471	4013
689.509	4093
689.516	4103
689.561	3705
689.606	3755
689.630	3861
689.651	3964
689.696	3532
689.741	3473
689.750	3446
689.785	3666
689.830	3636
689.871	4350
689.875	4389
689.920	4065
689.965	4090
689.992	3875
690.010	3879
690.054	3889
690.099	4172
690.112	4284
690.144	4562
690.189	4631
690.233	4553
690.233	4561
690.278	4731
690.323	4735
690.354	4595
690.367	4544
690.412	4804
690.457	4657
690.474	4865
690.501	5399
690.546	5566
690.590	6127
690.595	6154
690.635	6449
690.680	6796
690.716	6947
690.724	7167
690.769	8494
690.813	9831
690.836	10252
690.857	11644
690.902	15375
690.946	18632
690.957	19476
690.991	28199
691.035	40056
691.077	50852
691.080	50863
691.124	48398
691.168	46067
691.198	44614
691.213	41130
691.257	30919
691.301	19890
691.318	15805
691.346	14218
691.390	11586
691.434	8765
691.439	8456
691.478	8147
691.522	7759
691.559	7058
691.567	6962
691.611	6641
691.655	6699
691.680	6284
691.699	6182
691.743	6468
691.787	6419
691.800	6300
691.831	5967
691.875	6270
691.919	5934
691.921	5913
691.964	5775
692.008	6064
692.041	6022
692.052	6020
692.096	5904
692.139	6043
692.162	5961
692.183	5918
692.227	5755
692.271	5747
692.282	5683
692.315	5621
692.359	6059
692.402	5883
692.403	5897
692.447	6227
692.490	6114
692.523	6194
692.534	6149
692.578	6010
692.622	5810
692.643	5718
692.666	5763
692.709	5718
692.753	5511
692.763	5514
692.797	5781
692.840	6229
692.884	6426
692.884	6443
692.928	6545
692.971	6789
693.004	6692
693.015	6642
693.059	6634
693.102	6925
693.124	6813
693.146	6978
693.189	7012
693.233	7686
693.245	7848
693.276	8322
693.320	8778
693.363	8856
693.365	8860
693.407	10612
693.450	11715
693.485	12978
693.493	13551
693.537	16319
693.580	19000
693.605	20679
693.624	24458
693.667	32898
693.710	41475
693.725	44582
693.753	61798
693.797	88085
693.840	114942
693.845	117920
693.883	113764
693.926	108280
693.966	103372
693.970	101084
694.013	75645
694.056	49610
694.086	31641
694.099	29848
694.142	23870
694.185	17854
694.206	14953
694.229	14156
694.272	12668
694.315	11257
694.326	10856
694.358	10565
694.401	9767
694.444	9554
694.446	9497
694.487	8923
694.530	8557
694.566	8077
694.573	8044
694.616	7633
694.659	7333
694.686	7208
694.702	7174
694.745	6807
694.787	6505
694.806	6360
694.830	6616
694.873	7018
694.916	7493
694.926	7549
694.959	7169
695.002	6839
695.044	6332
695.046	6287
695.087	6296
695.130	6784
695.166	6922
695.172	6926
695.215	6675
695.258	6596
695.286	6507
695.301	6564
695.343	6564
695.386	6788
695.406	6798
695.428	6658
695.471	6376
695.514	6148
695.526	6053
695.556	6164
695.599	6304
695.641	6378
695.646	6389
695.684	6299
695.726	5885
695.766	5539
695.769	5571
695.811	5908
695.854	6181
695.886	6460
695.896	6511
695.938	6367
695.981	6385
696.005	6359
696.023	6481
696.065	6923
696.108	7137
696.125	7177
696.150	6983
696.192	6726
696.235	6614
696.245	6518
696.277	6744
696.319	7054
696.361	7303
696.365	7313
696.404	7684
696.446	8000
696.485	8194
696.488	8204
696.530	8143
696.572	7879
696.604	7809
696.614	7713
696.656	7053
696.698	6587
696.724	6221
696.740	6305
696.783	6302
696.825	6553
696.844	6589
696.867	6599
696.909	6560
696.951	6472
696.964	6463
696.992	6666
697.034	6901
697.076	7018
697.083	7041
697.118	7089
697.160	7065
697.202	7049
697.203	7025
697.244	7005
697.286	6982
697.323	6896
697.327	6877
697.369	6501
697.411	6241
697.442	5948
697.453	6068
697.494	6472
697.536	6911
697.562	7199
697.578	7255
697.620	7279
697.661	7216
697.682	7204
697.703	7371
697.744	7661
697.786	8030
697.801	8084
697.828	7970
697.869	7833
697.911	7646
697.921	7572
697.952	7385
697.994	7180
698.035	6937
698.040	6884
698.077	6708
698.118	6492
698.160	6280
698.160	6258
698.201	6517
698.243	6733
698.279	6909
698.284	6941
698.325	7056
698.367	7138
698.399	7198
698.408	7250
698.449	7326
698.491	7471
698.518	7535
698.532	7489
698.573	7239
698.614	7014
698.638	6868
698.656	7053
698.697	7420
698.738	7792
698.757	7947
698.779	7903
698.820	7767
698.862	7626
698.877	7557
698.903	7670
698.944	7797
698.985	7933
698.996	7948
699.026	7745
699.067	7433
699.116	7040
699.235	7084
699.354	7277
699.474	7561
699.593	7106
699.713	7958
699.832	7316
699.951	7112
700.070	7167
700.190	7358
700.309	6949
700.428	7924
700.547	6898
700.667	7777
700.786	6697
700.905	7257
701.024	7043
701.143	7580
701.262	6296
701.381	6377
701.500	6099
701.619	7297
701.738	6664
701.857	6503
701.976	6024
702.095	6527
702.214	7242
702.333	6893
702.452	6615
702.571	7012
702.690	6507
702.809	6328
702.928	6869
703.047	7235
703.165	5768
703.284	6036
703.403	6139
703.522	7005
703.640	6776
703.759	7041
703.878	8471
703.997	6802
704.115	5877
704.234	7285
704.353	4995
704.471	6128
704.590	5231
704.708	6429
704.827	5975
704.946	5735
705.064	5740
705.183	6138
705.301	6310
705.420	9381
705.538	8739
705.656	7498
705.775	9158
705.893	16849
706.012	21948
706.130	9301
706.249	8222
706.367	8052
706.485	7288
706.604	7430
706.722	6908
706.840	7904
706.958	9095
707.077	7727
707.195	7096
707.313	7580
707.431	6197
707.549	6432
707.668	6153
707.786	7645
707.904	6221
708.022	6057
708.140	6405
708.258	6872
708.376	7139
708.494	8200
708.612	7860
708.730	9667
708.848	9461
708.966	8572
709.084	7559
709.202	8234
709.320	8274
709.438	8078
709.556	7159
709.674	7611
709.791	8346
709.909	7321
710.027	7612
710.145	7840
710.263	8519
710.380	7670
710.498	7153
710.616	7224
710.733	7098
710.851	7061
710.969	7082
711.086	7791
711.204	7574
711.322	7134
711.439	6511
711.557	7160
711.674	7472
711.792	6915
711.909	7490
712.027	9525
712.144	7975
712.262	6947
712.379	6938
712.497	10814
712.614	10323
712.732	8706
712.849	8000
712.966	8654
713.084	8681
713.201	8525
713.318	8192
713.436	8428
713.553	8462
713.670	8469
713.787	9273
713.905	8982
714.022	8144
714.139	7884
714.256	8574
714.373	8012
714.490	8258
714.608	7921
714.725	17400
714.842	18863
714.959	8769
715.076	7945
715.193	7490
715.310	7598
715.427	6620
715.544	7143
715.661	7767
715.778	7487
715.895	7228
716.011	8265
716.128	7225
716.245	7523
716.362	7551
716.479	7884
716.596	7591
716.713	7515
716.829	6574
716.946	7500
717.063	6588
717.180	7081
717.296	6400
717.413	7261
717.530	6278
717.646	7187
717.763	5599
717.880	6487
717.996	6251
718.113	5691
718.229	5511
718.346	5827
718.462	5449
718.579	6914
718.695	9230
718.812	8021
718.928	7760
719.045	6397
719.161	5210
719.277	6204
719.394	6432
719.510	6175
719.626	5721
719.743	7493
719.859	5392
719.975	6529
720.092	7351
720.208	10965
720.324	6682
720.440	5509
720.557	6592
720.673	8492
720.789	9578
720.905	18642
721.021	8124
721.137	6395
721.253	5725
721.369	5916
721.486	5896
721.602	7979
721.718	4981
721.834	5312
721.950	5067
722.066	4907
722.181	4899
722.297	5727
722.413	5327
722.529	5518
722.645	5170
722.761	5159
722.877	5167
722.993	5090
723.108	5027
723.224	4506
723.340	4275
723.456	4958
723.571	5202
723.687	5159
723.803	5145
723.918	4572
724.034	3977
724.150	5672
724.265	4673
724.381	7318
724.497	9514
724.612	4698
724.728	3679
724.843	4420
724.959	4592
725.074	8223
725.190	8871
725.305	5180
725.421	4425
725.536	4842
725.651	4486
725.767	4107
725.882	3961
725.997	3513
726.113	3964
726.228	4556
726.343	3857
726.459	3510
726.574	4906
726.689	3981
726.804	4153
726.920	3837
727.035	4610
727.150	4035
727.265	4547
727.380	4648
727.495	4006
727.610	4430
727.725	4345
727.841	5662
727.956	9714
728.071	8431
728.186	4244
728.301	4294
728.416	4609
728.531	4035
728.645	3503
728.760	4685
728.875	4026
728.990	4816
729.105	3180
729.220	3896
729.335	3715
729.449	3995
729.564	3575
729.679	3742
729.794	4372
729.908	4138
730.023	3769
730.138	4341
730.253	3351
730.367	3440
730.482	3754
730.596	4262
730.711	4076
730.826	4782
730.940	3664
731.055	4647
731.169	2763
731.284	3624
731.398	2347
731.513	4191
731.627	2825
731.742	4064
731.856	3575
731.970	3475
732.085	2971
732.199	3815
732.313	3037
732.428	3373
732.542	5291
732.656	5375
732.771	2935
732.885	3663
732.999	2861
733.113	3801
733.227	3264
733.342	3340
733.456	2700
733.570	3395
733.684	2605
733.798	2982
733.912	2610
734.026	2602
734.140	3703
734.254	3909
734.368	4070
734.482	6734
734.596	2583
734.710	4240
734.824	2866
734.938	3006
735.052	2884
735.166	3366
735.280	3772
735.393	2996
735.507	2176
735.621	3566
735.735	5347
735.849	3509
735.962	2871
736.076	3101
736.190	3001
736.303	3210
736.417	4541
736.531	3399
736.644	2881
736.758	2987
736.872	3296
736.985	3629
737.099	4006
737.212	2250
737.326	3280
737.439	3851
737.553	2512
737.666	3286
737.780	2922
737.893	2926
738.007	2896
738.120	2600
738.233	2303
738.347	2413
738.460	2665
738.573	3738
738.687	2286
738.800	3131
738.913	3050
739.026	3568
739.140	2959
739.253	4002
739.366	3449
739.479	2246
739.592	1947
739.705	2908
739.818	2319
739.932	2717
740.045	2696
740.158	2784
740.271	2889
740.384	3654
740.497	3232
740.610	3898
740.723	3183
740.836	3017
740.949	2951
741.062	3317
741.174	2981
741.287	2674
741.400	2260
741.513	3732
741.626	2840
741.739	3060
741.851	2731
741.964	2987
742.077	3081
742.189	2117
742.302	3165
742.415	3664
742.527	2428
742.640	2599
742.753	3626
742.865	2586
742.978	2640
743.090	2871
743.203	1989
743.316	2947
743.428	2349
743.541	2970
743.653	1938
743.766	3173
743.878	2753
743.990	3093
744.103	2948
744.215	2774
744.327	2325
744.440	3757
744.552	3859
744.664	2626
744.777	2402
744.889	2227
745.001	2835
745.113	2138
745.226	1904
745.338	2988
745.450	2249
745.562	2899
745.674	2319
745.786	2577
745.898	2574
746.010	2627
746.122	1933
746.234	2806
746.347	2935
746.459	2809
746.570	1945
746.682	2611
746.794	2052
746.906	3145
747.018	1799
747.130	2925
747.242	2035
747.354	2026
747.466	3241
747.577	3218
747.689	2543
747.801	3049
747.913	2359
748.024	2009
748.136	1505
748.248	2798
748.359	2103
748.471	2588
748.583	2216
748.694	3428
748.806	3322
748.918	2986
749.029	2911
749.141	3946
749.252	2607
749.364	3676
749.475	4000
749.587	2767
749.698	2602
749.809	3341
749.921	2636
750.032	3197
750.144	1923
750.255	2588
750.366	1263
750.478	3100
750.589	2908
750.700	2629
750.811	3420
750.923	3581
751.034	4152
751.145	5349
751.256	2666
751.367	2676
751.479	2451
751.590	2356
751.701	1845
751.812	2829
751.923	3348
752.034	2840
752.145	1882
752.256	2239
752.367	2445
752.478	2779
752.589	3362
752.700	3172
752.811	2768
752.922	3451
753.032	1938
753.143	2994
753.254	1950
753.365	2247
753.476	1683
753.586	2471
753.697	2287
753.808	2528
753.919	2986
754.029	2398
754.140	2231
754.251	2754
754.361	2692
754.472	2411
754.582	3027
754.693	2641
754.804	3447
754.914	2239
755.025	2649
755.135	2151
755.246	2003
755.356	3403
755.466	2978
755.577	3472
755.687	2507
755.798	2615
755.908	3079
756.018	3959
756.129	2150
756.239	2941
756.349	3735
756.460	3365
756.570	3197
756.680	2948
756.790	3380
756.900	3570
757.011	3633
757.121	3617
757.231	2790
757.341	3696
757.451	2426
757.561	3494
757.671	2790
757.781	3140
757.891	3813
758.001	4579
758.111	3484
758.221	3507
758.331	3787
758.441	4040
758.551	3535
758.661	4678
758.771	3458
758.880	3761
758.990	3102
759.100	4809
759.210	4039
759.320	4065
759.429	3473
759.539	4495
759.649	4160
759.758	4073
759.868	4063
759.978	3844
760.087	4194
760.197	4944
760.307	3983
760.416	5517
760.526	3872
760.635	5586
760.745	4976
760.854	5102
760.964	5010
761.073	6239
761.182	5254
761.292	6006
761.401	6194
761.511	6023
761.620	5824
761.729	6523
761.839	5776
761.948	7516
762.057	6849
762.166	7472
762.276	6300
762.385	8478
762.494	6911
762.603	8109
762.712	8531
762.822	8779
762.931	9026
763.040	9739
763.149	9747
763.258	10166
763.367	10268
763.476	12495
763.585	11824
763.694	12832
763.803	12843
763.912	14911
764.021	15320
764.130	16289
764.238	16019
764.347	18398
764.456	18632
764.565	21914
764.674	23468
764.783	26401
764.891	28737
765.000	32355
765.109	36269
765.217	42822
765.326	49677
765.435	57894
765.543	71450
765.652	86544
765.761	112017
765.869	147820
765.978	203358
766.086	291230
766.195	435090
766.303	634619
766.412	670838
766.520	605176
766.629	617812
766.737	414826
766.846	276083
766.954	193393
767.062	141770
767.171	108665
767.279	83211
767.387	67765
767.496	55722
767.604	48563
767.712	40906
767.820	37475
767.928	33364
768.037	30941
768.145	30027
768.253	28894
768.361	25730
768.469	27853
768.577	27304
768.685	29353
768.793	31164
768.901	34504
769.009	40143
769.117	47758
769.225	61863
769.333	85431
769.441	124970
769.549	198858
769.657	341388
769.765	567547
769.873	575217
769.981	542862
770.088	334445
770.196	193121
770.304	127865
770.412	92067
770.519	68678
770.627	54416
770.735	44487
770.842	37308
770.950	32046
771.058	27235
771.165	23893
771.273	21730
771.380	19160
771.488	17768
771.595	15413
771.703	14460
771.810	14626
771.918	12909
772.025	12139
772.133	10647
772.240	10043
772.348	11334
772.455	9814
772.562	8848
772.670	8395
772.777	8388
772.884	7983
772.991	7841
773.099	6854
773.206	7406
773.313	6220
773.420	6856
773.528	5937
773.635	6182
773.742	5997
773.849	6323
773.956	5517
774.063	5014
774.170	4902
774.277	6176
774.384	4599
774.491	4545
774.598	4744
774.705	5131
774.812	4591
774.919	5343
775.026	4131
775.133	4444
775.239	3949
775.346	3688
775.453	3604
775.560	3071
775.667	3407
775.773	3494
775.880	3633
775.987	3900
776.093	4073
776.200	4280
776.307	3823
776.413	4313
776.520	2381
776.627	3747
776.733	3253
776.840	1641
776.946	4302
777.053	3050
777.159	3980
777.266	1897
777.372	4336
777.478	4565
777.585	3500
777.691	3099
777.798	2756
777.904	3432
778.010	3343
778.117	3920
778.223	2412
778.329	3051
778.435	2303
778.542	3185
778.648	2227
778.754	2872
778.860	2703
778.966	2800
779.072	2052
779.178	2788
779.284	1527
779.391	2535
779.497	2331
779.603	5071
779.708	5024
779.815	13853
779.920	47827
780.026	112227
780.132	19149
780.238	4164
780.344	2724
780.450	3568
780.556	2746
780.661	2588
780.767	2039
780.873	1799
780.979	1850
781.085	1873
781.190	1844
781.296	2055
781.402	1682
781.507	1873
781.613	1073
781.719	1657
781.824	1733
781.930	2276
782.035	2237
782.141	1364
782.246	1656
782.352	1425
782.457	1958
782.563	1635
782.668	2131
782.773	2313
782.879	760
782.984	2162
783.090	2497
783.195	3343
783.300	1902
783.405	2016
783.511	1795
783.616	2353
783.721	1407
783.826	1303
783.932	1658
784.037	1979
784.142	502
784.247	1075
784.352	1666
784.457	1647
784.562	1498
784.667	2248
784.772	910
784.877	721
784.982	1336
785.087	1685
785.192	1945
785.297	897
785.402	1198
785.507	1573
785.611	1086
785.716	1355
785.821	336
785.926	1099
786.031	1135
786.135	590
786.240	1015
786.345	366
786.450	1259
786.554	1761
786.659	1479
786.763	111
786.868	1425
786.973	2598
787.077	483
787.182	257
787.286	286
787.391	1505
787.495	898
787.600	1511
787.704	931
787.809	964
787.913	525
788.017	1713
788.122	1069
788.226	1937
788.330	-50
788.435	1070
788.539	460
788.643	545
788.747	1235
788.852	624
788.956	789
789.060	1142
789.164	430
789.268	349
789.372	1482
789.476	626
789.580	-486
789.684	64
789.788	861
789.892	305
789.996	1004
790.100	380
790.204	594
790.308	994
790.412	447
790.516	1592
790.620	615
790.724	1435
790.828	195
790.931	127
791.035	2005
791.139	1078
791.242	-464
791.346	1877
791.450	614
791.554	1310
791.657	-544
791.761	1368
791.864	1133
791.968	1232
792.072	455
792.175	1389
792.279	968
792.382	837
792.486	631
792.589	382
792.693	561
792.796	26
792.899	1447
793.003	598
793.106	-157
793.209	848
793.313	1412
793.416	-107
793.519	1849
793.623	1432
793.726	1230
793.829	1336
793.932	593
794.035	600
794.138	1209
794.242	1784
794.345	1285
794.448	3902
794.551	6524
794.654	26666
794.757	61758
794.860	12430
794.963	2176
795.066	1593
795.169	1269
795.272	121
795.375	617
795.477	415
795.580	1204
795.683	-110
795.786	349
795.889	302
795.991	1495
796.094	1579
796.197	-681
796.300	1782
796.402	-357
796.505	861
796.608	127
796.710	1449
796.813	-166
796.915	1049
797.018	500
797.120	820
797.223	-1096
797.326	1169
797.428	129
797.530	325
797.633	340
797.735	816
797.838	297
797.940	1865
798.042	-716
798.145	150
798.247	825
798.349	-18
798.452	7
798.554	583
798.656	-704
798.758	1546
798.860	179
798.962	-76
799.065	-261
799.167	244
799.269	2079
799.371	810
799.473	213
799.575	-461
799.677	343
799.779	1971
799.881	-325
799.983	289
800.085	204
800.187	287
800.289	-522
800.390	41
800.492	450
800.594	1336
800.696	-659
800.798	1034
800.899	320
801.001	317
801.103	-480
801.205	994
801.306	61
801.408	-481
801.509	3
801.611	253
801.713	57
801.814	164
801.916	-479
802.017	606
802.119	-456
802.220	800
802.322	-1093
802.423	1920
802.525	-835
802.626	965
802.727	485
802.829	612
802.930	-1926
803.031	1454
803.133	412
803.234	182
803.335	-368
803.436	-776
803.538	630
803.639	-323
803.740	645
803.841	-712
803.942	78
804.043	869
804.144	-1382
804.245	-683
804.346	-576
804.447	-337
804.548	207
804.649	1558
804.750	-617
804.851	474
804.952	-569
805.053	813
805.154	-567
805.255	1001
805.355	90
805.456	-246
805.557	-254
805.658	-1474
805.758	594
805.859	105
805.960	45
806.061	-308
806.161	-123
806.262	676
806.362	-662
806.463	-383
806.564	-317
806.664	-1191
806.765	-430
806.865	92
806.966	-136
807.066	-59
807.166	265
807.267	774
807.367	-703
807.468	864
807.568	-1441
807.668	335
807.769	-47
807.869	-304
807.969	-108
808.069	853
808.170	411
808.270	-46
808.370	-168
808.470	-87
808.570	-810
808.670	-38
808.770	-55
808.870	187
808.970	-343
809.070	-397
809.170	-671
809.271	173
809.370	-507
809.470	472
809.570	38
809.670	-889
809.770	-419
809.870	1000
809.970	-91
810.070	49
810.169	-1199
810.269	-748
810.369	251
810.469	-684
810.568	-847
810.668	-108
810.768	-176
810.867	176
810.967	-1318
811.066	-355
811.166	-1005
811.265	446
811.365	-708
811.464	-510
811.564	256
811.663	563
811.763	-1567
811.862	148
811.962	-275
812.061	-150
812.160	-796
812.260	232
812.359	-427
812.458	707
812.557	3018
812.657	5121
812.756	1585
812.855	619
812.954	-898
813.053	569
813.153	-718
813.252	-407
813.351	-67
813.450	-494
813.549	-775
813.648	241
813.747	-118
813.846	731
813.945	-1057
814.044	-890
814.143	-84
814.242	403
814.341	-938
814.439	553
814.538	-363
814.637	57
814.736	-922
814.835	828
814.933	-444
815.032	397
815.131	-587
815.229	-370
815.328	-645
815.427	-221
815.525	200
815.624	-180
815.722	-432
815.821	-160
815.919	-646
816.018	-786
816.116	22
816.215	-152
816.313	-349
816.412	-330
816.510	-538
816.609	1721
816.707	-962
816.805	-967
816.904	-1239
817.002	247
817.100	801
817.198	419
817.296	-1339
817.395	280
817.493	174
817.591	-388
817.689	452
817.787	299
817.885	2251
817.983	4042
818.081	10546
818.179	28676
818.277	77710
818.375	74044
818.473	15571
818.571	5708
818.669	1922
818.767	2910
818.865	2714
818.963	3233
819.061	4944
819.158	10091
819.256	24616
819.354	59234
819.452	152186
819.549	104979
819.647	21785
819.745	7629
819.842	3924
819.940	2551
820.038	1849
820.135	724
820.233	955
820.330	181
820.428	-126
820.525	980
820.623	-229
820.720	-836
820.818	502
820.915	655
821.012	-300
821.110	-949
821.207	1022
821.304	-573
821.402	117
821.499	1402
821.596	555
821.693	511
821.791	-319
821.888	-55
821.985	951
822.082	522
822.179	-116
822.276	-546
822.373	-416
822.470	220
822.567	982
822.664	-207
822.761	932
822.858	-782
822.955	-782
823.052	-18
823.149	60
823.246	-235
823.343	-531
823.440	501
823.536	-728
823.633	-352
823.730	-344
823.827	262
823.923	-933
824.020	1038
824.117	-1096
824.213	-469
824.310	175
824.407	-275
824.503	-976
824.600	-258
824.696	18
824.793	425
824.889	-1176
824.986	-564
825.082	-655
825.179	356
825.275	-594
825.371	-633
825.468	-403
825.564	-657
825.660	-323
825.757	545
825.853	843
825.949	-722
826.045	141
826.142	-500
826.238	-282
826.334	224
826.430	-599
826.526	-123
826.622	-895
826.718	-569
826.814	-933
826.910	-95
827.006	-808
827.102	-650
827.198	270
827.294	-42
827.390	-836
827.486	948
827.582	-1301
827.678	-1223
827.774	216
827.869	-334
827.965	298
828.061	-1225
828.157	-966
828.252	-247
828.348	-1644
828.444	501
828.539	-697
828.635	-293
828.731	-427
828.826	-838
828.922	42
829.017	-832
829.113	321
829.208	-475
829.304	-987
829.399	126
829.495	-1396
829.590	512
829.685	-1115
829.781	-89
829.876	-552
829.971	-581
830.066	-1205
830.162	-363
830.257	-448
830.352	-975
830.447	219
830.543	475
830.638	-1984
830.733	381
830.828	-768
830.923	-331
831.018	193
831.113	-453
831.208	-1687
831.303	-869
831.398	-401
831.493	-873
831.588	-1967
831.683	-171
831.778	-549
831.873	5
831.967	-116
832.062	-842
832.157	-1022
832.252	713
832.346	-665
832.441	386
832.536	-126
832.631	1175
832.725	785
832.820	-286
832.914	-937
833.009	-687
833.104	-1256
833.198	233
833.293	-1164
833.387	258
833.482	-762
833.576	-632
833.670	436
833.765	-338
833.859	-1106
833.954	190
834.048	-1123
834.142	-227
834.237	-1387
834.331	-159
834.425	-469
834.519	-1106
834.613	-405
834.708	-472
834.802	-1025
834.896	-206
834.990	-200
835.084	-214
835.178	-916
835.272	-942
835.366	-1201
835.460	-290
835.554	-497
835.648	-318
835.742	-1366
835.836	480
835.930	-1740
836.024	190
836.117	-121
836.211	-811
836.305	-55
836.399	-430
836.493	-1552
836.586	729
836.680	-960
836.774	-1375
836.867	357
836.961	-669
837.055	-928
837.148	-103
837.242	-196
837.335	-158
837.429	-1111
837.522	-1072
837.616	-661
837.709	1183
837.803	-830
837.896	-277
837.989	-1190
838.083	476
838.176	-467
838.269	19
838.363	-269
838.456	-715
838.549	-127
838.642	-300
838.735	1034
838.829	459
838.922	-524
839.015	109
839.108	-1429
839.201	4
839.294	-259
839.387	-394
839.480	-1560
839.573	-124
839.666	-199
839.759	-342
839.852	-930
839.945	-804
840.038	-725
840.131	-346
840.223	-576
840.316	665
840.409	-1625
840.502	-676
840.594	360
840.687	-1493
840.780	31
840.873	-324
840.965	-1234
841.058	355
841.150	338
841.243	-1294
841.336	108
841.428	-781
841.521	-862
841.613	-1113
841.706	-687
841.798	-698
841.890	-580
841.983	-511
842.075	-591
842.167	-268
842.260	-936
842.352	348
842.444	-343
842.537	598
842.629	1285
842.721	240
842.813	-799
842.905	-1230
842.997	-715
843.090	-654
843.182	128
843.274	-100
843.366	1297
843.458	4273
843.550	3138
843.642	173
843.734	-198
843.826	192
843.918	315
844.009	-412
844.101	-1159
844.193	-1218
844.285	-1053
844.377	-283
844.469	-101
844.560	-694
844.652	-1053
844.744	413
844.835	-1095
844.927	-375
845.019	-907
845.110	-507
845.202	-102
845.293	-157
845.385	-693
845.476	-707
845.568	-280
845.659	-1024
845.751	-337
845.842	-520
845.934	-684
846.025	-874
846.116	-913
846.208	-111
846.299	-1337
846.390	-620
846.482	-985
846.573	831
846.664	-712
846.755	278
846.846	203
846.937	-852
847.029	-836
847.120	-838
847.211	-1315
847.302	332
847.393	-2004
847.484	-343
847.575	-1509
847.666	-665
847.757	-1286
847.847	34
847.938	-694
848.029	-589
848.120	-1421
848.211	151
848.302	-1177
848.392	-523
848.483	-704
848.574	-368
848.664	-1432
848.755	-603
848.846	-82
848.936	-220
849.027	-1012
849.118	-719
849.208	-1423
849.299	-310
849.389	-1276
849.480	660
849.570	-543
849.661	35
849.751	-1067
849.841	147
849.932	-915
850.022	-979
850.112	-883
850.203	-1201
850.293	-1668
850.383	-1120
850.474	-963
850.564	-755
850.654	-375
850.744	-1267
850.834	-1312
850.924	-794
851.014	-839
851.104	-625
851.194	-1307
851.284	-174
851.374	-653
851.464	-1265
851.554	-1227
851.644	-1119
851.734	-135
851.824	812
851.914	-518
852.004	1010
852.094	724
852.183	-362
852.273	-437
852.363	-207
852.452	-1176
852.542	-411
852.632	-657
852.721	396
852.811	-1297
852.901	-785
852.990	-1992
853.080	275
853.169	-869
853.259	-319
853.348	-1306
853.438	-626
853.527	-591
853.617	-614
853.706	-880
853.795	307
853.885	37
853.974	1435
854.063	1940
854.152	3076
854.242	835
854.331	451
854.420	-874
854.509	-1032
854.598	-408
854.687	-368
854.777	-1084
854.866	-940
854.955	-292
855.044	-1076
855.133	-826
855.222	-921
855.311	-1737
855.400	79
855.488	-1260
855.577	-1054
855.666	-1002
855.755	680
855.844	-135
855.933	263
856.021	-969
856.110	-11
856.199	-1002
856.288	-623
856.376	-982
856.465	-643
856.554	-559
856.642	-656
856.731	-754
856.819	-782
856.908	-1688
856.996	-274
857.085	-928
857.173	-363
857.262	-925
857.350	299
857.438	-851
857.527	-551
857.615	-431
857.703	-272
857.792	-429
857.880	-149
857.968	-1435
858.056	-288
858.145	-711
858.233	-1304
858.321	-1007
858.409	795
858.497	-1076
858.585	-1862
858.673	-945
858.761	-805
858.849	-1372
858.937	-1030
859.025	-642
859.113	-117
859.201	-1215
859.289	89
859.377	-918
859.465	-544
859.552	-846
859.640	-1115
859.728	-1062
859.816	-980
859.903	-363
859.991	-809
860.079	-1458
860.166	-619
860.254	-797
860.342	-170
860.429	-1354
860.517	-723
860.604	-1438
860.692	229
860.779	-1058
860.867	-729
860.954	-813
861.042	-559
861.129	-141
861.216	-799
861.304	-1325
861.391	-381
861.478	-687
861.565	-627
861.653	-666
861.740	-1256
861.827	-878
861.914	13
862.001	-844
862.089	-1210
862.176	-856
862.263	-898
862.350	-759
862.437	-972
862.524	-1934
862.611	-1471
862.698	-589
862.785	-461
862.871	-642
862.958	-525
863.045	-1638
863.132	-1074
863.219	-800
863.306	-1058
863.392	-896
863.479	-392
863.566	-577
863.652	-935
863.739	-1087
863.826	-201
863.912	-358
863.999	-1610
864.086	-915
864.172	-1388
864.259	-941
864.345	-866
864.432	-670
864.518	-756
864.604	-915
864.691	-947
864.777	-1125
864.863	8
864.950	-635
865.036	-1658
865.122	-1095
865.209	-994
865.295	-1008
865.381	222
865.467	-1457
865.553	-571
865.639	-1901
865.726	-1204
865.812	-953
865.898	47
865.984	248
866.070	1522
866.156	2481
866.242	139
866.328	-866
866.414	-881
866.499	-783
866.585	-1093
866.671	-1509
866.757	-445
866.843	-1296
866.928	-517
867.014	-1311
867.100	-515
867.186	-1006
867.271	-857
867.357	-779
867.442	-749
867.528	-383
867.614	-1215
867.699	-800
867.785	-640
867.870	-1458
867.956	-1629
868.041	-904
868.127	3
868.212	-1128
868.297	-422
868.383	-750
868.468	-193
868.553	56
868.639	686
868.724	1703
868.809	1348
868.894	-930
868.979	-413
869.065	-565
869.150	-1204
869.235	-370
869.320	-1105
869.405	-2086
869.490	-1450
869.575	-1031
869.660	-213
869.745	-1353
869.830	-751
869.915	-1502
870.000	-235
870.085	-833
870.169	-256
870.254	-675
870.339	-1447
870.424	-1032
870.509	-356
870.593	-1146
870.678	-744
870.763	-586
870.847	-1452
870.932	-1159
871.016	-96
871.101	-1633
871.186	58
871.270	-878
871.355	-1428
871.439	-882
871.523	-657
871.608	-769
871.692	-1306
871.777	-427
871.861	-1464
871.945	-1158
872.030	-852
872.114	-950
872.198	-742
872.282	-876
872.367	-763
872.451	-1755
872.535	-454
872.619	-1712
872.703	-1374
872.787	-1665
872.871	-1150
872.955	-1281
873.039	-497
873.123	-1428
873.207	-189
873.291	-1196
873.375	-753
873.459	-1101
873.543	-576
873.627	-1144
873.711	-471
873.794	-788
873.878	-1249
873.962	-832
874.045	-1052
874.129	-1096
874.137	-1069
874.213	-798
874.245	-1015
874.296	-1372
874.352	-1209
874.380	-1126
874.460	-886
874.464	-878
874.547	-1074
874.568	-912
874.631	-413
874.676	-657
874.714	-858
874.784	-846
874.798	-846
874.881	1226
874.892	992
874.965	-635
874.999	-992
875.048	-1472
875.107	-1233
875.131	-1154
875.215	-620
875.215	-619
875.298	-446
875.323	-731
875.381	-1442
875.430	-826
875.465	-366
875.538	-570
875.548	-606
875.631	-1393
875.646	-1360
875.714	-1206
875.753	-1022
875.798	-805
875.861	-875
875.881	-887
875.964	-1331
875.968	-1283
876.047	-531
876.076	-980
876.130	-1733
876.183	-1333
876.213	-1159
876.291	-765
876.296	-725
876.379	-586
876.398	-685
876.462	-1201
876.506	-919
876.545	-619
876.613	-660
876.628	-667
876.711	-298
876.721	-333
876.794	-569
876.828	-711
876.877	-938
876.935	-797
876.960	-688
877.043	-277
877.043	-278
877.125	-595
877.150	-201
877.208	825
877.258	96
877.291	-481
877.365	36
877.374	123
877.456	-263
877.472	-302
877.539	-645
877.579	-968
877.622	-1193
877.687	-381
877.704	-201
877.787	-826
877.794	-800
877.869	-384
877.901	-681
877.952	-1150
878.008	-147
878.034	282
878.115	-903
878.117	-925
878.199	-54
878.222	-144
878.282	-425
878.329	-419
878.364	-378
878.437	-675
878.447	-711
878.529	-784
878.544	-741
878.611	-632
878.651	-544
878.694	-282
878.758	-215
878.776	-286
878.858	-763
878.865	-753
878.941	-556
878.972	-457
879.023	-288
879.078	-540
879.105	-584
879.185	-505
879.187	-505
879.269	-1052
879.292	-876
879.351	-397
879.399	-919
879.433	-1330
879.506	-724
879.516	-641
879.598	-892
879.613	-912
879.680	-983
879.720	-782
879.762	-518
879.827	-954
879.844	-1080
879.926	-898
879.933	-821
880.007	-122
880.040	-548
880.089	-1025
880.147	-490
880.171	-333
880.253	-417
880.254	-418
880.335	-257
880.360	-217
880.417	35
880.467	361
880.499	636
880.574	1410
880.580	1414
880.662	-185
880.680	-260
880.744	-319
880.787	-700
880.825	-968
880.893	-684
880.907	-633
880.989	-244
881.000	-271
881.070	-164
881.106	-238
881.152	-536
881.213	-422
881.233	-434
881.315	-891
881.319	-912
881.396	-750
881.426	-679
881.478	-710
881.532	-1020
881.559	-1139
881.639	-863
881.641	-859
881.722	-1033
881.745	-1059
881.803	-896
881.852	-692
881.885	-582
881.958	-386
881.966	-368
882.047	-119
882.064	-220
882.129	-627
882.171	-280
882.210	-88
882.277	-349
882.291	-290
882.372	-364
882.383	-310
882.454	-425
882.489	-542
882.535	-466
882.596	-195
882.616	-283
882.697	-1084
882.702	-1087
882.778	-189
882.808	-109
882.859	-491
882.914	-537
882.940	-339
883.020	-638
883.021	-641
883.102	-423
883.127	-631
883.183	-731
883.233	-387
883.264	-240
883.339	-880
883.345	-922
883.426	-328
883.445	-381
883.507	-756
883.551	-641
883.587	-259
883.657	183
883.668	185
883.749	6
883.763	-99
883.830	-562
883.869	-430
883.910	-218
883.975	-342
883.991	-478
884.072	-886
884.081	-971
884.152	-856
884.187	-632
884.233	-522
884.292	-425
884.314	-454
884.394	-612
884.398	-627
884.475	-680
884.504	-656
884.555	-556
884.610	-343
884.636	-301
884.716	-567
884.716	-565
884.797	-435
884.821	-453
884.877	-575
884.927	-594
884.958	-595
885.033	-371
885.038	-333
885.118	-139
885.139	23
885.199	-163
885.244	-581
885.279	-585
885.350	-417
885.359	-390
885.439	-85
885.456	-101
885.520	-22
885.561	314
885.600	279
885.667	-119
885.680	-158
885.760	-331
885.773	-339
885.840	36
885.878	143
885.920	53
885.984	-70
886.000	-126
886.080	-399
886.089	-412
886.160	-94
886.195	-105
886.240	-395
886.300	-514
886.320	-407
886.400	-253
886.406	-217
886.480	69
886.511	-17
886.560	-123
886.616	13
886.640	45
886.720	-209
886.722	-209
886.800	20
886.827	-21
886.879	-325
886.932	-554
886.959	-311
887.038	260
887.039	259
887.119	15
887.143	-153
887.198	-57
887.248	128
887.278	-17
887.354	-475
887.358	-479
887.437	-586
887.459	-589
887.517	-485
887.564	-540
887.596	-446
887.669	-71
887.676	-59
887.755	49
887.774	16
887.835	-27
887.880	132
887.914	-84
887.985	-796
887.994	-755
888.073	-312
888.090	-230
888.153	-494
888.195	-598
888.232	-460
888.300	-300
888.311	-256
888.391	125
888.405	167
888.470	161
888.510	147
888.549	14
888.615	-124
888.628	-79
888.708	149
888.720	176
888.787	-157
888.825	-345
888.866	-278
888.930	-176
888.945	-198
889.024	-276
889.035	-304
889.103	-337
889.140	-292
889.182	106
889.245	661
889.261	637
889.340	485
889.349	466
889.419	381
889.454	341
889.498	427
889.559	530
889.577	426
889.656	-23
889.664	-67
889.735	-107
889.768	-124
889.814	-346
889.873	-634
889.978	72
890.083	1388
890.187	-48
890.292	154
890.397	-46
890.501	-49
890.606	322
890.710	-99
890.815	-166
890.919	-217
891.024	560
891.128	74
891.233	-78
891.337	-7
891.442	1134
891.546	-334
891.650	119
891.755	-304
891.859	1572
891.963	541
892.068	-274
892.172	-831
892.276	-471
892.380	-936
892.484	-142
892.589	-492
892.693	-102
892.797	-679
892.901	286
893.005	-489
893.109	363
893.213	-147
893.317	241
893.421	-40
893.525	-229
893.629	247
893.733	502
893.837	252
893.941	54
894.045	274
894.148	-578
894.252	-86
894.356	-368
894.460	267
894.564	-232
894.667	-646
894.771	-655
894.875	321
894.978	8
895.082	-981
895.186	-42
895.289	273
895.393	746
895.496	-813
895.600	-248
895.703	153
895.807	-190
895.910	286
896.014	-1022
896.117	-395
896.221	-87
896.324	144
896.427	-600
896.531	-168
896.634	-24
896.737	-419
896.840	-58
896.944	-356
897.047	-86
897.150	-167
897.253	462
897.356	964
897.460	-65
897.563	-593
897.666	153
897.769	249
897.872	-581
897.975	-197
898.078	-161
898.181	-278
898.284	63
898.387	433
898.490	-199
898.593	-84
898.695	439
898.798	409
898.901	-60
899.004	561
899.107	-1146
899.209	-1008
899.312	-87
899.415	209
899.518	-436
899.620	-206
899.723	270
899.826	261
899.928	-309
900.031	480
900.133	-500
900.236	-698
900.338	182
900.441	355
900.543	182
900.646	92
900.748	-381
900.851	247
900.953	-44
901.055	396
901.158	-576
901.260	-524
901.362	-45
901.465	-166
901.567	-758
901.669	89
901.771	-18
901.873	129
901.976	-151
902.078	-217
902.180	-151
902.282	-274
902.384	-259
902.486	-847
902.588	270
902.690	-63
902.792	-300
902.894	-330
902.996	-672
903.098	73
903.200	-782
903.302	-375
903.404	335
903.505	-304
903.607	-87
903.709	-192
903.811	-62
903.913	-510
904.014	-10
904.116	63
904.218	-104
904.319	-151
904.421	-676
904.523	-27
904.624	8
904.726	-308
904.827	-270
904.929	-616
905.030	273
905.132	16
905.233	-359
905.335	-593
905.436	666
905.537	-499
905.639	-106
905.740	-158
905.841	170
905.943	79
906.044	-80
906.145	-167
906.247	-416
906.348	99
906.449	-128
906.550	201
906.651	113
906.752	-269
906.854	-417
906.955	-542
907.056	-417
907.157	-204
907.258	35
907.359	614
907.460	-241
907.561	-636
907.662	-576
907.762	84
907.863	-721
907.964	10
908.065	-269
908.166	-747
908.267	316
908.367	-125
908.468	-397
908.569	213
908.670	-155
908.770	749
908.871	260
908.971	-483
909.072	-182
909.173	-303
909.273	-102
909.374	-857
909.474	505
909.575	-255
909.675	-525
909.776	-17
909.876	-920
909.977	-477
910.077	-343
910.177	-852
910.278	59
910.378	-126
910.478	50
910.579	-442
910.679	-250
910.779	-471
910.879	-834
910.980	2
911.080	157
911.180	184
911.280	-73
911.380	-101
911.480	-439
911.580	-295
911.680	-124
911.780	-539
911.880	-592
911.980	-18
912.080	-469
912.180	-212
912.280	182
912.380	-80
912.480	-360
912.580	-245
912.679	-50
912.779	-1323
912.879	52
912.979	-1049
913.078	178
913.178	-14
913.278	26
913.377	-384
913.477	-455
913.577	-436
913.676	-65
913.776	-580
913.875	-995
913.975	26
914.074	-389
914.174	84
914.273	-1366
914.373	116
914.472	-230
914.572	-289
914.671	70
914.770	-457
914.870	-112
914.969	-713
915.068	-29
915.167	-49
915.267	77
915.366	-212
915.465	-265
915.564	-276
915.663	77
915.763	-528
915.862	201
915.961	-329
916.060	169
916.159	-231
916.258	-301
916.357	-485
916.456	-26
916.555	-207
916.654	-336
916.752	-111
916.851	-228
916.950	-789
917.049	-251
917.148	-567
917.247	362
917.345	-201
917.444	-154
917.543	-553
917.642	-902
917.740	-1045
917.839	-245
917.937	-703
918.036	159
918.135	-236
918.233	79
918.332	-686
918.430	-66
918.529	-218
918.627	-579
918.726	110
918.824	-267
918.923	-539
919.021	-603
919.119	-561
919.218	-652
919.316	-163
919.414	431
919.512	-962
919.611	-323
919.709	-927
919.807	-1419
919.905	-671
920.003	-760
920.102	-1045
920.200	-126
920.298	-475
920.396	348
920.494	-237
920.592	-422
920.690	-797
920.788	133
920.886	-664
920.984	-321
921.082	-814
921.180	-177
921.277	-634
921.375	-583
921.473	-636
921.571	-184
921.669	-860
921.766	-916
921.864	304
921.962	-469
922.060	-736
922.157	135
922.255	-390
922.352	-205
922.450	-7
922.548	-333
922.645	-537
922.743	-399
922.840	-1011
922.938	-542
923.035	-976
923.133	-772
923.230	-859
923.327	-331
923.425	-409
923.522	-327
923.619	-831
923.717	-630
923.814	-41
923.911	-1214
924.008	44
924.106	-371
924.203	-622
924.300	-1257
924.397	-1045
924.494	245
924.591	-682
924.688	-1341
924.786	-52
924.883	-258
924.979	-1048
925.077	-631
925.173	-821
925.270	-375
925.367	59
925.464	-23
925.561	-267
925.658	-268
925.755	-22
925.852	-451
925.948	-416
926.045	-899
926.142	58
926.239	-304
926.335	-600
926.432	-225
926.529	224
926.625	191
926.722	-387
926.818	-766
926.915	-965
927.011	-570
927.108	-377
927.204	-1063
927.301	283
927.397	-1227
927.494	-428
927.590	-534
927.687	-134
927.783	-803
927.879	-561
927.976	-1114
928.072	-798
928.168	-551
928.264	-455
928.361	-650
928.457	-419
928.553	-751
928.649	-896
928.745	-663
928.841	-636
928.937	-250
929.033	-536
929.129	-151
929.225	-529
929.321	194
929.417	239
929.513	-820
929.609	-103
929.705	-777
929.801	-1273
929.897	-221
929.993	-785
930.089	-392
930.184	-773
930.280	-940
930.376	-485
930.471	-1126
930.567	-1116
930.663	-992
930.758	-1454
930.854	-358
930.950	-663
931.045	-1470
931.141	-1311
931.236	427
931.332	-1275
931.427	-944
931.523	-790
931.618	-875
931.714	-861
931.809	-422
931.905	-427
932.000	-778
932.095	-506
932.191	-81
932.286	-676
932.381	-783
932.476	-1327
932.572	-1249
932.667	-908
932.762	-1029
932.857	-740
932.952	-1214
933.047	-311
933.142	-1080
933.237	-1383
933.332	-1462
933.427	-391
933.522	-109
933.617	-381
933.712	-772
933.807	-805
933.902	-1882
933.997	-474
934.092	-1021
934.187	-936
934.282	-1364
934.376	-862
934.471	-605
934.566	-466
934.661	-261
934.755	-653
934.850	-924
934.945	-1003
935.039	-434
935.134	-718
935.228	-526
935.323	-927
935.417	-1469
935.512	-1117
935.606	-354
935.701	-799
935.795	-697
935.890	-1696
935.984	-877
936.079	-1092
936.173	-1026
936.267	-508
936.362	-1462
936.456	-1029
936.550	-955
936.644	-496
936.738	-543
936.833	-704
936.927	-508
937.021	-796
937.115	-1071
937.209	-1764
937.303	699
937.397	-895
937.491	-1137
937.585	-801
937.679	-837
937.773	-860
937.867	-468
937.961	-716
938.055	-382
938.149	-685
938.243	-322
938.337	-621
938.430	-720
938.524	-413
938.618	-273
938.712	202
938.805	-852
938.899	-1263
938.993	-1276
939.086	-679
939.180	-1089
939.274	-536
939.367	-83
939.461	-432
939.554	-1135
939.648	-852
939.741	-184
939.835	-1225
939.928	-835
940.022	-49
940.115	-1712
940.208	-953
940.302	-980
940.395	-963
940.488	-1271
940.582	-1133
940.675	-420
940.768	-1064
940.861	-255
940.954	-1210
941.048	-1420
941.141	-597
941.234	-1336
941.327	-168
941.420	-102
941.513	-243
941.606	-1141
941.699	-27
941.792	-1148
941.885	-1578
941.978	-319
942.071	-1273
942.164	-1035
942.257	-758
942.349	-41
942.442	-1133
942.535	-1136
942.628	-361
942.721	-485
942.813	-1477
942.906	-256
942.999	-452
943.091	-518
943.184	-642
943.277	-744
943.369	-468
943.462	-1111
943.554	-915
943.647	-1019
943.739	-377
943.832	-961
943.924	-1707
944.017	-1136
944.109	-893
944.201	-53
944.294	-589
944.386	-974
944.478	-930
944.571	-650
944.663	-844
944.755	-810
944.847	-1083
944.940	515
945.032	-763
945.124	-431
945.216	-92
945.308	-674
945.400	-724
945.492	-1019
945.584	-1545
945.676	-815
945.768	-618
945.860	-350
945.952	-728
946.044	-393
946.136	-922
946.228	-936
946.320	-1549
946.412	-589
946.503	-819
946.595	-497
946.687	-690
946.779	-884
946.870	-1289
946.962	-1411
947.054	-215
947.145	-834
947.237	-915
947.329	-385
947.420	-1113
947.512	-1325
947.603	-1093
947.695	-677
947.786	-1335
947.878	-699
947.969	-527
948.061	-243
948.152	-1444
948.243	-808
948.335	-532
948.426	-1157
948.517	-1137
948.609	-320
948.700	-487
948.791	-1447
948.882	-292
948.973	-1763
949.065	-1067
949.156	-503
949.247	-1198
949.338	-976
949.429	-619
949.520	-900
949.611	-1286
949.702	-328
949.793	-1062
949.884	-934
949.975	-1104
950.066	-912
950.157	-285
950.247	-99
950.338	-1125
950.429	-903
950.520	-525
950.611	-576
950.701	-796
950.792	-142
950.883	-792
950.973	-860
951.064	-662
951.155	-289
951.245	-757
951.336	-763
951.427	-1402
951.517	-604
951.608	-944
951.698	-1141
951.788	54
951.879	-674
951.969	-708
952.060	-390
952.150	-911
952.240	-157
952.331	-2117
952.421	-352
952.511	-78
952.602	-1119
952.692	-949
952.782	-1059
952.872	-1406
952.962	-694
953.052	-650
953.143	-1271
953.233	-229
953.323	-529
953.413	-1403
953.503	-1131
953.593	-287
953.683	-757
953.773	-1310
953.863	-858
953.953	-1217
954.042	8
954.132	-1361
954.222	-159
954.312	-1187
954.402	-633
954.492	-401
954.581	158
954.671	-275
954.761	-1127
954.850	381
954.940	-315
955.030	-181
955.119	-1353
955.209	-871
955.298	-1679
955.388	-1054
955.477	-104
955.567	-1066
955.656	-512
955.746	-1361
955.835	-225
955.925	-1542
956.014	-704
956.103	-809
956.193	320
956.282	-573
956.371	444
956.461	-874
956.550	-869
956.639	-58
956.728	-1188
956.817	-173
956.906	-1124
956.995	-386
957.085	-1168
957.174	-322
957.263	-448
957.352	-219
957.441	-965
957.530	-603
957.619	296
957.708	-1037
957.796	-583
957.885	-500
957.974	-177
958.063	-394
958.152	-1626
958.241	-179
958.329	-465
958.418	-820
958.507	-1254
958.596	146
958.684	-504
958.773	-702
958.861	-368
958.950	-352
959.039	357
959.127	-84
959.216	508
959.304	-631
959.393	-751
959.481	-169
959.570	-631
959.658	-298
959.746	-938
959.835	-338
959.923	-1016
960.011	-577
960.100	-368
960.188	-696
960.276	-1409
960.365	-970
960.453	19
960.541	-1195
960.629	-370
960.717	-626
960.805	-1294
960.893	-870
960.981	-963
961.069	78
961.158	-528
961.245	-726
961.333	-671
961.421	-349
961.509	156
961.597	-525
961.685	-961
961.773	-377
961.861	-868
961.949	-275
962.036	-430
962.124	882
962.212	-630
962.299	-1090
962.387	-489
962.475	-720
962.562	-718
962.650	-231
962.738	-443
962.825	-942
962.913	-527
963.000	-640
963.088	-100
963.175	-517
963.263	-143
963.350	-1189
963.438	-1278
963.525	-650
963.612	-74
963.700	-1191
963.787	1499
963.874	-188
963.962	-65
964.049	-98
964.136	-73
964.223	-1968
964.310	-123
964.398	-934
964.485	-1396
964.572	-496
964.659	31
964.746	-240
964.833	-760
964.920	-673
965.007	-4
965.094	-2
965.181	-479
965.268	-1451
965.355	-145
965.441	-717
965.528	-1335
965.615	-263
965.702	-267
965.789	-570
965.875	-530
965.962	-621
966.049	-1185
966.136	-213
966.222	-953
966.309	-647
966.395	-530
966.482	-719
966.569	-1091
966.655	-706
966.742	-316
966.828	-576
966.915	-1094
967.001	-1498
967.087	-1656
967.174	-1047
967.260	-89
967.347	-720
967.433	-154
967.519	88
967.605	-942
967.692	-1311
967.778	-415
967.864	-554
967.950	-879
968.036	-1037
968.123	-656
968.209	58
968.295	-1111
968.381	1020
968.467	134
968.553	-2102
968.639	-43
968.725	-447
968.811	-878
968.897	-486
968.983	214
969.069	-681
969.154	-415
969.240	-958
969.326	-1621
969.412	-929
969.497	-998
969.583	-875
969.669	-475
969.755	-790
969.840	-1296
969.926	-1094
970.012	-1240
970.097	-131
970.183	-1306
970.268	-1262
970.354	-280
970.439	-1205
970.525	669
970.610	-789
970.696	392
970.781	-905
970.866	-1933
970.952	-229
971.037	-1277
971.122	-528
971.208	-862
971.293	-636
971.378	-1984
971.463	-586
971.549	-240
971.634	-1142
971.719	-1337
971.804	-935
971.889	-296
971.974	-1017
972.059	-1078
972.144	-708
972.229	-1169
972.314	-1241
972.399	-997
972.484	-1017
972.569	-317
972.654	-2202
972.739	210
972.824	-1023
972.908	-978
972.993	-1523
973.078	-849
973.163	-1385
973.247	-568
973.332	-2052
973.417	-554
973.501	-1876
973.586	-1477
973.671	-951
973.755	-1170
973.840	-946
973.924	-997
974.009	-184
974.093	-1256
974.178	-933
974.262	-1235
974.346	-974
974.431	-1726
974.515	-609
974.600	-1017
974.684	-898
974.768	-1840
974.852	-843
974.937	-1366
975.021	-1213
975.105	-921
975.189	-1391
975.273	-465
975.358	-1682
975.442	-2293
975.526	-1071
975.610	-858
975.694	-1749
975.778	-132
975.862	-1346
975.946	-2328
976.030	-432
976.114	-1521
976.198	-1592
976.281	-1901
976.365	-394
976.449	-1119
976.533	-458
976.617	-2343
976.700	-1106
976.784	-654
976.868	-1563
976.951	-758
977.035	-1111
977.119	-280
977.202	-861
977.286	-1510
977.369	-648
977.453	-1424
977.536	-1342
977.620	-1569
977.703	-1388
977.787	-1919
977.870	-328
977.953	161
978.037	-1828
978.120	-571
978.203	-1759
978.287	-1361
978.370	-1135
978.453	-977
978.536	-1187
978.620	-452
978.703	-948
978.786	-1826
978.869	-1773
978.952	-2719
979.035	-621
979.118	-905
979.201	-2504
979.284	-1135
979.367	-1592
979.450	-1059
979.533	-2732
979.616	-1119
979.699	-1555
979.782	-1391
979.865	-2151
979.948	-1785
980.030	-1108
980.113	-1277
980.196	-2694
980.279	-1300
980.361	-1530
980.444	-1487
980.526	-1501
980.609	-1765
980.692	-1157
980.774	-1105
980.857	-3075
980.939	-300
981.022	-1911
981.104	-1414
981.187	-1813
981.269	-709
981.352	-1539
981.434	-2287
981.516	-1380
981.599	-443
981.681	-910
981.763	-1782
981.846	-1337
981.928	-1370
982.010	-2315
982.092	-2296
982.174	-789
982.256	-1781
982.339	-1499
982.421	-1283
982.503	-852
982.585	-1420
982.667	-1522
982.749	-1459
982.831	-1068
982.913	-2457
982.995	-921
983.077	-2056
983.158	-1113
983.240	-2862
983.322	-1181
983.404	-1456
983.486	-2297
983.568	-1646
983.649	-1948
983.731	-1482
983.813	-1803
983.894	-873
983.976	-1775
984.058	-1864
984.139	-605
984.221	-2776
984.302	-177
984.384	-1631
984.465	-2433
984.547	-1701
984.628	-2970
984.710	-1301
984.791	-1936
984.872	-1648
984.954	-1590
985.035	-1869
985.116	-1641
985.198	-1929
985.279	-1829
985.360	-2811
985.441	-1386
985.522	-1033
985.604	-1285
985.685	-2891
985.766	-1159
985.847	-1645
985.928	-2414
986.009	-1795
986.090	-1271
986.171	-1474
986.252	-2115
986.333	-938
986.414	-2111
986.495	-1456
986.576	-2309
986.656	-2234
986.737	-1929
986.818	-1503
986.899	-2007
986.980	-1601
987.060	-1162
987.141	-2458
987.222	-1687
987.302	-2288
987.383	-1158
987.464	-2051
987.544	-1286
987.625	-2058
987.705	-1383
987.786	-1038
987.866	-1724
987.947	-2346
988.027	-1420
988.108	-2511
988.188	-1777
988.268	-1597
988.349	-1481
988.429	-1353
988.509	-947
988.589	-1920
988.670	-3283
988.750	-760
988.830	-2101
988.910	-1411
988.990	-916
989.070	-1482
989.151	-1128
989.231	-1838
989.311	-858
989.391	-1954
989.471	-1164
989.551	-2216
989.631	-2992
989.711	-1417
989.791	-1690
989.870	-1885
989.950	-1535
990.030	-1677
990.110	-1650
990.190	-2052
990.269	-1876
990.349	-1557
990.429	-1606
990.509	-1133
990.588	-2023
990.668	-208
990.747	-1948
990.827	-2131
990.907	-1399
990.986	-2198
991.066	-2040
991.145	-2452
991.225	-1164
991.304	-1884
991.383	-1922
991.463	-1865
991.542	-1604
991.622	-1481
991.701	-1514
991.780	-1417
991.859	-1959
991.939	-2269
992.018	-1889
992.097	-2047
992.176	-1794
992.256	-1233
992.335	-1860
992.414	-1344
992.493	-2561
992.572	-2744
992.651	-1545
992.730	-1620
992.809	-1423
992.888	-2907
992.967	-1694
993.046	-1332
993.125	-2892
993.203	-1945
993.282	-1354
993.361	-2207
993.440	-1825
993.519	-1787
993.597	-1810
993.676	-1891
993.755	-1064
993.834	-1168
993.912	-2357
993.991	-1098
994.069	-1505
994.148	-1084
994.226	-1976
994.305	-1184
994.384	-2233
994.462	-881
994.540	-2215
994.619	-1962
994.697	-804
994.776	-2155
994.854	-1311
994.932	-2069
995.011	-1554
995.089	-2347
995.167	-1778
995.245	-1693
995.324	-1435
995.402	-1238
995.480	-2245
995.558	-1104
995.636	-2676
995.714	-1790
995.792	-1043
995.870	-1685
995.948	-2068
996.026	-1697
996.104	-3395
996.182	-2163
996.260	-2459
996.338	-2355
996.416	-2801
996.494	-2366
996.572	-1253
996.649	-2125
996.727	-2907
996.805	-2026
996.883	-1863
996.960	-1429
997.038	-922
997.116	-1540
997.193	-2264
997.271	-853
997.348	-2284
997.426	-1509
997.504	-2625
997.581	-1399
997.658	-1340
997.736	-1496
997.813	-2548
997.891	-1055
997.968	-2376
998.046	-2502
998.123	-1800
998.200	-1033
998.277	-2404
998.355	-792
998.432	-2341
998.509	-1049
998.586	-1222
998.663	-1166
998.741	-1830
998.818	-1511
998.895	-1561
998.972	-1639
999.049	-1422
999.126	-2019
999.203	-762
999.280	-1621
999.357	-2035
999.434	-2113
999.511	-863
999.587	-811
999.664	-2088
999.741	-952
999.818	-1175
999.895	-1735
999.971	-1336
1000.048	-1538
1000.125	-1096
1000.202	-2907
1000.278	-1936
1000.355	-1455
1000.431	-2213
1000.508	-2515
1000.584	-1247
1000.661	-1829
1000.738	-2337
1000.814	-952
1000.890	-547
1000.967	-1875
1001.043	-620
1001.120	-2087
1001.196	-1690
1001.272	-1718
1001.349	-2111
1001.425	-961
1001.501	-1628
1001.577	-1909
1001.654	-1112
1001.730	-1237
1001.806	-999
1001.882	-1621
1001.958	-1534
1002.034	-1433
1002.110	-1586
1002.186	-1873
1002.262	-2236
1002.338	-2100
1002.414	-872
1002.490	-375
1002.566	-1954
1002.642	-1836
1002.718	-1478
1002.794	-1624
1002.870	-1523
1002.945	-1250
1003.021	-1618
1003.097	-1733
1003.173	-1150
1003.248	-2166
1003.324	-2139
1003.400	-2423
1003.475	-1386
1003.551	-829
1003.626	-1561
1003.702	-1986
1003.777	-1163
1003.853	-1407
1003.928	-1811
1004.004	-1442
1004.079	-1173
1004.155	-1873
1004.230	-2356
1004.305	-352
1004.381	-2093
1004.456	-1824
1004.531	-1873
1004.607	-1384
1004.682	-1320
1004.757	-1870
1004.832	-1930
1004.907	-1456
1004.982	-1286
1005.057	-1413
1005.133	-1440
1005.208	-1056
1005.283	-1454
1005.358	-1790
1005.433	-2082
1005.508	-1734
1005.583	-2285
1005.657	-1393
1005.732	-1444
1005.807	-1688
1005.882	-2272
1005.957	-1585
1006.032	-1108
1006.106	-1692
1006.181	-1597
1006.256	-845
1006.331	-2088
1006.405	-2881
1006.480	-2100
1006.554	-964
1006.629	-1244
1006.704	-799
1006.778	-1614
1006.853	-1292
1006.927	-1145
1007.002	-2210
1007.076	-2068
1007.150	-2302
1007.225	-2617
1007.299	-1227
1007.373	-2214
1007.448	-1481
1007.522	-1307
1007.596	-1009
1007.671	-1628
1007.745	-1276
1007.819	-1296
1007.893	-1763
1007.967	-1066
1008.041	-1842
1008.115	-1211
1008.190	-2102
1008.264	-671
1008.338	-2265
1008.412	-1334
1008.486	-1966
1008.560	-1238
1008.633	-1504
1008.707	-1950
1008.781	-1707
1008.855	-1591
1008.929	-1681
1009.003	-1624
1009.076	-2058
1009.150	-1872
1009.224	-1861
1009.298	-1555
1009.371	-1973
1009.445	-769
1009.519	-1149
1009.592	-2316
1009.666	-1302
1009.739	-1606
1009.813	-2612
1009.886	-631
1009.960	-2404
1010.033	-942
1010.107	-1389
1010.180	-2517
1010.253	-930
1010.327	-1520
1010.400	-1581
1010.473	-1459
1010.547	-863
1010.620	-2081
1010.693	-737
1010.766	-1893
1010.840	-1305
1010.913	-1001
1010.986	-1965
1011.059	-1688
1011.132	-1774
1011.205	-1745
1011.278	-1807
1011.351	-2113
1011.424	-1396
1011.497	-2487
1011.570	-1846
1011.643	-1790
1011.716	-2028
1011.789	-1501
1011.862	-1756
1011.934	-1105
1012.007	-2860
1012.080	-1295
1012.153	-2073
1012.225	-1902
1012.298	-2434
1012.371	-2786
1012.443	-1004
1012.516	-2888
1012.588	-1616
1012.661	-1791
1012.733	-2277
1012.806	-1220
1012.879	-1885
1012.951	-1373
1013.023	-2093
1013.096	-2194
1013.168	-1815
1013.241	-734
1013.313	-1907
1013.385	-2155
1013.458	-1828
1013.530	-1193
1013.602	-2301
1013.674	-909
1013.746	-2836
1013.819	-1776
1013.891	-1125
1013.963	-2441
1014.035	-1834
1014.107	-2030
1014.179	-1098
1014.251	-2829
1014.323	-1431
1014.395	-2030
1014.467	-1708
1014.539	-1778
1014.611	-1079
1014.683	-1899
1014.754	-2012
1014.826	-2023
1014.898	-1053
1014.970	-2608
1015.042	-492
1015.113	-2202
1015.185	-2092
1015.257	-3081
1015.328	-995
1015.400	-1931
1015.471	-1378
1015.543	-2121
1015.615	-1420
1015.686	-1453
1015.757	-2813
1015.829	-1101
1015.901	-2255
1015.972	-1368
1016.043	-957
1016.115	-2783
1016.186	-2191
1016.257	-2003
1016.328	-1392
1016.400	-1726
1016.471	-2676
1016.542	-2048
1016.613	-1555
1016.685	-1551
1016.756	-2100
1016.827	-2207
1016.898	-2081
1016.969	-1365
1017.040	-2653
1017.111	-2278
1017.182	-2889
1017.253	-1977
1017.324	-1418
1017.395	-2257
1017.466	-2058
1017.537	-1787
1017.608	-1560
1017.678	-2360
1017.749	-1877
1017.820	-1250
1017.891	-2197
1017.961	-2999
1018.032	-2223
1018.103	-1550
1018.173	-1807
1018.244	-2003
1018.315	-2748
1018.385	-1248
1018.456	-1908
1018.526	-2049
1018.597	-1622
1018.667	-751
1018.738	-2786
1018.808	-1808
1018.878	-2060
1018.949	-1774
1019.019	-1431
1019.089	-1619
1019.160	-1745
1019.230	-2802
1019.300	-1862
1019.371	-2634
1019.441	-1265
1019.511	-1732
1019.581	-1513
1019.651	-2331
1019.721	-2114
1019.791	-1954
1019.861	-1698
1019.931	-2477
1020.001	-2325
1020.071	-2455
1020.141	-1824
1020.211	-1565
1020.281	-2905
1020.351	-1818
1020.421	-1747
1020.491	-806
1020.560	-2519
1020.630	-2013
1020.700	-2109
1020.770	-1569
1020.839	-2497
1020.909	-1481
1020.979	-1961
1021.048	-2592
1021.118	-2257
1021.187	-1904
1021.257	-1908
1021.326	-1467
1021.396	-2863
1021.465	-2349
1021.535	-2541
1021.604	-2521
1021.674	-1841
1021.743	-1680
1021.812	-2234
1021.882	-2092
1021.951	-2952
1022.020	-2331
1022.089	-1843
1022.159	-1912
1022.228	-2235
1022.297	-2094
1022.366	-2036
1022.435	-1948
1022.504	-2124
1022.573	-2567
1022.642	-2012
1022.711	-1969
1022.781	-2170
1022.849	-2834
1022.918	-2489
1022.987	-1985
1023.056	-2212
1023.125	-2790
1023.194	-2602
1023.263	-1721
1023.331	-2187
1023.400	-2705
1023.469	-2294
1023.538	-1889
1023.606	-2443
1023.675	-2554
1023.744	-1860
1023.812	-2339
1023.881	-2022
1023.949	-2089
1024.018	-2674
1024.086	-2091
1024.155	-1786
1024.223	-2069
1024.292	-2385
1024.360	-2078
1024.429	-2144
1024.497	-2569
1024.565	-2360
1024.634	-2877
1024.702	-1305
1024.770	-2455
1024.838	-2761
1024.907	-1945
1024.975	-1747
1025.043	-2370
1025.111	-3340
1025.179	-1840
1025.247	-2313
1025.315	-2220
1025.383	-2462
1025.451	-2923
1025.519	-2347
1025.587	-2007
1025.655	-2007
1025.723	-2697
1025.791	-1894
1025.859	-1976
1025.927	-2285
1025.995	-2690
1026.062	-2306
1026.130	-2055
1026.198	-2966
1026.266	-2835
1026.333	-1934
1026.401	-2642
1026.469	-2164
1026.536	-2733
1026.604	-1751
1026.671	-3023
1026.739	-2833
1026.806	-1838
1026.874	-3258
1026.941	-2250
1027.009	-2297
1027.076	-2773
1027.144	-1902
1027.211	-2700
1027.278	-2293
1027.345	-2385
1027.413	-2160
1027.480	-2906
1027.547	-3084
1027.614	-2672
1027.682	-1852
1027.749	-1989
1027.816	-2323
1027.883	-2570
1027.950	-2537
1028.017	-2239
1028.084	-989
1028.151	-2449
1028.218	-2102
1028.285	-1757
1028.352	-2535
1028.419	-2765
1028.486	-2315
1028.553	-2293
1028.619	-1974
1028.686	-2215
1028.753	-2682
1028.820	-2949
1028.886	-2300
1028.953	-3023
1029.020	-1761
1029.086	-3082
1029.153	-1856
1029.220	-3007
1029.286	-2989
1029.353	-1576
1029.419	-2664
1029.486	-2100
1029.552	-2403
1029.619	-2334
1029.685	-1865
1029.751	-3210
1029.818	-2142
1029.884	-1881
1029.951	-1392
1030.017	-2772
1030.083	-2653
1030.149	-2206
1030.216	-3017
1030.282	-2227
1030.348	-2085
1030.414	-2301
1030.480	-1936
1030.546	-2168
1030.612	-1627
1030.678	-2962
1030.744	-2389
1030.810	-2106
1030.876	-1885
1030.942	-2489
1031.008	-1213
1031.074	-2768
1031.140	-2383
1031.206	-2063
1031.272	-2474
1031.337	-2354
1031.403	-1760
1031.469	-2390
1031.534	-2616
1031.600	-2820
1031.666	-2609
1031.731	-2964
1031.797	-1613
1031.863	-2786
1031.928	-2109
1031.994	-2759
1032.059	-1972
1032.125	-2544
1032.190	-2913
1032.256	-1917
1032.321	-2947
1032.386	-2510
1032.452	-2263
1032.517	-2729
1032.582	-2464
1032.647	-2434
1032.713	-2410
1032.778	-2353
1032.843	-3025
1032.908	-1802
1032.974	-2048
1033.039	-2660
1033.104	-2061
1033.169	-2100
1033.234	-2075
1033.299	-1959
1033.364	-2309
1033.429	-2066
1033.494	-2282
1033.559	-2397
1033.624	-2746
1033.688	-2049
1033.753	-2063
1033.818	-2291
1033.883	-2434
1033.948	-2184
1034.013	-2582
1034.077	-2049
1034.142	-2269
1034.207	-2755
1034.271	-2103
1034.336	-2842
1034.400	-2881
1034.465	-2001
1034.530	-2773
1034.594	-2254
1034.658	-2171
1034.723	-2698
1034.787	-2985
1034.852	-1885
1034.916	-2219
1034.981	-2150
1035.045	-1768
1035.109	-2165
1035.173	-2224
1035.238	-2591
1035.302	-2285
1035.366	-2367
1035.430	-2103
1035.495	-1833
1035.559	-2669
1035.623	-2529
1035.687	-2602
1035.751	-2885
1035.815	-2186
1035.879	-2782
1035.943	-2363
1036.007	-2355
1036.071	-2084
1036.135	-1915
1036.198	-1951
1036.262	-1982
1036.326	-2415
1036.390	-2699
1036.454	-2377
1036.517	-1504
1036.581	-2692
1036.645	-2557
1036.709	-1718
1036.772	-2855
1036.836	-2676
1036.900	-2244
1036.963	-1406
1037.026	-2434
1037.090	-3039
1037.154	-1812
1037.217	-2163
1037.280	-2032
1037.344	-2726
1037.407	-3353
1037.471	-2636
1037.534	-2470
1037.597	-2704
1037.661	-2506
1037.724	-2734
1037.787	-2892
1037.850	-2859
1037.913	-2533
1037.977	-2355
1038.040	-1634
1038.103	-2750
1038.166	-2225
1038.229	-2165
1038.292	-2288
1038.355	-2357
1038.418	-2732
1038.481	-2735
1038.544	-2640
1038.607	-2649
1038.670	-2309
1038.732	-2762
1038.795	-2362
1038.858	-2230
1038.921	-2480
1038.984	-2669
1039.046	-2532
1039.109	-2444
1039.172	-2586
1039.234	-2549
1039.297	-2903
1039.360	-1953
1039.422	-1989
1039.485	-2497
1039.547	-2842
1039.610	-1817
1039.672	-2472
1039.734	-2416
1039.797	-2263
1039.859	-2787
1039.922	-2217
1039.984	-2785
1040.046	-1908
1040.109	-1864
1040.171	-2007
1040.233	-2333
1040.295	-3182
1040.358	-2063
1040.420	-2222
1040.482	-2344
1040.544	-2261
1040.606	-2555
1040.668	-2255
1040.730	-2661
1040.792	-2338
1040.854	-2214
1040.916	-1885
1040.978	-3256
1041.040	-1947
1041.102	-2470
1041.164	-2476
1041.225	-2493
1041.287	-2261
1041.349	-2856
1041.411	-2199
1041.472	-2723
1041.534	-2226
1041.596	-2197
1041.657	-2272
1041.719	-1554
1041.781	-2421
1041.842	-2340
1041.904	-2468
1041.965	-2101
1042.027	-2401
1042.088	-1970
1042.150	-2849
1042.211	-2159
1042.272	-2048
1042.334	-2678
1042.395	-2105
1042.456	-2355
1042.518	-1904
1042.579	-1718
1042.640	-2105
1042.701	-1772
1042.763	-1916
1042.824	-2458
1042.885	-2354
1042.946	-2658
1043.007	-2603
1043.068	-2362
1043.129	-2726
1043.190	-2810
1043.251	-2390
1043.312	-2582
1043.373	-1941
1043.434	-2614
1043.495	-2394
1043.556	-1096
1043.616	-1862
1043.677	-3043
1043.738	-2712
1043.799	-2329
1043.859	-1980
1043.920	-2565
1043.981	-2362
1044.041	-2136
1044.102	-3136
1044.162	-1959
1044.223	-2476
1044.284	-2500
1044.344	-2265
1044.405	-2344
1044.465	-2924
1044.525	-2373
1044.586	-2098
1044.646	-1496
1044.707	-2245
1044.767	-2380
1044.827	-2746
1044.887	-2805
1044.948	-1780
1045.008	-1869
1045.068	-3074
1045.128	-1527
1045.188	-2519
1045.249	-717
1045.309	-2123
1045.369	-2584
1045.429	-2027
1045.489	-1239
1045.549	-1146
1045.609	-1934
1045.669	-2496
1045.729	-2026
1045.789	-1578
1045.848	-1096
1045.908	-1946
1045.968	-1756
1046.028	-1702
1046.088	-2082
1046.147	-1582
1046.207	-1096
1046.267	-2236
1046.326	-2335
1046.386	-1593
1046.446	-1761
1046.505	-1760
1046.565	-1627
1046.624	-662
1046.684	-1361
1046.743	-962
1046.803	-1422
1046.862	-776
1046.922	0
