'Start Wavelength	183.907
'End Wavelength	1046.922
'Gate Delay	5.000
'Gate Width (ms)	1.050
'Laser Output Level	0.000
'X Position	0.000
'Y Position	0.000
'Z Position	0.000
'Grid Point Number	1.000
'Shot Number	100.000
183.907	-67.000
183.977	-235.000
184.047	139
184.116	109
184.186	-170
184.256	-115
184.325	239
184.395	144
184.465	548
184.534	59
184.604	-249
184.674	221
184.743	-852
184.813	143
184.883	-589
184.952	458
185.022	-73
185.092	402
185.161	329
185.231	40
185.301	160
185.370	434
185.440	-286
185.509	9
185.579	-1261
185.649	379
185.718	-501
185.788	569
185.857	10
185.927	343
185.996	169
186.066	219
186.136	131
186.205	-88
186.275	499
186.344	289
186.414	472
186.483	471
186.553	394
186.622	24
186.692	1
186.761	300
186.831	-82
186.900	356
186.970	94
187.039	208
187.109	421
187.178	126
187.248	568
187.317	715
187.387	-517
187.456	-9
187.526	-12
187.595	60
187.664	422
187.734	-50
187.803	-184
187.873	299
187.942	140
188.012	231
188.081	-417
188.150	-1
188.220	-456
188.289	157
188.358	62
188.428	680
188.497	-234
188.567	187
188.636	-225
188.705	-67
188.775	-394
188.844	675
188.913	-133
188.983	172
189.052	-145
189.121	74
189.191	-93
189.260	503
189.329	-224
189.399	28
189.468	-352
189.537	516
189.606	94
189.676	324
189.745	-55
189.814	859
189.883	81
189.953	327
190.022	-37
190.091	244
190.161	-3
190.230	-232
190.299	-441
190.368	453
190.437	178
190.507	303
190.576	-336
190.645	312
190.714	71
190.783	399
190.853	324
190.922	610
190.991	549
191.060	379
191.129	26
191.198	263
191.268	95
191.337	-570
191.406	-353
191.475	707
191.544	-462
191.613	216
191.682	-74
191.752	-86
191.821	-403
191.890	357
191.959	570
192.028	211
192.097	-457
192.166	737
192.235	12
192.304	232
192.373	-560
192.442	-226
192.511	60
192.580	150
192.650	362
192.719	-135
192.788	320
192.857	179
192.926	-364
192.995	405
193.064	-502
193.133	166
193.202	-205
193.271	223
193.340	-93
193.409	430
193.478	34
193.547	-43
193.615	-392
193.684	296
193.753	-611
193.822	504
193.891	-475
193.960	359
194.029	44
194.098	-153
194.167	164
194.236	64
194.305	-62
194.374	-352
194.443	-149
194.512	-84
194.580	-375
194.649	579
194.718	152
194.787	2
194.856	-185
194.925	-16
194.994	-337
195.062	37
195.131	-632
195.200	919
195.269	-194
195.338	41
195.407	149
195.475	205
195.544	52
195.613	-377
195.682	-205
195.751	-117
195.819	-561
195.888	171
195.957	-199
196.026	67
196.094	-315
196.163	-253
196.232	-100
196.301	0
196.369	-328
196.438	327
196.507	-505
196.576	183
196.644	-84
196.713	-379
196.782	57
196.850	446
196.919	-214
196.988	-90
197.056	1
197.125	-445
197.194	-566
197.262	-46
197.331	-574
197.400	-265
197.468	0
197.537	-469
197.606	-534
197.674	-263
197.743	-265
197.812	-430
197.880	-209
197.949	94
198.017	-73
198.086	-224
198.155	-109
198.223	103
198.292	142
198.360	-181
198.429	-469
198.497	-2
198.566	127
198.635	2
198.703	26
198.772	-170
198.840	-777
198.909	-124
198.977	-560
199.046	-716
199.114	55
199.183	604
199.251	-512
199.320	-447
199.388	-1182
199.457	64
199.525	-853
199.594	-26
199.662	-725
199.731	-207
199.799	-758
199.867	-419
199.936	-378
200.004	439
200.073	-62
200.141	-352
200.210	-844
200.278	-390
200.346	31
200.415	881
200.483	-212
200.552	656
200.620	-99
200.688	215
200.757	-862
200.825	165
200.893	-270
200.962	745
201.030	-638
201.098	25
201.167	235
201.235	55
201.303	-406
201.372	-69
201.440	-295
201.508	-436
201.577	-193
201.645	-67
201.713	-471
201.781	-657
201.850	-347
201.918	-552
201.986	-270
202.055	432
202.123	612
202.191	98
202.259	-512
202.327	-61
202.396	-689
202.464	-560
202.532	-457
202.600	-428
202.669	-626
202.737	-796
202.805	-287
202.873	415
202.941	-680
203.009	-399
203.078	-368
203.146	-343
203.214	-705
203.282	-275
203.350	-384
203.418	146
203.487	271
203.555	-102
203.623	-676
203.691	-103
203.759	170
203.827	82
203.895	149
203.963	339
204.031	-288
204.099	238
204.168	-274
204.236	178
204.304	-385
204.372	392
204.440	-74
204.508	-315
204.576	87
204.644	226
204.712	-184
204.780	-212
204.848	-881
204.916	476
204.984	-330
205.052	551
205.120	-398
205.188	-413
205.256	-516
205.324	-287
205.392	-664
205.460	-206
205.528	-612
205.596	142
205.664	-763
205.732	375
205.799	-447
205.867	-311
205.935	-882
206.003	-441
206.071	-633
206.139	19
206.207	-549
206.275	-598
206.343	-489
206.411	-103
206.478	-164
206.546	61
206.614	34
206.682	-582
206.750	-513
206.818	44
206.885	-227
206.953	43
207.021	-371
207.089	-69
207.157	-663
207.225	-38
207.292	-165
207.360	-173
207.428	-311
207.496	39
207.563	-746
207.631	152
207.699	-404
207.767	-410
207.834	-648
207.902	237
207.970	332
208.038	-601
208.105	-449
208.173	93
208.241	-384
208.309	-329
208.376	-271
208.444	483
208.512	-503
208.579	427
208.647	-410
208.715	372
208.782	-566
208.850	-311
208.918	-743
208.985	-415
209.053	-877
209.120	368
209.188	-949
209.256	-127
209.323	-738
209.391	404
209.459	414
209.526	296
209.594	-780
209.661	308
209.729	211
209.796	-9
209.864	-166
209.932	-296
209.999	-378
210.067	-207
210.134	-445
210.202	-64
210.269	-879
210.337	-90
210.404	-345
210.472	2
210.539	-226
210.607	-272
210.674	-1012
210.742	-275
210.809	-146
210.877	-796
210.944	-255
211.012	-211
211.079	-372
211.146	-243
211.214	-413
211.281	-554
211.349	-158
211.416	-180
211.484	-783
211.551	-324
211.618	-1029
211.686	265
211.753	-628
211.821	284
211.888	-1373
211.955	-284
212.023	-96
212.090	-542
212.157	-496
212.225	-998
212.292	-884
212.359	-269
212.427	792
212.494	96
212.561	-86
212.629	-269
212.696	-1010
212.763	21
212.831	-615
212.898	-270
212.965	-885
213.032	-617
213.100	-661
213.167	-439
213.234	-556
213.301	-78
213.369	-974
213.436	-97
213.503	-324
213.570	-566
213.638	-502
213.705	-199
213.772	-862
213.839	-322
213.906	-570
213.973	403
214.041	-437
214.108	240
214.175	-78
214.242	-118
214.309	-598
214.376	-453
214.444	-322
214.511	-709
214.578	-1129
214.645	-359
214.712	-531
214.779	-310
214.846	-761
214.913	-96
214.980	-648
215.048	339
215.115	-567
215.182	396
215.249	-586
215.316	207
215.383	-131
215.450	12
215.517	-487
215.584	-307
215.651	-1039
215.718	-326
215.785	-432
215.852	-286
215.919	-868
215.986	-2
216.053	-742
216.120	-242
216.187	-854
216.254	-344
216.321	-786
216.388	-138
216.455	290
216.522	-257
216.589	-765
216.656	-395
216.722	-467
216.789	63
216.856	-699
216.923	-625
216.990	-478
217.057	-745
217.124	-613
217.191	-496
217.258	-1081
217.324	-316
217.391	-366
217.458	-153
217.525	-674
217.592	-107
217.659	-1152
217.725	-717
217.792	-362
217.859	-649
217.926	-1072
217.993	90
218.059	-783
218.126	-400
218.193	-376
218.260	-45
218.327	-276
218.393	-241
218.460	-563
218.527	-447
218.594	-884
218.660	523
218.727	-744
218.794	-484
218.860	-682
218.927	-613
218.994	-776
219.061	-182
219.127	-415
219.194	146
219.261	-619
219.327	-308
219.394	-147
219.461	-503
219.527	-920
219.594	-153
219.661	-512
219.727	185
219.794	-508
219.860	-538
219.927	-1048
219.994	256
220.060	401
220.127	157
220.193	-641
220.260	-133
220.326	-265
220.393	-92
220.460	-952
220.526	-309
220.593	-1112
220.659	381
220.726	95
220.792	-324
220.859	-705
220.925	145
220.992	-562
221.058	-283
221.125	-281
221.191	-136
221.258	-1109
221.324	377
221.391	-1077
221.457	-443
221.524	-453
221.590	-712
221.657	53
221.723	-309
221.789	-638
221.856	-2
221.922	79
221.989	29
222.055	-912
222.121	-268
222.188	-266
222.254	-273
222.321	-886
222.387	-577
222.453	-590
222.520	91
222.586	-526
222.652	191
222.719	-798
222.785	-837
222.851	-673
222.918	-1
222.984	-602
223.050	-348
223.116	-1286
223.183	-115
223.249	-582
223.315	-954
223.382	-868
223.448	-812
223.514	-912
223.580	18
223.647	-881
223.713	-666
223.779	-972
223.845	-754
223.911	-835
223.978	124
224.044	-399
224.110	-290
224.176	-921
224.242	-624
224.309	-1226
224.375	-866
224.441	-13
224.507	40
224.573	-789
224.639	-498
224.705	-788
224.772	-521
224.838	-1427
224.904	-703
224.970	-492
225.036	-169
225.102	-623
225.168	-479
225.234	-664
225.300	-500
225.366	-545
225.432	-1081
225.499	-141
225.565	-336
225.631	-1315
225.697	264
225.763	-958
225.829	-714
225.895	-241
225.961	-205
226.027	-659
226.093	8
226.159	-326
226.225	-19
226.291	-205
226.357	-32
226.423	-703
226.489	-551
226.554	-1544
226.620	-398
226.686	-1001
226.752	-386
226.818	-402
226.884	-274
226.950	-973
227.016	-122
227.082	-274
227.148	-350
227.214	-664
227.279	-632
227.345	-187
227.411	52
227.477	409
227.543	1220
227.609	45
227.674	-25
227.740	-271
227.806	-487
227.872	-1306
227.938	-171
228.003	-398
228.069	-596
228.135	-1018
228.201	-461
228.267	-1084
228.332	-580
228.398	-877
228.464	-313
228.530	-452
228.595	62
228.661	-462
228.727	219
228.792	-1167
228.858	-183
228.924	-1269
228.990	-160
229.055	-911
229.121	-655
229.187	-955
229.252	-363
229.318	-1039
229.384	-411
229.449	-1077
229.515	-783
229.581	-1515
229.646	356
229.712	-612
229.777	-237
229.843	-738
229.909	256
229.974	-564
230.040	-382
230.105	-1093
230.171	-404
230.236	-329
230.302	-322
230.368	-564
230.433	-740
230.499	-978
230.564	-509
230.630	-281
230.695	-445
230.761	-226
230.826	-31
230.892	-940
230.957	-923
231.023	-762
231.088	-588
231.154	-585
231.219	-245
231.284	-954
231.350	-965
231.415	-645
231.481	125
231.546	-1121
231.612	-459
231.677	-965
231.742	-1010
231.808	-1388
231.873	-276
231.939	-1284
232.004	-300
232.069	-1121
232.135	-762
232.200	-1533
232.265	-619
232.331	-1237
232.396	-378
232.461	-1199
232.527	-903
232.592	-626
232.657	-530
232.723	-524
232.788	-699
232.853	-994
232.918	246
232.984	-520
233.049	-467
233.114	-626
233.179	-568
233.245	-611
233.310	-412
233.375	-842
233.440	-717
233.506	-757
233.571	-107
233.636	-1241
233.701	-269
233.766	-765
233.832	-620
233.897	-244
233.962	-433
234.027	-582
234.092	-252
234.157	-969
234.222	-414
234.288	-1030
234.353	-119
234.418	-517
234.483	24
234.548	-1460
234.613	-293
234.678	-1050
234.743	-1131
234.808	-726
234.873	-917
234.938	-1083
235.004	-758
235.069	-798
235.134	-971
235.199	-790
235.264	66
235.329	-1155
235.394	-499
235.459	-1188
235.524	-677
235.589	-1054
235.654	-461
235.719	-1774
235.784	-461
235.849	-591
235.913	-321
235.978	-1109
236.043	-303
236.108	-1398
236.173	-918
236.238	-975
236.303	-576
236.368	-1128
236.433	-555
236.498	-927
236.563	-433
236.627	-1102
236.692	253
236.757	-1030
236.822	-832
236.887	-1156
236.952	-9
237.017	-965
237.081	-602
237.146	-1069
237.211	102
237.276	-64
237.341	174
237.405	-1184
237.470	-1207
237.535	-1005
237.600	-398
237.664	-1502
237.729	-1185
237.794	-586
237.859	-873
237.923	-581
237.988	-996
238.053	-1421
238.118	-173
238.182	-1223
238.247	183
238.312	-1181
238.376	258
238.441	-1791
238.506	-555
238.570	-1626
238.635	-1332
238.700	-1022
238.764	-996
238.829	-1156
238.893	-604
238.958	-449
239.023	-571
239.087	-13
239.152	-635
239.216	-846
239.281	-174
239.346	-630
239.410	-347
239.475	-970
239.539	-615
239.604	-1251
239.668	-303
239.733	-990
239.797	956
239.862	1394
239.926	1427
239.991	-190
240.055	-300
240.120	-977
240.184	-809
240.249	-918
240.313	-677
240.378	-1003
240.442	-548
240.507	-599
240.571	-577
240.635	-1263
240.700	-1334
240.764	-1129
240.829	-612
240.893	-1176
240.957	-930
241.022	-656
241.086	-314
241.151	-1361
241.215	-72
241.279	-961
241.344	-496
241.408	-1178
241.472	-725
241.537	-502
241.601	-982
241.665	-766
241.730	-337
241.794	-616
241.858	-1033
241.922	-470
241.987	-293
242.051	-573
242.115	-1382
242.179	-652
242.244	-1138
242.308	-752
242.372	-396
242.436	-1448
242.501	-531
242.565	-1015
242.629	-1157
242.693	-109
242.757	-586
242.822	-942
242.886	-789
242.950	-548
243.014	-1113
243.078	-1147
243.142	-790
243.206	-558
243.271	-750
243.335	-1521
243.399	-566
243.463	-1722
243.527	-411
243.591	-1047
243.655	-584
243.719	-1604
243.783	-483
243.847	-1740
243.911	-362
243.975	-1103
244.040	-1300
244.104	-1032
244.168	-1004
244.232	-1167
244.296	-987
244.360	-872
244.424	-822
244.488	-940
244.552	-889
244.615	-1179
244.679	-612
244.743	-1265
244.807	-1293
244.871	308
244.935	-377
244.999	-1415
245.063	-795
245.127	-611
245.191	-1187
245.255	-834
245.319	-615
245.383	-1772
245.446	139
245.510	-800
245.574	-274
245.638	-1173
245.702	-1330
245.766	-580
245.829	-1056
245.893	-1029
245.957	-350
246.021	-1135
246.085	-847
246.149	-1364
246.212	-439
246.276	-1026
246.340	-961
246.404	-1214
246.467	-792
246.531	-2090
246.595	243
246.659	-389
246.722	-655
246.786	-1277
246.850	-754
246.913	-901
246.977	-1311
247.041	-1586
247.104	-739
247.168	-886
247.232	12
247.295	-913
247.359	-617
247.423	-769
247.486	-273
247.550	-652
247.614	-461
247.677	-989
247.741	-456
247.804	-1203
247.868	-151
247.932	-1161
247.995	-978
248.059	-1283
248.122	-1148
248.186	-822
248.249	-1324
248.313	-458
248.376	-333
248.440	-1236
248.503	-1231
248.567	-235
248.630	-793
248.694	-1010
248.757	-652
248.821	-913
248.884	-145
248.948	-1235
249.011	-475
249.075	-468
249.138	-889
249.202	-766
249.265	-623
249.328	-371
249.392	-888
249.455	-1020
249.519	-36
249.582	-784
249.645	-488
249.709	-1732
249.772	-826
249.835	-678
249.899	-1018
249.962	-874
250.025	-1254
250.089	-867
250.152	-166
250.215	-792
250.279	-820
250.342	-1127
250.405	-907
250.468	-1109
250.532	-305
250.595	-897
250.658	36
250.721	-34
250.785	-805
250.848	-115
250.911	-322
250.974	-884
251.038	-635
251.101	-756
251.164	-473
251.227	-928
251.290	-1215
251.354	-500
251.417	1049
251.480	-1029
251.543	153
251.606	1648
251.669	-500
251.732	-1307
251.795	-362
251.859	-309
251.922	-283
251.985	-540
252.048	-454
252.111	-1299
252.174	-1033
252.237	-419
252.300	-385
252.363	-717
252.426	781
252.489	-1474
252.552	-1056
252.615	-1303
252.678	-36
252.741	-787
252.804	-528
252.867	-96
252.930	280
252.993	-1843
253.056	-836
253.119	-1240
253.182	-777
253.245	-1231
253.308	1
253.371	-446
253.434	-610
253.497	-802
253.559	-750
253.622	-959
253.685	-415
253.748	-1122
253.811	-1053
253.874	-643
253.937	-646
254.000	-1008
254.062	-931
254.125	-1413
254.188	-728
254.251	-1220
254.314	-984
254.376	-541
254.439	-413
254.502	-1136
254.565	-691
254.628	-37
254.690	-144
254.753	-1091
254.816	-696
254.878	-601
254.941	-589
255.004	-917
255.067	-420
255.129	-916
255.192	-573
255.255	-1344
255.317	-547
255.380	-1191
255.443	-813
255.505	-1285
255.568	-1061
255.631	-1229
255.693	-608
255.756	-1473
255.819	-172
255.881	-1284
255.944	-1021
256.006	-542
256.069	-137
256.132	-954
256.194	-1106
256.257	-1683
256.319	-1017
256.382	-1097
256.444	-976
256.507	-999
256.569	-1375
256.632	-1350
256.694	-804
256.757	-324
256.819	-178
256.882	-942
256.944	-379
257.007	-962
257.069	-984
257.132	-1376
257.194	-728
257.257	-1582
257.319	-977
257.381	-1850
257.444	82
257.506	-667
257.569	-171
257.631	-950
257.693	-1030
257.756	-1045
257.818	-1322
257.880	-814
257.943	-521
258.005	-1810
258.067	-1448
258.130	-1287
258.192	-621
258.254	-604
258.317	-822
258.379	-1114
258.441	-191
258.503	-209
258.566	-985
258.628	-1100
258.690	-1536
258.753	-930
258.815	-421
258.877	-940
258.939	-60
259.001	-650
259.064	-1190
259.126	-1740
259.188	-1133
259.250	-956
259.312	-1069
259.375	-1092
259.437	-1025
259.499	-364
259.561	-680
259.623	-1356
259.685	-960
259.747	-1087
259.809	-156
259.872	-1071
259.934	-1786
259.996	-1037
260.058	-1142
260.120	-1571
260.182	-338
260.244	-1586
260.306	-299
260.368	-645
260.430	-661
260.492	-1346
260.554	-556
260.616	-1746
260.678	-1230
260.740	-1311
260.802	-1334
260.864	-2113
260.926	-887
260.988	-727
261.050	-725
261.112	-1107
261.174	-411
261.236	-931
261.298	-646
261.359	-1059
261.421	-62
261.483	-1177
261.545	-714
261.607	-1482
261.669	-331
261.731	-1443
261.793	-1286
261.854	-1623
261.916	-744
261.978	-1177
262.040	-817
262.102	-1237
262.164	-505
262.225	-1777
262.287	-1021
262.349	-2051
262.411	-905
262.472	-978
262.534	-879
262.596	-1406
262.658	-1008
262.719	-1256
262.781	-600
262.843	-1327
262.904	-762
262.966	-764
263.028	-1275
263.090	-779
263.151	-871
263.213	-68
263.275	-402
263.336	-1553
263.398	-281
263.459	-1425
263.521	137
263.583	-1220
263.644	-339
263.706	-718
263.767	-1235
263.829	-611
263.891	-751
263.952	-1469
264.014	-1007
264.075	-771
264.137	-319
264.198	-905
264.260	-1389
264.321	-1234
264.383	-947
264.444	-715
264.506	-2044
264.567	-1235
264.629	-1130
264.690	-2032
264.752	-760
264.813	-1673
264.875	-1567
264.936	-895
264.998	-831
265.059	-1587
265.120	-1144
265.182	-1334
265.243	-654
265.305	-712
265.366	-1305
265.427	-1050
265.489	-563
265.550	-2250
265.611	-939
265.673	-985
265.734	-689
265.795	-1014
265.857	-1251
265.918	-2036
265.979	-570
266.040	-1072
266.102	-406
266.163	-847
266.224	-1300
266.286	-863
266.347	-2145
266.408	-1168
266.469	-380
266.530	-1301
266.592	-1030
266.653	-744
266.714	-1420
266.775	-914
266.836	-640
266.898	-2209
266.959	-330
267.020	-1792
267.081	-378
267.142	-1091
267.203	-1423
267.264	-1277
267.326	-421
267.387	-1151
267.448	-1737
267.509	-1373
267.570	-723
267.631	-1067
267.692	-1281
267.753	-990
267.814	-1604
267.875	-104
267.936	-1425
267.997	-1758
268.058	-1262
268.119	-1550
268.180	-1169
268.241	-1641
268.302	-905
268.363	-1674
268.424	-440
268.485	-1237
268.546	-442
268.607	-333
268.668	-957
268.729	-1212
268.790	-931
268.851	-1520
268.912	-1003
268.972	-780
269.033	-1635
269.094	-1771
269.155	-1494
269.216	-1171
269.277	-446
269.338	-1056
269.398	-895
269.459	-1989
269.520	4
269.581	-1041
269.642	-634
269.702	-1373
269.763	-704
269.824	-882
269.885	-951
269.945	-1035
270.006	-877
270.067	-1210
270.128	-1369
270.188	-1563
270.249	-1188
270.310	-1395
270.370	-290
270.431	-1120
270.492	-823
270.553	-1652
270.613	-504
270.674	-1450
270.734	-1731
270.795	-1421
270.856	-865
270.916	-1514
270.977	-358
271.038	-345
271.098	-346
271.159	-1658
271.219	-803
271.280	-989
271.340	-426
271.401	-1277
271.462	-1323
271.522	-780
271.583	-669
271.643	-1316
271.704	-1172
271.764	-1804
271.825	-1039
271.885	-624
271.946	29
272.006	-1365
272.066	-14
272.127	-703
272.187	-132
272.248	-1037
272.308	-790
272.369	-950
272.429	-1097
272.489	-2136
272.550	-1453
272.610	-1199
272.671	-1167
272.731	-1152
272.791	-1223
272.852	-1120
272.912	-907
272.972	-1523
273.033	-1355
273.093	-1795
273.153	-752
273.214	-1294
273.274	-790
273.334	-1488
273.394	-765
273.455	-1838
273.515	-612
273.575	-1179
273.635	-460
273.696	-1076
273.756	-1083
273.816	-1524
273.876	-1116
273.936	-848
273.997	-628
274.057	-1277
274.117	-1245
274.177	-1241
274.237	-474
274.297	-952
274.358	-1078
274.418	-1078
274.478	-612
274.538	-1997
274.598	-1402
274.658	-1464
274.718	-934
274.778	-1010
274.838	-1109
274.898	-1626
274.958	-895
275.018	-754
275.078	-1341
275.138	-1210
275.198	-443
275.258	-1445
275.318	-1109
275.378	-1985
275.438	-806
275.498	-1659
275.558	-490
275.618	-1709
275.678	-1360
275.738	-1128
275.798	-1059
275.858	-1517
275.918	-833
275.978	-1420
276.038	-1276
276.098	-534
276.157	-1170
276.217	-1076
276.277	-1088
276.337	-1697
276.397	-992
276.457	-917
276.517	-1844
276.576	-1342
276.636	-1720
276.696	-2204
276.756	-550
276.815	-1830
276.875	-894
276.935	-1907
276.995	-1062
277.055	-1368
277.114	-1081
277.174	-1001
277.234	-1344
277.293	-1523
277.353	-1740
277.413	-747
277.472	-1089
277.532	-1004
277.592	-1061
277.651	-865
277.711	-1087
277.771	-1633
277.830	-150
277.890	-1334
277.950	-982
278.009	-498
278.069	-811
278.128	-1102
278.188	-1051
278.248	-1191
278.307	-717
278.367	-1808
278.426	-951
278.486	-1377
278.545	-1461
278.605	-1450
278.664	-1456
278.724	-1365
278.783	-777
278.843	-1392
278.902	-1003
278.962	-904
279.021	-1088
279.081	-1434
279.140	-1666
279.199	-785
279.259	-452
279.318	-1558
279.378	-964
279.437	-640
279.496	206
279.556	2602
279.615	242
279.675	-1461
279.734	-357
279.793	-1556
279.853	196
279.912	-1141
279.971	-312
280.031	-1438
280.090	-374
280.149	-1036
280.208	-719
280.268	737
280.327	255
280.386	-1607
280.445	-1267
280.505	-1633
280.564	-599
280.623	-1206
280.682	-1308
280.742	-1184
280.801	-745
280.860	-1664
280.919	-397
280.978	-1137
281.037	-742
281.097	-1380
281.156	-846
281.215	-1632
281.274	-965
281.333	-758
281.392	-644
281.451	-1390
281.510	-1050
281.569	-1373
281.628	-1222
281.688	-1440
281.747	-15
281.806	-1700
281.865	-965
281.924	-1809
281.983	-988
282.042	-1729
282.101	-968
282.160	-812
282.219	-1054
282.278	-1706
282.337	-1389
282.396	-2297
282.454	-740
282.513	-1892
282.572	-904
282.631	-1420
282.690	-477
282.749	-1937
282.808	-873
282.867	-1769
282.926	-1017
282.985	-1210
283.043	-1111
283.102	-822
283.161	-1306
283.220	-1344
283.279	-1439
283.338	-1866
283.396	-636
283.455	-1274
283.514	-1314
283.573	-1164
283.631	-1116
283.690	-637
283.749	-401
283.808	-1907
283.866	-638
283.925	-1632
283.984	-888
284.043	-2479
284.101	-1564
284.160	-1606
284.219	-685
284.277	-1605
284.336	-1857
284.395	-819
284.453	-1245
284.512	-407
284.570	-824
284.629	-1286
284.688	-783
284.746	-1195
284.805	-1183
284.863	-1464
284.922	-1293
284.981	-869
285.039	-472
285.098	55
285.156	1776
285.215	9287
285.273	4526
285.332	289
285.390	55
285.449	-366
285.507	-1079
285.566	-1439
285.624	-1196
285.683	-1042
285.741	-549
285.799	-1336
285.858	-1350
285.916	-1889
285.975	-1413
286.033	-1295
286.091	-1006
286.150	-1965
286.208	-603
286.267	-1696
286.325	-1699
286.383	-1478
286.442	-1410
286.500	-1631
286.558	-1680
286.616	-919
286.675	59
286.733	-1880
286.791	-1739
286.850	-1184
286.908	-1235
286.966	-1123
287.024	-673
287.083	-1264
287.141	-973
287.199	-1668
287.257	-1176
287.315	-1393
287.374	-1196
287.432	-1516
287.490	-1975
287.548	-1172
287.606	-1499
287.664	-1263
287.723	-849
287.781	-1870
287.839	-1577
287.897	-2225
287.955	-1109
288.013	-1632
288.071	-1167
288.129	1047
288.187	2532
288.245	-364
288.303	-828
288.361	-813
288.419	-907
288.477	-643
288.535	-1281
288.593	-1472
288.651	-987
288.709	-1970
288.767	-347
288.825	-1834
288.883	-762
288.941	-1698
288.999	-1218
289.057	-1331
289.115	-1251
289.173	-1034
289.231	-560
289.289	-1359
289.346	-211
289.404	-1188
289.462	-1305
289.520	-1737
289.578	-1174
289.636	-1871
289.694	-872
289.751	-1985
289.809	-1133
289.867	-1475
289.925	-539
289.983	-1425
290.040	-916
290.098	-1611
290.156	-1205
290.214	-1773
290.271	-1043
290.329	-1637
290.387	-806
290.444	-1230
290.502	-1734
290.560	-1872
290.617	-1142
290.675	-1614
290.733	-1425
290.790	-1076
290.848	-859
290.906	-1324
290.963	-1076
291.021	-839
291.078	-1095
291.136	-1733
291.194	-1113
291.251	-1232
291.309	-802
291.366	-1276
291.424	-1345
291.481	-1435
291.539	-1487
291.596	-1482
291.654	-946
291.711	-1097
291.769	-1176
291.826	-1298
291.884	-1929
291.941	-1640
291.999	-1212
292.056	-1206
292.114	-1596
292.171	-1261
292.228	-981
292.286	-964
292.343	-1150
292.401	-881
292.458	-1725
292.515	-1751
292.573	-508
292.630	-2115
292.687	-390
292.745	-1745
292.802	-1054
292.859	-1241
292.917	-562
292.974	-638
293.031	-547
293.089	-1476
293.146	-1007
293.203	-1576
293.260	-519
293.318	-1739
293.375	-1519
293.432	-1703
293.489	-748
293.546	-1718
293.604	-1036
293.661	-1582
293.718	48
293.775	-1523
293.832	-600
293.889	-1974
293.947	-1512
294.004	-1893
294.061	-754
294.118	-1287
294.175	-972
294.232	-1626
294.289	-1071
294.346	-1352
294.403	-1136
294.460	-1653
294.517	-1160
294.574	-1296
294.631	-1650
294.688	-1488
294.745	-1290
294.802	-933
294.859	-372
294.916	-1212
294.973	-831
295.030	-1653
295.087	-793
295.144	-1142
295.201	-562
295.258	-1137
295.315	-407
295.372	-1053
295.429	-972
295.486	-1286
295.542	-1047
295.599	-962
295.656	-1567
295.713	-1678
295.770	-513
295.827	-1424
295.883	-1632
295.940	-1726
295.997	-1001
296.054	-2163
296.111	-1333
296.167	-238
296.224	-601
296.281	-1269
296.338	-1008
296.394	-1171
296.451	-1146
296.508	-1130
296.564	-940
296.621	-519
296.678	-1058
296.734	-1157
296.791	-1083
296.848	-962
296.904	-1112
296.961	-1343
297.018	-1060
297.074	-1083
297.131	-997
297.187	-1085
297.244	-954
297.301	-621
297.357	-418
297.414	-1487
297.470	-695
297.527	-1400
297.583	-771
297.640	-948
297.696	-818
297.753	-882
297.809	-1146
297.866	-1861
297.922	-737
297.979	-1519
298.035	-1035
298.092	-968
298.148	-1132
298.204	-1080
298.261	-1577
298.317	-1647
298.374	-523
298.430	-1507
298.486	-904
298.543	-1068
298.599	-776
298.656	-1755
298.712	-1177
298.768	-924
298.824	-937
298.881	-2045
298.937	-1065
298.993	-1321
299.050	-1031
299.106	-1011
299.162	-104
299.218	-677
299.275	-1053
299.331	-607
299.387	-594
299.443	-301
299.500	2420
299.556	791
299.612	304
299.668	174
299.724	2136
299.780	1109
299.837	-654
299.893	-897
299.949	898
300.005	1884
300.061	1929
300.117	1810
300.173	532
300.229	-116
300.285	-113
300.341	-872
300.397	-878
300.453	-676
300.510	-627
300.566	-167
300.622	620
300.678	4774
300.734	3370
300.790	-73
300.845	514
300.901	1654
300.957	2468
301.013	415
301.069	-221
301.125	-535
301.181	-1266
301.237	-1052
301.293	-809
301.349	-728
301.405	-741
301.461	-1245
301.516	-1236
301.572	-1646
301.628	-1329
301.684	-1607
301.740	-826
301.796	-1359
301.851	-897
301.907	-611
301.963	-708
302.019	-1473
302.074	-27
302.130	140
302.186	-412
302.242	-1481
302.297	-256
302.353	-867
302.409	-1378
302.464	-1397
302.520	-1737
302.576	-1198
302.631	-1348
302.687	-1598
302.743	-617
302.798	-983
302.854	-1011
302.910	-277
302.965	-363
303.021	-1248
303.076	-1081
303.132	-1855
303.187	-900
303.243	-1448
303.299	-1113
303.354	-1904
303.410	-352
303.465	-1122
303.521	-1795
303.576	-2067
303.632	-960
303.687	-957
303.743	-1127
303.798	-950
303.853	-928
303.909	-1695
303.964	-1124
304.020	-923
304.075	-810
304.130	-1836
304.186	-1279
304.241	-885
304.297	-449
304.352	-1400
304.358	-1299
304.407	-485
304.449	-1051
304.463	-1240
304.518	-1008
304.539	-954
304.573	-880
304.629	-821
304.630	-835
304.684	-1501
304.720	-1052
304.739	-813
304.794	-821
304.811	-823
304.850	-900
304.902	-991
304.905	-990
304.960	-1261
304.992	-1283
305.015	-1327
305.071	-1141
305.083	-1094
305.126	-921
305.173	-658
305.181	-614
305.236	-708
305.264	-810
305.292	-895
305.347	-1068
305.354	-984
305.402	-533
305.445	-1184
305.457	-1355
305.512	-688
305.535	-847
305.567	-1100
305.622	-1480
305.626	-1458
305.678	-1007
305.716	-582
305.733	-424
305.788	-814
305.807	-621
305.843	-200
305.897	-573
305.898	-579
305.953	-480
305.988	-466
306.008	-504
306.063	-613
306.078	-708
306.118	-778
306.168	-962
306.173	-997
306.228	-1578
306.259	-738
306.283	-56
306.338	-1074
306.349	-1098
306.393	-1086
306.440	-676
306.448	-635
306.503	-410
306.530	-581
306.558	-660
306.613	-818
306.620	-775
306.668	-416
306.711	-605
306.723	-675
306.778	-745
306.801	-419
306.833	-96
306.888	-681
306.892	-681
306.943	-443
306.982	-634
306.997	-698
307.052	184
307.072	-92
307.107	-691
307.162	-587
307.163	-592
307.217	-561
307.253	-117
307.272	77
307.327	-344
307.343	-347
307.381	-297
307.434	-550
307.436	-565
307.491	-365
307.524	-403
307.546	-366
307.600	-386
307.614	-403
307.655	-457
307.704	138
307.710	200
307.765	-521
307.795	-300
307.819	-100
307.874	-386
307.885	-348
307.929	10
307.975	-119
307.984	-178
308.038	245
308.065	323
308.093	811
308.148	2212
308.156	2526
308.202	6137
308.246	8712
308.257	8143
308.312	3195
308.336	1544
308.366	1219
308.421	517
308.426	448
308.475	-82
308.517	-467
308.530	-521
308.585	-207
308.607	-403
308.639	-770
308.694	-256
308.697	-289
308.748	-413
308.787	97
308.803	242
308.857	-199
308.877	-120
308.912	9
308.967	68
308.967	63
309.021	332
309.058	575
309.076	721
309.130	1367
309.148	1514
309.185	3588
309.238	8401
309.239	8512
309.293	12113
309.328	12888
309.348	10545
309.402	3955
309.418	2313
309.457	1593
309.508	403
309.511	380
309.566	778
309.598	619
309.620	531
309.674	606
309.688	629
309.729	612
309.778	563
309.783	575
309.837	364
309.868	414
309.892	245
309.946	-216
309.959	-307
310.001	-119
310.049	-9
310.055	-23
310.109	-67
310.139	-244
310.163	-305
310.218	-44
310.229	-51
310.272	310
310.319	713
310.326	678
310.381	327
310.409	316
310.435	450
310.489	350
310.499	345
310.543	608
310.589	877
310.598	881
310.652	843
310.679	777
310.706	550
310.760	154
310.769	81
310.814	49
310.859	158
310.868	278
310.923	623
310.948	872
310.977	887
311.031	834
311.038	830
311.085	533
311.128	154
311.139	204
311.193	428
311.218	566
311.247	670
311.301	784
311.308	795
311.356	612
311.398	400
311.410	350
311.464	132
311.488	35
311.518	303
311.572	673
311.578	717
311.626	659
311.668	601
311.680	553
311.734	294
311.758	162
311.788	424
311.842	912
311.847	957
311.896	801
311.937	662
311.950	687
312.004	756
312.027	797
312.058	715
312.112	545
312.117	527
312.165	704
312.207	854
312.297	1168
312.386	643
312.476	266
312.566	550
312.656	812
312.745	532
312.835	635
312.925	574
313.015	276
313.104	760
313.194	1125
313.284	390
313.374	472
313.463	901
313.553	778
313.643	725
313.732	1004
313.822	753
313.912	950
314.001	1063
314.091	1123
314.180	1544
314.270	1850
314.360	1311
314.449	1447
314.539	1078
314.628	1492
314.718	1840
314.808	952
314.897	1172
314.987	2127
315.076	1541
315.166	1718
315.255	1864
315.345	1813
315.434	1370
315.524	1187
315.613	1687
315.703	1154
315.792	3491
315.881	11248
315.971	7403
316.060	2385
316.150	1096
316.239	1832
316.328	1560
316.418	1624
316.507	1714
316.597	1674
316.686	1139
316.775	1369
316.865	2300
316.954	1856
317.043	1137
317.133	845
317.222	1603
317.311	1249
317.400	546
317.490	922
317.579	1436
317.668	1493
317.757	2158
317.847	5130
317.936	19879
318.025	10977
318.114	5290
318.203	3266
318.293	1801
318.382	2677
318.471	3054
318.560	2387
318.649	2805
318.738	1126
318.828	1722
318.917	326
319.006	1020
319.095	572
319.184	2005
319.273	1655
319.362	363
319.451	930
319.540	523
319.629	1038
319.718	1940
319.807	661
319.896	738
319.985	1592
320.074	1438
320.163	708
320.252	844
320.341	1396
320.430	1560
320.519	1207
320.608	1064
320.697	1443
320.786	1609
320.875	2340
320.964	2396
321.053	2145
321.142	2087
321.230	2200
321.319	2579
321.408	3506
321.497	3622
321.586	2776
321.675	2616
321.764	2367
321.852	2330
321.941	2897
322.030	2645
322.119	2563
322.207	3092
322.296	3463
322.385	3448
322.474	5060
322.562	5686
322.651	4456
322.740	3322
322.829	2423
322.917	2833
323.006	2201
323.095	2341
323.183	1973
323.272	2272
323.361	1198
323.449	2682
323.538	1258
323.626	1210
323.715	1486
323.804	814
323.892	1044
323.981	1234
324.069	1190
324.158	375
324.246	1197
324.335	777
324.424	1471
324.512	1053
324.601	543
324.689	422
324.778	1126
324.866	869
324.954	588
325.043	914
325.131	109
325.220	1205
325.308	1058
325.397	1495
325.485	1387
325.574	1276
325.662	873
325.750	990
325.839	1049
325.927	816
326.015	865
326.104	645
326.192	536
326.280	749
326.369	977
326.457	888
326.545	391
326.634	623
326.722	1222
326.810	1278
326.898	1377
326.987	946
327.075	583
327.163	1307
327.251	605
327.340	740
327.428	997
327.516	2222
327.604	1683
327.692	1003
327.781	970
327.869	971
327.957	898
328.045	698
328.133	873
328.221	646
328.309	623
328.397	576
328.485	973
328.574	1324
328.662	2501
328.750	1533
328.838	1095
328.926	724
329.014	596
329.102	964
329.190	858
329.278	719
329.366	229
329.454	-101
329.542	758
329.630	338
329.718	1245
329.806	630
329.893	220
329.981	994
330.069	445
330.157	944
330.245	1160
330.333	603
330.421	104
330.509	217
330.597	1318
330.684	468
330.772	896
330.860	193
330.948	632
331.036	903
331.123	435
331.211	279
331.299	364
331.387	437
331.475	1070
331.562	335
331.650	327
331.738	50
331.825	895
331.913	-103
332.001	654
332.089	4
332.176	585
332.264	542
332.352	369
332.439	447
332.527	86
332.614	-24
332.702	814
332.790	921
332.877	337
332.965	839
333.052	665
333.140	661
333.228	812
333.315	968
333.403	778
333.490	1207
333.578	439
333.665	748
333.753	1721
333.840	1432
333.928	1067
334.015	1349
334.103	2019
334.190	3248
334.278	3788
334.365	5680
334.452	5727
334.540	3975
334.627	3574
334.715	3871
334.802	5864
334.889	8253
334.977	14499
335.064	12370
335.151	5562
335.239	3795
335.326	2466
335.413	2541
335.501	3348
335.588	2796
335.675	2415
335.762	3723
335.850	4558
335.937	6486
336.024	10432
336.111	17821
336.199	21752
336.286	11041
336.373	4912
336.460	3041
336.547	2343
336.635	2326
336.722	1676
336.809	1495
336.896	705
336.983	1318
337.070	1810
337.157	2642
337.245	1139
337.332	1851
337.419	1246
337.506	642
337.593	653
337.680	1483
337.767	1177
337.854	1305
337.941	614
338.028	653
338.115	703
338.202	1719
338.289	184
338.376	855
338.463	151
338.550	444
338.637	1062
338.724	1266
338.811	716
338.898	534
338.984	242
339.071	821
339.158	134
339.245	1101
339.332	645
339.419	407
339.506	645
339.593	653
339.679	-58
339.766	702
339.853	754
339.940	952
340.027	413
340.113	599
340.200	876
340.287	492
340.374	683
340.460	78
340.547	216
340.634	867
340.720	-1
340.807	124
340.894	-211
340.980	471
341.067	1071
341.154	1155
341.240	335
341.327	773
341.414	701
341.500	1274
341.587	206
341.674	347
341.760	-172
341.847	384
341.933	848
342.020	355
342.106	579
342.193	271
342.279	787
342.366	550
342.452	173
342.539	-4
342.625	426
342.712	448
342.798	289
342.885	68
342.971	672
343.058	236
343.144	297
343.230	766
343.317	233
343.403	155
343.490	512
343.576	126
343.662	-63
343.749	406
343.835	652
343.921	547
344.008	672
344.094	2327
344.180	1377
344.267	-293
344.353	-369
344.439	1013
344.525	595
344.612	231
344.698	-66
344.784	316
344.870	725
344.957	251
345.043	278
345.129	-80
345.215	446
345.301	496
345.387	847
345.474	-19
345.560	173
345.646	-70
345.732	461
345.818	400
345.904	355
345.990	347
346.076	97
346.162	905
346.249	71
346.335	2
346.421	533
346.507	108
346.593	-118
346.679	263
346.765	629
346.851	1445
346.937	1257
347.023	555
347.108	814
347.194	366
347.280	784
347.366	673
347.452	2674
347.538	4371
347.624	2377
347.710	1397
347.796	902
347.882	500
347.967	728
348.053	274
348.139	11
348.225	313
348.311	335
348.397	1
348.482	899
348.568	540
348.654	680
348.740	3475
348.825	6417
348.911	3006
348.997	434
349.083	1321
349.168	640
349.254	349
349.340	357
349.425	179
349.511	87
349.597	235
349.682	232
349.768	787
349.854	-138
349.939	56
350.025	170
350.110	471
350.196	444
350.282	378
350.367	257
350.453	251
350.538	428
350.624	254
350.709	262
350.795	718
350.880	676
350.966	50
351.051	595
351.137	-93
351.222	225
351.308	301
351.393	343
351.479	402
351.564	-256
351.649	162
351.735	452
351.820	602
351.906	216
351.991	421
352.076	-115
352.162	612
352.247	115
352.332	-65
352.418	183
352.503	687
352.588	516
352.673	36
352.759	201
352.844	378
352.929	610
353.014	-45
353.100	268
353.185	446
353.270	163
353.355	-127
353.441	336
353.526	199
353.611	133
353.696	210
353.781	-125
353.866	501
353.952	38
354.037	348
354.122	119
354.207	782
354.292	198
354.377	-244
354.462	360
354.547	245
354.632	365
354.717	-158
354.802	171
354.887	56
354.972	13
355.057	-204
355.142	57
355.227	403
355.312	57
355.397	-100
355.482	-707
355.567	388
355.652	157
355.737	312
355.822	-239
355.907	359
355.991	751
356.076	-466
356.161	233
356.246	17
356.331	-243
356.416	203
356.501	242
356.585	1584
356.670	215
356.755	867
356.840	544
356.924	25
357.009	1732
357.094	1398
357.179	-16
357.263	317
357.348	785
357.433	389
357.517	122
357.602	-443
357.687	396
357.771	-66
357.856	804
357.941	557
358.025	887
358.110	3578
358.195	2204
358.279	-336
358.364	288
358.448	791
358.533	1081
358.617	547
358.702	35
358.787	404
358.871	82
358.956	228
359.040	850
359.125	973
359.209	106
359.294	359
359.378	1024
359.462	1250
359.547	-384
359.631	70
359.716	-40
359.800	-39
359.885	802
359.969	78
360.053	466
360.138	-299
360.222	573
360.306	105
360.391	660
360.475	479
360.559	585
360.644	415
360.728	-254
360.812	1051
360.896	1751
360.981	951
361.065	253
361.149	489
361.233	28
361.318	240
361.402	-10
361.486	372
361.570	1097
361.654	233
361.739	987
361.823	532
361.907	2258
361.991	345
362.075	930
362.159	1477
362.243	4490
362.327	10002
362.411	22617
362.495	12097
362.580	4466
362.664	3750
362.748	2979
362.832	4625
362.916	8995
363.000	26362
363.084	55578
363.168	30327
363.252	7786
363.336	3616
363.420	2000
363.503	2607
363.587	3314
363.671	2389
363.755	1988
363.839	1404
363.923	2575
364.007	3409
364.091	3792
364.175	5914
364.258	13745
364.342	29833
364.426	72351
364.510	57999
364.594	16721
364.677	6625
364.761	3822
364.845	2879
364.929	1396
365.013	1722
365.096	899
365.180	-256
365.264	1050
365.347	2089
365.431	1025
365.515	323
365.598	-280
365.682	456
365.766	267
365.849	907
365.933	329
366.017	205
366.100	531
366.184	-655
366.267	878
366.351	534
366.435	-41
366.518	350
366.602	-16
366.685	796
366.769	578
366.852	132
366.936	159
367.019	-160
367.103	367
367.186	1002
367.270	742
367.353	253
367.436	768
367.520	97
367.603	837
367.687	141
367.770	224
367.853	960
367.937	925
368.020	1540
368.104	282
368.187	567
368.270	37
368.353	246
368.437	-97
368.520	581
368.603	435
368.687	-144
368.770	286
368.853	156
368.936	-368
369.020	1139
369.103	-151
369.186	558
369.269	-89
369.352	755
369.436	405
369.519	513
369.602	-950
369.685	533
369.768	311
369.851	-802
369.934	319
370.018	154
370.101	-566
370.184	844
370.267	419
370.350	-146
370.433	-208
370.516	363
370.599	5870
370.682	4421
370.765	797
370.848	437
370.931	-478
371.014	-126
371.097	-691
371.180	58
371.263	102
371.346	-150
371.429	292
371.511	-90
371.594	-303
371.677	804
371.760	233
371.843	463
371.926	615
372.009	3299
372.091	1764
372.174	202
372.257	1325
372.340	552
372.423	253
372.505	525
372.588	201
372.671	-207
372.754	-136
372.836	-39
372.919	-129
373.002	908
373.085	347
373.167	509
373.250	-499
373.332	648
373.415	952
373.498	4282
373.580	2344
373.663	6190
373.746	13110
373.828	3182
373.911	1184
373.993	531
374.076	613
374.159	2096
374.241	994
374.324	780
374.406	794
374.489	942
374.571	1502
374.654	2572
374.736	835
374.819	360
374.901	2255
374.983	3088
375.066	1268
375.148	1259
375.231	740
375.313	2155
375.395	827
375.478	1136
375.560	1483
375.643	398
375.725	759
375.807	1051
375.890	2190
375.972	1168
376.054	264
376.136	821
376.219	163
376.301	114
376.383	1759
376.465	1364
376.548	-186
376.630	-176
376.712	1070
376.794	271
376.877	217
376.959	204
377.041	-481
377.123	223
377.205	-467
377.287	116
377.369	-127
377.452	-169
377.534	288
377.616	-434
377.698	-19
377.780	81
377.862	202
377.944	-483
378.026	212
378.108	40
378.190	107
378.272	949
378.354	89
378.436	169
378.518	-271
378.600	437
378.682	282
378.764	-38
378.846	-81
378.928	202
379.010	102
379.091	35
379.173	391
379.255	154
379.337	-737
379.419	-777
379.501	383
379.583	135
379.664	107
379.746	20
379.828	-222
379.910	442
379.991	243
380.073	-407
380.155	-52
380.237	72
380.318	-357
380.400	12
380.482	-140
380.564	321
380.645	-155
380.727	-92
380.809	-83
380.890	-248
380.972	-266
381.053	-72
381.135	-383
381.217	98
381.298	312
381.380	-560
381.461	-385
381.543	645
381.624	412
381.706	53
381.787	728
381.869	201
381.951	-273
382.032	319
382.113	2619
382.195	-100
382.276	769
382.358	68
382.439	200
382.521	676
382.602	2635
382.684	1363
382.765	437
382.846	57
382.928	2200
383.009	1036
383.090	251
383.172	2455
383.253	5826
383.334	2329
383.416	1291
383.497	1012
383.578	44
383.659	747
383.741	1239
383.822	7169
383.903	7189
383.984	1629
384.066	1395
384.147	1227
384.228	607
384.309	885
384.390	1228
384.471	1741
384.553	600
384.634	848
384.715	564
384.796	891
384.877	297
384.958	391
385.039	897
385.120	490
385.201	959
385.282	476
385.363	726
385.444	622
385.525	460
385.606	593
385.687	1217
385.768	564
385.849	555
385.930	1344
386.011	2865
386.092	2208
386.173	1318
386.254	626
386.335	838
386.416	876
386.496	962
386.577	805
386.658	862
386.739	601
386.820	1573
386.901	1379
386.981	845
387.062	1587
387.143	2007
387.224	2237
387.304	3169
387.385	3083
387.466	3236
387.547	3916
387.627	2793
387.708	3441
387.789	3182
387.869	2223
387.950	2295
388.031	1937
388.111	525
388.192	1468
388.273	1495
388.353	1037
388.434	607
388.514	-27
388.595	1113
388.676	1735
388.756	1531
388.837	1016
388.917	333
388.998	978
389.078	571
389.159	1234
389.239	46
389.320	1417
389.400	-307
389.480	1139
389.561	529
389.641	1110
389.722	561
389.802	431
389.883	-41
389.963	603
390.043	863
390.124	-22
390.204	334
390.284	862
390.365	365
390.445	288
390.525	1577
390.605	607
390.686	685
390.766	1035
390.846	304
390.927	1175
391.007	95
391.087	1364
391.167	860
391.247	753
391.328	1195
391.408	1311
391.488	777
391.568	1048
391.648	862
391.728	1746
391.808	1553
391.888	907
391.969	1022
392.049	1117
392.129	1814
392.209	1692
392.289	2704
392.369	2716
392.449	2748
392.529	2960
392.609	3556
392.689	4262
392.769	5091
392.849	5842
392.929	8058
393.009	10150
393.089	14868
393.169	25885
393.248	54347
393.328	142833
393.408	211806
393.488	120573
393.568	44638
393.648	21673
393.728	12835
393.807	8188
393.887	7204
393.967	4858
394.047	3656
394.127	3360
394.206	3371
394.286	4012
394.366	10469
394.446	25294
394.525	7456
394.605	2456
394.685	2081
394.764	1875
394.844	3857
394.924	7483
395.003	4596
395.083	1709
395.163	1548
395.242	1312
395.322	1270
395.402	1123
395.481	2411
395.561	730
395.640	4248
395.720	16209
395.799	13429
395.879	3952
395.958	2818
396.038	3344
396.117	14114
396.197	34383
396.276	11225
396.356	4283
396.435	5002
396.515	6561
396.594	9644
396.673	18198
396.753	45098
396.832	136860
396.912	164912
396.991	61726
397.070	21532
397.150	10461
397.229	7704
397.308	8616
397.388	26538
397.467	20662
397.546	5002
397.625	2416
397.705	2450
397.784	1973
397.863	1799
397.942	1601
398.022	1412
398.101	593
398.180	1648
398.259	950
398.338	628
398.417	744
398.497	-188
398.576	832
398.655	679
398.734	418
398.813	519
398.892	241
398.971	139
399.050	724
399.129	-306
399.208	-486
399.287	839
399.366	-584
399.445	-359
399.524	19
399.603	-568
399.682	-315
399.761	-378
399.840	698
399.919	1378
399.998	-118
400.077	36
400.156	-1190
400.235	1091
400.313	-120
400.392	-22
400.471	186
400.550	120
400.629	194
400.708	-26
400.786	-679
400.865	-476
400.944	-293
401.023	202
401.102	-420
401.180	-990
401.259	-526
401.338	-635
401.416	254
401.495	-440
401.574	-394
401.652	-948
401.731	-436
401.810	-817
401.888	-792
401.967	-1276
402.046	-182
402.124	25
402.203	-1031
402.281	-149
402.360	-428
402.438	-349
402.517	-663
402.596	-479
402.674	-451
402.753	-626
402.831	-206
402.910	-578
402.988	76
403.066	-610
403.145	170
403.223	-261
403.302	-371
403.380	-329
403.459	-212
403.537	-60
403.615	-534
403.694	-1001
403.772	373
403.850	372
403.929	-647
404.007	-908
404.085	219
404.164	-237
404.242	-354
404.320	270
404.398	286
404.477	848
404.555	335
404.633	870
404.711	442
404.789	-3
404.868	-6
404.946	-640
405.024	-641
405.102	-1104
405.180	-307
405.258	-960
405.336	-191
405.415	-1450
405.493	5
405.571	-161
405.649	-618
405.727	-518
405.805	205
405.883	-357
405.961	74
406.039	-446
406.117	-549
406.195	-79
406.273	-1221
406.351	27
406.429	16
406.507	-471
406.585	-318
406.663	-235
406.740	-818
406.818	-529
406.896	-801
406.974	-748
407.052	-1213
407.130	368
407.208	365
407.285	13
407.363	-520
407.441	-330
407.519	-724
407.596	0
407.674	-202
407.752	4314
407.830	8964
407.907	1244
407.985	-773
408.063	-347
408.141	-893
408.218	-459
408.296	-1239
408.373	-500
408.451	-165
408.529	-108
408.606	-438
408.684	-7
408.762	-300
408.839	-150
408.917	-287
408.994	395
409.072	-358
409.149	560
409.227	1539
409.304	2985
409.382	4488
409.459	3739
409.537	6710
409.614	7353
409.692	4621
409.769	3508
409.846	5309
409.924	8641
410.001	6940
410.079	4430
410.156	3506
410.233	1314
410.311	1252
410.388	921
410.465	772
410.543	387
410.620	420
410.697	104
410.775	740
410.852	-980
410.929	1354
411.006	-144
411.083	414
411.161	663
411.238	485
411.315	-88
411.392	318
411.469	-37
411.547	94
411.624	-791
411.701	-208
411.778	-364
411.855	-571
411.932	299
412.009	452
412.086	-174
412.163	604
412.240	-486
412.317	-385
412.394	-623
412.471	279
412.548	-1417
412.625	-1056
412.702	-657
412.779	-582
412.856	-770
412.933	-133
413.010	-1031
413.087	93
413.164	-569
413.241	-232
413.318	-1122
413.395	-223
413.471	-1123
413.548	-394
413.625	-1076
413.702	-1252
413.779	-488
413.855	-289
413.932	-599
414.009	-1203
414.086	-360
414.162	-555
414.239	-249
414.316	-1179
414.393	-683
414.469	-511
414.546	-565
414.623	-790
414.699	-1144
414.776	-641
414.853	-793
414.929	-781
415.006	-1130
415.082	-434
415.159	-364
415.236	-626
415.312	-374
415.389	-1003
415.465	-791
415.542	-985
415.618	-1394
415.695	-1243
415.771	-1288
415.848	-1166
415.924	-1291
416.000	-605
416.077	-639
416.153	-1600
416.230	-1189
416.306	-943
416.383	-700
416.459	210
416.535	-1306
416.612	-1441
416.688	-702
416.764	-1
416.841	-570
416.917	-1196
416.993	-1251
417.069	-1029
417.146	-1410
417.222	-1229
417.298	-1416
417.374	-1506
417.451	-272
417.527	-1244
417.603	-1307
417.679	-521
417.755	-394
417.831	-873
417.908	-1103
417.984	-972
418.060	-363
418.136	-207
418.212	-712
418.288	-171
418.364	-547
418.440	-949
418.516	-1078
418.592	-624
418.668	-803
418.744	-1247
418.820	-1225
418.896	-518
418.972	-582
419.048	-756
419.124	-900
419.200	-940
419.276	-408
419.352	-923
419.428	-415
419.504	-548
419.579	-591
419.655	-40
419.731	-773
419.807	-466
419.883	-739
419.959	-508
420.034	-247
420.110	-409
420.186	-286
420.262	-505
420.337	343
420.413	-393
420.489	420
420.565	621
420.640	326
420.716	547
420.792	-425
420.867	992
420.943	159
421.019	1065
421.094	346
421.170	1262
421.245	1287
421.321	1271
421.397	930
421.472	3219
421.548	4550
421.623	6933
421.699	3412
421.774	3802
421.850	3547
421.925	5608
422.001	5939
422.076	7773
422.152	9540
422.227	12080
422.302	17552
422.378	24041
422.453	36185
422.529	56016
422.604	84759
422.679	91572
422.755	90075
422.830	88733
422.905	59351
422.981	39031
423.056	26199
423.131	19612
423.207	15086
423.282	10465
423.357	9212
423.432	7382
423.508	5583
423.583	5310
423.658	4014
423.733	3366
423.808	2185
423.883	2673
423.959	3326
424.034	3163
424.109	4344
424.184	2410
424.259	2039
424.334	1581
424.409	810
424.484	804
424.559	134
424.634	-16
424.709	205
424.784	737
424.859	182
424.934	24
425.009	467
425.084	-178
425.159	-609
425.234	-26
425.309	-429
425.384	-135
425.459	-984
425.534	-253
425.609	-241
425.683	-404
425.758	-336
425.833	-76
425.908	297
425.983	-807
426.058	125
426.132	-445
426.207	-696
426.282	-18
426.357	-762
426.431	-1101
426.506	-31
426.581	-859
426.655	-657
426.730	-428
426.805	-800
426.879	-553
426.954	-636
427.029	-886
427.103	-659
427.178	-22
427.253	103
427.327	-874
427.402	-1020
427.476	-1157
427.551	-792
427.625	-219
427.700	-570
427.774	-1388
427.849	-434
427.923	-453
427.998	-552
428.072	-397
428.147	382
428.221	3115
428.296	24035
428.370	35469
428.444	6918
428.519	326
428.593	-531
428.667	50
428.742	-539
428.816	958
428.890	7814
428.965	35055
429.039	20713
429.113	1894
429.188	129
429.262	23
429.336	-898
429.410	-836
429.485	-308
429.559	-95
429.633	-465
429.707	-87
429.781	328
429.855	7583
429.930	32367
430.004	18203
430.078	3596
430.152	5467
430.226	24909
430.300	63410
430.374	25800
430.448	4345
430.522	1033
430.596	928
430.670	2746
430.744	12704
430.818	37985
430.892	14526
430.966	1295
431.040	291
431.114	-782
431.188	-1261
431.262	-1202
431.336	-937
431.410	-1062
431.484	-1150
431.557	493
431.631	-305
431.705	-404
431.779	2160
431.853	20241
431.927	38112
432.000	9682
432.074	1002
432.148	-432
432.222	-626
432.295	-1026
432.369	-797
432.443	-584
432.516	-966
432.590	-870
432.664	-546
432.737	-1041
432.811	-1266
432.885	-1274
432.958	-1005
433.032	-1218
433.106	-842
433.179	-1197
433.253	-1057
433.326	-1443
433.400	-771
433.473	-1467
433.547	-1310
433.620	-1325
433.694	-1037
433.767	-1463
433.841	-656
433.914	-679
433.988	-625
434.061	-1637
434.134	-1224
434.208	-1012
434.281	-818
434.355	-1242
434.428	-816
434.501	-1223
434.575	-1358
434.648	-1985
434.721	-924
434.795	-1561
434.868	-851
434.941	-1640
435.014	-1588
435.088	-1231
435.161	-107
435.234	-981
435.307	-826
435.381	-658
435.454	425
435.527	2173
435.600	3694
435.673	3000
435.746	2459
435.819	896
435.892	665
435.966	-341
436.039	-672
436.112	-104
436.185	-18
436.258	-748
436.331	-815
436.404	-1440
436.477	-1182
436.550	-941
436.623	-1439
436.696	-1181
436.769	-367
436.842	-1018
436.915	-961
436.987	-1970
437.060	-1328
437.133	-1032
437.206	-1570
437.279	-1780
437.352	-1890
437.425	-1635
437.498	-1335
437.570	-923
437.643	-1100
437.716	-1438
437.789	-1493
437.861	-881
437.934	-1437
438.007	-1131
438.080	-1634
438.152	-889
438.225	-1083
438.298	-1758
438.370	-138
438.443	-400
438.516	-1164
438.588	-634
438.661	-1328
438.734	-712
438.806	-824
438.879	-1081
438.951	-1702
439.024	-1562
439.096	-1761
439.169	-1388
439.241	-1447
439.314	-1084
439.386	-820
439.459	-1548
439.531	-1865
439.604	-1067
439.676	-971
439.749	-1275
439.821	-1382
439.893	-1049
439.966	-1265
440.038	-1812
440.110	-866
440.183	-1241
440.255	-1504
440.327	-681
440.400	-972
440.472	-738
440.544	-1536
440.617	-1345
440.689	-516
440.761	-1381
440.833	-969
440.905	-1082
440.978	-1422
441.050	-996
441.122	-845
441.194	-1410
441.266	-1239
441.338	-1695
441.411	-1099
441.483	-663
441.555	-890
441.627	-685
441.699	-1011
441.771	-1425
441.843	-368
441.915	-936
441.987	-701
442.059	-1151
442.131	-377
442.203	-250
442.275	-40
442.347	780
442.419	3010
442.491	11293
442.563	49913
442.635	54322
442.706	13625
442.778	3349
442.850	1065
442.922	47
442.994	523
443.066	573
443.137	907
443.209	2303
443.281	2950
443.353	5498
443.425	16585
443.496	58474
443.568	110450
443.640	81606
443.711	25261
443.783	6634
443.855	1797
443.926	1040
443.998	476
444.070	234
444.141	445
444.213	341
444.285	34
444.356	47
444.428	67
444.499	-503
444.571	312
444.642	237
444.714	-340
444.785	357
444.857	491
444.928	186
445.000	432
445.071	1259
445.143	2382
445.214	3232
445.285	5471
445.357	12591
445.428	33837
445.500	97162
445.571	113802
445.642	89354
445.714	45437
445.785	14978
445.856	4682
445.928	2321
445.999	1062
446.070	82
446.141	467
446.213	359
446.284	-487
446.355	96
446.426	-1018
446.497	-331
446.569	-437
446.640	-697
446.711	-590
446.782	-665
446.853	-498
446.924	-648
446.995	-1307
447.066	-1118
447.138	-841
447.209	-1670
447.280	-1279
447.351	-1499
447.422	-1044
447.493	-1877
447.564	-1792
447.635	-685
447.706	-1222
447.777	-860
447.847	-733
447.918	-1742
447.989	-647
448.060	-1105
448.131	-1203
448.202	-1568
448.273	-1427
448.344	-1657
448.414	-941
448.485	-1513
448.556	-1304
448.627	-1233
448.698	-137
448.768	-446
448.839	-1197
448.910	-1447
448.981	-350
449.051	-943
449.122	-1705
449.193	-1940
449.263	-1067
449.334	-1679
449.405	-1386
449.475	-1379
449.546	-1473
449.616	-777
449.687	-711
449.758	-644
449.828	-1906
449.899	-1957
449.969	-1171
450.040	-879
450.110	-883
450.181	-1379
450.251	-1564
450.322	-1527
450.392	-1096
450.463	-1425
450.533	-1404
450.604	-1561
450.674	-1716
450.744	-825
450.815	-1032
450.885	-1357
450.955	-776
451.026	-293
451.096	-1076
451.166	-830
451.237	-1348
451.307	-358
451.377	153
451.447	-1075
451.518	-1071
451.588	-1330
451.658	-1188
451.728	-1595
451.799	-709
451.869	-925
451.939	-833
452.009	-1634
452.079	-991
452.149	-774
452.219	-1203
452.289	-864
452.360	-1491
452.430	-1574
452.500	-189
452.570	6
452.640	1581
452.710	6291
452.780	13099
452.850	10537
452.920	4159
452.990	890
453.060	-141
453.129	130
453.199	-1033
453.269	-207
453.339	208
453.409	628
453.479	-72
453.549	116
453.619	394
453.688	-702
453.758	-51
453.828	-1628
453.898	-1599
453.968	-1350
454.037	-1057
454.087	-1306
454.107	-1416
454.168	-1649
454.177	-1693
454.247	-1612
454.249	-1588
454.316	-1259
454.330	-1163
454.386	-793
454.411	-1087
454.456	-1614
454.492	-1072
454.525	-596
454.574	-761
454.595	-848
454.655	-1189
454.665	-1250
454.734	-731
454.736	-744
454.804	-1526
454.817	-1531
454.873	-1535
454.898	-1211
454.943	-686
454.979	-1030
455.013	-1313
455.060	-845
455.082	-675
455.141	-920
455.152	-962
455.221	-565
455.222	-562
455.291	-756
455.303	-867
455.360	-1423
455.384	-676
455.430	710
455.465	474
455.499	247
455.546	-524
455.569	-919
455.627	-793
455.638	-760
455.707	-833
455.708	-827
455.777	-999
455.789	-1035
455.846	-1120
455.869	-1009
455.916	-882
455.950	-1034
455.985	-1141
456.031	-823
456.054	-742
456.112	-1434
456.124	-1520
456.193	-905
456.193	-914
456.262	-978
456.274	-919
456.332	-433
456.355	-539
456.401	-880
456.436	-1031
456.470	-1113
456.516	-745
456.540	-615
456.597	-1137
456.609	-1237
456.678	-154
456.678	-156
456.747	-1338
456.759	-1345
456.817	-1247
456.840	-1140
456.886	-1049
456.920	-755
456.955	-367
457.001	-580
457.024	-775
457.082	-962
457.093	-996
457.162	-848
457.163	-841
457.232	-305
457.243	-414
457.301	-1015
457.324	-795
457.370	-319
457.405	-497
457.439	-681
457.485	-236
457.508	-27
457.566	-123
457.577	-107
457.646	543
457.647	552
457.715	1370
457.727	1600
457.784	3744
457.808	5882
457.853	9096
457.889	15872
457.922	20627
457.969	18610
457.991	18833
458.050	12527
458.060	11731
458.129	15459
458.130	15829
458.198	28252
458.211	28441
458.267	28177
458.292	21589
458.336	11884
458.372	8169
458.405	5970
458.453	6506
458.474	7575
458.533	13080
458.543	13685
458.611	29118
458.614	29864
458.680	41175
458.694	37233
458.749	25374
458.775	18241
458.818	7685
458.855	4957
458.887	3080
458.936	2639
458.955	2353
459.016	851
459.024	681
459.093	966
459.097	930
459.162	-117
459.177	-154
459.230	207
459.257	460
459.299	541
459.338	154
459.368	-72
459.418	87
459.437	73
459.499	-208
459.505	-196
459.574	437
459.579	406
459.643	-607
459.659	-708
459.711	-513
459.740	-201
459.780	-27
459.820	-350
459.849	-488
459.900	-225
459.917	-160
459.981	-311
459.986	-327
460.054	-569
460.061	-532
460.123	-76
460.141	-104
460.191	-325
460.222	-258
460.260	-183
460.302	-405
460.328	-381
460.382	180
460.397	246
460.462	182
460.465	189
460.534	463
460.543	474
460.602	1918
460.623	2606
460.671	5287
460.703	7879
460.739	7923
460.783	10374
460.808	11158
460.864	5968
460.876	5442
460.944	707
460.945	651
461.013	4
461.024	36
461.081	110
461.104	18
461.150	59
461.184	259
461.218	237
461.264	-114
461.286	-113
461.345	19
461.355	-31
461.423	-32
461.425	-48
461.491	-246
461.505	-129
461.559	-63
461.585	-236
461.628	-88
461.665	221
461.696	373
461.745	393
461.764	175
461.825	-215
461.832	-163
461.901	160
461.905	165
461.969	210
461.985	285
462.037	-1
462.065	-117
462.105	179
462.145	400
462.173	366
462.225	140
462.241	69
462.305	207
462.310	220
462.378	73
462.385	76
462.446	712
462.465	825
462.514	579
462.545	663
462.582	674
462.625	471
462.650	272
462.705	-176
462.718	-67
462.785	503
462.786	499
462.854	163
462.865	141
462.922	540
462.945	708
462.990	384
463.025	25
463.058	182
463.104	446
463.126	315
463.184	-162
463.194	-132
463.262	308
463.264	324
463.330	272
463.344	257
463.398	446
463.424	428
463.466	-63
463.504	-369
463.533	-109
463.583	303
463.601	306
463.663	332
463.669	370
463.737	426
463.743	465
463.805	900
463.823	993
463.873	517
463.903	275
463.940	248
463.982	51
464.008	33
464.062	184
464.076	146
464.142	-158
464.144	-138
464.211	470
464.221	597
464.279	369
464.301	186
464.347	243
464.381	366
464.414	342
464.461	254
464.482	394
464.540	838
464.550	819
464.617	478
464.620	475
464.685	627
464.699	598
464.753	323
464.779	147
464.820	478
464.859	936
464.888	707
464.938	192
464.956	421
465.018	1168
465.023	1089
465.091	208
465.098	114
465.158	408
465.177	443
465.226	202
465.257	180
465.293	510
465.336	788
465.361	512
465.416	-124
465.428	27
465.495	778
465.496	777
465.563	294
465.575	175
465.631	566
465.654	855
465.698	1078
465.734	1063
465.765	739
465.813	383
465.833	489
465.893	641
465.900	631
465.968	731
465.972	726
466.035	407
466.052	337
466.102	525
466.131	615
466.170	374
466.210	115
466.237	377
466.290	901
466.304	808
466.369	295
466.372	301
466.439	440
466.449	463
466.506	237
466.528	128
466.573	384
466.607	591
466.641	550
466.687	488
466.708	590
466.766	849
466.775	900
466.842	1258
466.845	1271
466.909	563
466.925	389
466.977	771
467.004	965
467.044	966
467.083	993
467.111	875
467.163	611
467.178	790
467.242	1546
467.245	1510
467.312	710
467.321	605
467.379	413
467.400	341
467.446	810
467.480	1151
467.559	1382
467.638	1117
467.717	1060
467.796	1586
467.875	1487
467.955	267
468.034	1619
468.113	1212
468.192	2249
468.271	2099
468.350	3088
468.429	3313
468.508	4985
468.588	2737
468.667	1872
468.746	1543
468.825	1194
468.904	1097
468.983	1050
469.062	805
469.141	1311
469.220	674
469.299	1401
469.378	1223
469.456	1423
469.535	1040
469.614	1316
469.693	1425
469.772	1411
469.851	605
469.930	1098
470.009	838
470.088	1322
470.166	790
470.245	1332
470.324	-277
470.403	1085
470.482	306
470.560	509
470.639	1047
470.718	977
470.797	39
470.875	1408
470.954	596
471.033	1450
471.111	1048
471.190	1395
471.269	415
471.347	759
471.426	36
471.505	491
471.583	797
471.662	1451
471.740	445
471.819	1169
471.898	444
471.976	1876
472.055	815
472.133	871
472.212	500
472.290	864
472.369	634
472.447	1253
472.526	430
472.604	1393
472.683	1229
472.761	717
472.839	958
472.918	1969
472.996	831
473.075	1121
473.153	1267
473.231	974
473.310	730
473.388	1467
473.466	656
473.545	1748
473.623	361
473.701	857
473.780	966
473.858	1165
473.936	1166
474.014	1613
474.093	1121
474.171	1185
474.249	360
474.327	917
474.405	-52
474.484	1037
474.562	331
474.640	1348
474.718	1114
474.796	1233
474.874	750
474.952	853
475.030	1043
475.108	1332
475.187	560
475.265	1270
475.343	770
475.421	1437
475.499	400
475.577	1642
475.655	1275
475.733	1115
475.811	26
475.889	561
475.966	923
476.044	368
476.122	-143
476.200	1023
476.278	412
476.356	264
476.434	369
476.512	1112
476.590	992
476.667	1617
476.745	656
476.823	1866
476.901	11
476.979	945
477.056	570
477.134	921
477.212	526
477.290	920
477.367	182
477.445	1115
477.523	-540
477.601	1078
477.678	434
477.756	2078
477.834	-48
477.911	1064
477.989	-52
478.066	585
478.144	88
478.222	1264
478.299	1222
478.377	1440
478.454	696
478.532	542
478.609	720
478.687	1041
478.764	200
478.842	540
478.919	767
478.997	956
479.074	491
479.152	321
479.229	232
479.307	1206
479.384	799
479.461	1456
479.539	730
479.616	624
479.694	658
479.771	1175
479.848	530
479.926	1404
480.003	1215
480.080	574
480.157	510
480.235	722
480.312	846
480.389	1475
480.467	618
480.544	984
480.621	578
480.698	444
480.775	147
480.853	1220
480.930	266
481.007	1193
481.084	358
481.161	1822
481.238	1510
481.315	1287
481.392	228
481.470	1015
481.547	446
481.624	290
481.701	-308
481.778	1306
481.855	758
481.932	1013
482.009	906
482.086	1333
482.163	1388
482.240	1656
482.317	1223
482.393	1278
482.470	751
482.547	1572
482.624	96
482.701	1344
482.778	1130
482.855	1320
482.932	1043
483.009	1145
483.085	902
483.162	1585
483.239	1623
483.316	1674
483.393	1359
483.469	1784
483.546	1538
483.623	1637
483.699	824
483.776	1173
483.853	461
483.930	446
484.006	852
484.083	2192
484.160	1235
484.236	1703
484.313	1410
484.389	1691
484.466	766
484.543	1950
484.619	1023
484.696	3171
484.772	1632
484.849	1622
484.925	680
485.002	1586
485.078	348
485.155	1725
485.231	42
485.308	-26
485.384	478
485.461	517
485.537	336
485.614	1316
485.690	749
485.766	1981
485.843	773
485.919	1015
485.995	1248
486.072	1338
486.148	1311
486.224	608
486.301	1206
486.377	799
486.453	674
486.530	1251
486.606	1319
486.682	1192
486.758	1154
486.835	601
486.911	578
486.987	2388
487.063	817
487.139	549
487.215	2230
487.292	2146
487.368	2304
487.444	2273
487.520	2945
487.596	5898
487.672	11069
487.748	32835
487.824	64642
487.900	31482
487.976	8892
488.052	4600
488.128	2548
488.204	2551
488.280	562
488.356	2326
488.432	791
488.508	2638
488.584	1566
488.660	1654
488.736	250
488.812	1471
488.888	798
488.964	1871
489.039	317
489.115	1169
489.191	511
489.267	1462
489.343	524
489.418	636
489.494	1226
489.570	1697
489.646	907
489.722	442
489.797	784
489.873	1099
489.949	942
490.024	1350
490.100	814
490.176	1338
490.251	852
490.327	647
490.403	660
490.478	1597
490.554	896
490.629	635
490.705	982
490.781	1003
490.856	994
490.932	1395
491.007	535
491.083	975
491.158	548
491.234	399
491.309	603
491.385	1464
491.460	309
491.536	1280
491.611	328
491.686	914
491.762	321
491.837	428
491.913	580
491.988	1085
492.063	340
492.139	1319
492.214	211
492.289	1479
492.365	623
492.440	1221
492.515	393
492.590	631
492.666	690
492.741	1089
492.816	873
492.891	70
492.967	610
493.042	1290
493.117	222
493.192	581
493.267	812
493.342	1633
493.418	2059
493.493	1356
493.568	144
493.643	1376
493.718	214
493.793	823
493.868	34
493.943	983
494.018	1524
494.093	716
494.168	482
494.243	684
494.318	1339
494.393	952
494.468	-34
494.543	368
494.618	-329
494.693	-33
494.768	654
494.842	767
494.917	630
494.992	1161
495.067	140
495.142	-112
495.217	9
495.292	1163
495.366	426
495.441	203
495.516	1046
495.591	479
495.665	999
495.740	120
495.815	155
495.890	1082
495.964	475
496.039	1216
496.114	828
496.188	1291
496.263	507
496.338	603
496.412	268
496.487	428
496.561	425
496.636	1169
496.710	543
496.785	726
496.860	-324
496.934	541
497.009	532
497.083	420
497.158	309
497.232	841
497.307	334
497.381	120
497.455	750
497.530	581
497.604	391
497.679	297
497.753	1248
497.827	978
497.902	471
497.976	719
498.050	825
498.125	2635
498.199	1180
498.273	857
498.348	507
498.422	999
498.496	67
498.570	1874
498.645	-328
498.719	692
498.793	434
498.867	519
498.941	486
499.016	1117
499.090	2047
499.164	1213
499.238	681
499.312	815
499.386	373
499.460	1395
499.534	1362
499.609	745
499.683	343
499.757	1622
499.831	679
499.905	1222
499.979	1176
500.053	1151
500.127	20
500.201	359
500.275	715
500.349	1287
500.422	1006
500.496	757
500.570	232
500.644	979
500.718	1648
500.792	1151
500.866	-254
500.940	1822
501.013	892
501.087	1008
501.161	565
501.235	920
501.309	234
501.382	1766
501.456	1148
501.530	1085
501.603	6
501.677	1492
501.751	854
501.825	1245
501.898	256
501.972	1193
502.046	-135
502.119	1072
502.193	1033
502.266	579
502.340	1209
502.413	1337
502.487	441
502.561	750
502.634	259
502.708	1116
502.781	-55
502.855	1180
502.928	494
503.002	883
503.075	494
503.149	1319
503.222	636
503.295	1342
503.369	791
503.442	1091
503.516	724
503.589	1781
503.662	586
503.736	1832
503.809	2202
503.882	2954
503.956	3233
504.029	7506
504.102	18700
504.175	36361
504.249	18426
504.322	6453
504.395	2769
504.468	3647
504.542	1838
504.615	1758
504.688	382
504.761	487
504.834	265
504.907	1046
504.980	454
505.053	1105
505.127	420
505.200	1532
505.273	-21
505.346	942
505.419	-157
505.492	362
505.565	-463
505.638	1274
505.711	274
505.784	1088
505.857	172
505.930	791
506.003	-38
506.076	1967
506.149	363
506.221	201
506.294	149
506.367	813
506.440	487
506.513	1858
506.586	581
506.659	362
506.731	84
506.804	712
506.877	380
506.950	100
507.022	359
507.095	393
507.168	111
507.241	863
507.313	332
507.386	437
507.459	234
507.531	545
507.604	82
507.677	1003
507.749	-550
507.822	513
507.894	-406
507.967	252
508.040	-156
508.112	975
508.185	446
508.257	365
508.330	1038
508.402	971
508.475	582
508.547	62
508.620	415
508.692	411
508.765	309
508.837	364
508.909	447
508.982	450
509.054	-241
509.127	313
509.199	-515
509.271	233
509.344	337
509.416	585
509.488	113
509.560	550
509.633	-201
509.705	547
509.777	-630
509.849	743
509.922	49
509.994	885
510.066	371
510.138	-138
510.210	422
510.283	-13
510.355	579
510.427	491
510.499	-26
510.571	567
510.643	-109
510.715	604
510.787	-791
510.859	218
510.931	-256
511.003	730
511.076	482
511.148	751
511.219	34
511.291	1316
511.363	-42
511.435	202
511.507	240
511.579	1099
511.651	-354
511.723	373
511.795	-65
511.867	-22
511.939	871
512.010	631
512.082	-523
512.154	474
512.226	134
512.298	834
512.369	528
512.441	365
512.513	-576
512.585	-71
512.656	150
512.728	-53
512.800	-318
512.871	-210
512.943	35
513.015	-94
513.086	500
513.158	869
513.230	-90
513.301	-419
513.373	730
513.444	786
513.516	-810
513.588	750
513.659	93
513.731	813
513.802	-141
513.874	295
513.945	-934
514.016	-143
514.088	294
514.159	473
514.231	419
514.302	337
514.374	787
514.445	-376
514.516	874
514.588	128
514.659	124
514.730	254
514.802	700
514.873	-1111
514.944	645
515.016	996
515.087	-321
515.158	572
515.229	449
515.301	233
515.372	-313
515.443	684
515.514	101
515.585	226
515.656	245
515.728	887
515.799	112
515.870	463
515.941	18
516.012	-133
516.083	339
516.154	-601
516.225	1396
516.296	1720
516.367	942
516.438	371
516.509	-109
516.580	238
516.651	574
516.722	1855
516.793	1781
516.864	514
516.935	335
517.006	1181
517.077	-236
517.148	1253
517.219	2167
517.289	4500
517.360	1786
517.431	1032
517.502	77
517.573	543
517.643	-86
517.714	455
517.785	295
517.856	193
517.926	817
517.997	1107
518.068	755
518.138	356
518.209	1227
518.280	1856
518.350	5981
518.421	4950
518.492	1662
518.562	3528
518.633	4394
518.703	6842
518.774	13754
518.845	34652
518.915	45577
518.986	16665
519.056	5885
519.127	3577
519.197	1730
519.268	1118
519.338	2132
519.408	1167
519.479	-44
519.549	1344
519.620	500
519.690	729
519.760	352
519.831	1103
519.901	657
519.971	831
520.042	796
520.112	1279
520.182	142
520.253	814
520.323	34
520.393	-118
520.463	241
520.534	441
520.604	1899
520.674	870
520.744	331
520.814	-241
520.885	73
520.955	503
521.025	252
521.095	686
521.165	305
521.235	-145
521.305	-240
521.375	793
521.445	486
521.515	471
521.585	771
521.655	152
521.725	515
521.795	92
521.865	-471
521.935	456
522.005	103
522.075	343
522.145	-563
522.215	989
522.285	126
522.355	1102
522.424	695
522.494	238
522.564	-39
522.634	807
522.704	-174
522.774	-309
522.843	-22
522.913	128
522.983	469
523.053	887
523.122	-140
523.192	674
523.262	8
523.331	765
523.401	-31
523.471	919
523.540	153
523.610	342
523.680	-33
523.749	-262
523.819	499
523.888	193
523.958	-480
524.027	272
524.097	131
524.166	668
524.236	-442
524.305	1004
524.375	-413
524.444	670
524.514	550
524.583	19
524.653	26
524.722	733
524.791	147
524.861	613
524.930	393
524.999	75
525.069	234
525.138	441
525.207	-314
525.277	1417
525.346	217
525.415	1566
525.484	274
525.554	505
525.623	974
525.692	1518
525.761	1052
525.830	3031
525.900	4153
525.969	6816
526.038	12210
526.107	20274
526.176	62500
526.245	71601
526.314	22662
526.383	28921
526.452	54616
526.522	55310
526.591	78157
526.660	18318
526.729	6935
526.797	8125
526.867	8684
526.935	21546
527.004	76307
527.073	88608
527.142	15298
527.211	6324
527.280	3197
527.349	2429
527.418	755
527.487	1716
527.555	383
527.624	1579
527.693	830
527.762	1715
527.831	116
527.899	995
527.968	243
528.037	778
528.106	120
528.174	898
528.243	203
528.312	1878
528.380	296
528.449	757
528.518	612
528.586	90
528.655	248
528.723	739
528.792	145
528.861	713
528.929	-477
528.998	985
529.066	812
529.135	722
529.203	-72
529.272	-448
529.340	193
529.409	1033
529.477	624
529.545	210
529.614	493
529.682	-151
529.751	-229
529.819	1328
529.887	-166
529.956	478
530.024	-386
530.092	548
530.161	491
530.229	-637
530.297	45
530.365	861
530.434	294
530.502	-678
530.570	-249
530.638	-493
530.707	737
530.775	1482
530.843	-425
530.911	1081
530.979	178
531.047	1013
531.115	-348
531.183	229
531.252	617
531.320	995
531.388	-363
531.456	525
531.524	254
531.592	1086
531.660	1319
531.728	-163
531.796	155
531.864	608
531.932	595
532.000	569
532.067	284
532.135	781
532.203	333
532.271	813
532.339	842
532.407	1270
532.475	694
532.542	748
532.610	659
532.678	253
532.746	380
532.814	2003
532.881	420
532.949	812
533.017	465
533.084	1463
533.152	308
533.220	165
533.287	-29
533.355	669
533.423	124
533.490	546
533.558	140
533.625	654
533.693	80
533.761	1259
533.828	745
533.896	697
533.963	619
534.031	1328
534.098	1327
534.166	1259
534.233	696
534.300	1388
534.368	681
534.435	1336
534.503	1210
534.570	1717
534.637	1438
534.705	2410
534.772	3730
534.840	5331
534.907	20757
534.974	47525
535.041	10497
535.109	2358
535.176	1048
535.243	2283
535.310	1387
535.378	551
535.445	754
535.512	1493
535.579	1484
535.646	982
535.714	890
535.781	2177
535.848	1334
535.915	2010
535.982	274
536.049	1162
536.116	2106
536.183	1172
536.250	805
536.317	1231
536.384	1355
536.451	1569
536.518	1034
536.585	1313
536.652	1039
536.719	1178
536.786	957
536.853	1483
536.920	1659
536.987	854
537.053	1045
537.120	2156
537.187	1437
537.254	2175
537.321	256
537.388	1996
537.454	1165
537.521	1676
537.588	906
537.654	1978
537.721	1417
537.788	1727
537.855	723
537.921	2536
537.988	1663
538.055	1864
538.121	572
538.188	1320
538.254	1570
538.321	1974
538.388	377
538.454	1431
538.521	1326
538.587	1823
538.654	1217
538.720	1372
538.787	1168
538.853	1655
538.920	1046
538.986	1320
539.053	692
539.119	575
539.185	1069
539.252	1609
539.318	1155
539.385	1861
539.451	1256
539.517	1455
539.583	2028
539.650	1805
539.716	1048
539.782	1110
539.849	1389
539.915	1991
539.981	1694
540.047	2576
540.114	1584
540.180	1794
540.246	1205
540.312	2380
540.378	1468
540.444	2308
540.510	1449
540.576	2693
540.643	1395
540.709	1261
540.775	1318
540.841	2048
540.907	1605
540.973	1758
541.039	1081
541.105	1383
541.171	1509
541.237	1610
541.303	1278
541.369	2807
541.435	1228
541.500	2517
541.566	1047
541.632	1524
541.698	685
541.764	1992
541.830	1332
541.896	1615
541.961	1825
542.027	1851
542.093	1919
542.159	2456
542.224	1705
542.290	1753
542.356	1320
542.421	2172
542.487	1807
542.553	1976
542.618	725
542.684	1747
542.750	1367
542.815	2808
542.881	1680
542.947	1947
543.012	1956
543.078	1396
543.143	1264
543.209	2747
543.274	1324
543.340	2508
543.405	1955
543.471	817
543.536	1814
543.602	2721
543.667	1028
543.732	2634
543.798	1390
543.863	2427
543.928	1208
543.994	1702
544.059	1517
544.124	2200
544.190	1067
544.255	2677
544.320	2031
544.386	1916
544.451	1900
544.516	2172
544.581	1887
544.646	2557
544.712	1954
544.777	1812
544.842	2052
544.907	2445
544.972	2360
545.037	2288
545.102	2145
545.168	2752
545.233	1977
545.298	3089
545.363	1640
545.428	2960
545.493	2332
545.558	3416
545.623	2943
545.688	2654
545.753	2221
545.818	2433
545.883	3651
545.947	2707
546.012	3171
546.077	3133
546.142	3922
546.207	3869
546.272	4277
546.337	4367
546.401	4476
546.466	4188
546.531	3738
546.596	6314
546.661	4637
546.725	6386
546.790	5404
546.855	5915
546.919	6479
546.984	8306
547.049	8059
547.113	10440
547.178	9215
547.243	12394
547.307	13531
547.372	15790
547.436	15940
547.501	16374
547.565	16731
547.630	17262
547.695	16000
547.759	16565
547.823	15667
547.888	16343
547.952	16813
548.017	17494
548.081	18291
548.146	17702
548.210	18066
548.274	19558
548.339	20465
548.403	18884
548.468	15946
548.532	16601
548.596	16219
548.660	16767
548.725	17575
548.789	19837
548.853	19626
548.917	18925
548.982	17755
549.046	17424
549.110	14754
549.174	15198
549.238	17253
549.303	19313
549.367	21394
549.431	20061
549.495	19410
549.559	18563
549.623	19810
549.687	24257
549.751	22659
549.815	25704
549.879	28456
549.943	25536
550.007	26317
550.071	26777
550.135	24670
550.199	23850
550.263	23677
550.327	22936
550.391	21074
550.455	24198
550.519	26529
550.582	27707
550.646	28895
550.710	31983
550.774	30500
550.838	31694
550.901	31437
550.965	34469
551.029	34273
551.093	38457
551.156	40648
551.220	43028
551.284	46927
551.347	42553
551.411	35827
551.475	32473
551.538	34190
551.602	33109
551.666	29450
551.729	29334
551.793	27820
551.856	27987
551.920	27469
551.983	27193
552.047	26297
552.110	27076
552.174	26913
552.237	28419
552.301	27088
552.364	25089
552.428	24897
552.491	24822
552.554	25325
552.618	25751
552.681	26462
552.745	24457
552.808	25853
552.871	27342
552.934	27271
552.998	25918
553.061	25065
553.124	25772
553.187	23435
553.251	25165
553.314	25787
553.377	24889
553.440	27196
553.503	27789
553.567	28802
553.630	28138
553.693	27238
553.756	27580
553.819	26228
553.882	26632
553.945	25422
554.008	26444
554.071	25604
554.134	27210
554.197	25464
554.260	25140
554.323	24834
554.386	25531
554.449	26283
554.512	27047
554.575	24639
554.638	25372
554.701	24535
554.764	25050
554.827	24133
554.889	23922
554.952	21487
555.015	21232
555.078	21201
555.141	23188
555.203	22270
555.266	22950
555.329	21428
555.391	21260
555.454	21438
555.517	21372
555.580	19588
555.642	19550
555.705	18898
555.768	19317
555.830	19285
555.893	19009
555.955	16528
556.018	17743
556.080	16408
556.143	17415
556.206	17251
556.268	18373
556.330	17149
556.393	17457
556.455	15285
556.518	16215
556.580	15048
556.643	14117
556.705	14586
556.767	14410
556.830	15152
556.892	14280
556.955	13994
557.017	13342
557.079	13418
557.142	13515
557.204	13011
557.266	13547
557.328	12289
557.391	12250
557.453	11297
557.515	12075
557.577	12200
557.639	11169
557.701	12022
557.764	11642
557.826	11698
557.888	13622
557.950	13193
558.012	14298
558.074	17923
558.136	24572
558.198	60117
558.260	46144
558.322	15094
558.384	13844
558.446	14312
558.508	16225
558.570	17111
558.632	20375
558.694	26076
558.756	36479
558.818	64858
558.880	149254
558.942	113726
559.003	72328
559.065	59003
559.127	23718
559.189	18487
559.251	20718
559.312	25703
559.374	41904
559.436	100361
559.498	108351
559.559	31647
559.621	21955
559.683	20418
559.744	28353
559.806	52522
559.868	109935
559.929	52161
559.991	24139
560.052	27065
560.114	57336
560.176	65939
560.237	35460
560.299	66133
560.360	33464
560.422	9507
560.483	8656
560.545	7013
560.606	7363
560.667	7007
560.729	6021
560.790	5459
560.852	6520
560.913	5785
560.974	5724
561.036	4545
561.097	6232
561.158	5595
561.220	6399
561.281	4780
561.342	4849
561.403	5748
561.465	4773
561.526	5088
561.587	5895
561.648	3865
561.709	4661
561.771	3823
561.832	5001
561.893	3779
561.954	5450
562.015	4303
562.076	4742
562.137	3858
562.198	4349
562.259	4188
562.320	4509
562.381	3963
562.442	4033
562.503	4601
562.564	3654
562.625	3734
562.686	4766
562.747	3535
562.808	4401
562.869	3239
562.930	4693
562.991	3450
563.051	3899
563.112	3334
563.173	4350
563.234	2806
563.294	4459
563.355	3732
563.416	4051
563.477	3492
563.537	4000
563.598	3384
563.659	3853
563.720	3816
563.780	4469
563.841	3026
563.901	3969
563.962	3417
564.023	3423
564.083	3865
564.144	3523
564.204	3683
564.265	4336
564.325	3085
564.386	4100
564.446	3649
564.507	3960
564.567	3487
564.628	3995
564.688	3116
564.749	3477
564.809	3587
564.869	3848
564.930	3351
564.990	4717
565.050	3332
565.111	2985
565.171	3045
565.231	3925
565.292	3944
565.352	3209
565.412	3510
565.472	3660
565.532	4510
565.593	3897
565.653	3018
565.713	4031
565.773	3569
565.833	2353
565.893	4325
565.953	3278
566.013	2984
566.074	4118
566.134	3384
566.194	3318
566.254	4074
566.314	4280
566.374	3360
566.434	4366
566.494	2588
566.554	3471
566.614	3457
566.673	4142
566.733	4157
566.793	5010
566.853	4135
566.913	4169
566.973	3020
567.033	5345
567.092	3602
567.152	4405
567.212	3894
567.272	4877
567.331	3379
567.391	4561
567.451	5114
567.511	5036
567.570	3944
567.630	4200
567.690	4762
567.749	3900
567.809	4504
567.868	5071
567.928	3911
567.988	4594
568.047	3830
568.107	4961
568.166	4375
568.226	4324
568.285	4158
568.345	5060
568.404	5395
568.464	4953
568.523	3835
568.582	4787
568.642	4276
568.701	4977
568.761	3929
568.820	4773
568.879	5209
568.939	5108
568.998	4116
569.057	4876
569.116	4340
569.176	5033
569.235	4635
569.294	5554
569.353	3559
569.413	5782
569.472	4729
569.531	4640
569.590	4587
569.649	4479
569.708	4265
569.767	5429
569.827	4259
569.886	4444
569.945	4671
570.004	4962
570.063	3878
570.122	4987
570.181	4292
570.240	5779
570.299	5251
570.358	4861
570.417	4744
570.475	5817
570.534	5407
570.593	5002
570.652	5194
570.711	5373
570.770	4317
570.829	5251
570.887	4569
570.946	5890
571.005	4999
571.064	5764
571.122	5292
571.181	5963
571.240	4950
571.299	4643
571.357	4626
571.416	5960
571.475	4600
571.533	5983
571.592	5062
571.650	6033
571.709	4623
571.768	5962
571.826	6162
571.885	7142
571.943	5623
572.002	5738
572.060	5231
572.119	5853
572.177	5168
572.236	5639
572.294	4966
572.352	6541
572.411	5824
572.469	6158
572.528	6172
572.586	6607
572.644	5495
572.703	6006
572.761	5535
572.819	5787
572.877	5510
572.936	5057
572.994	4686
573.052	5004
573.110	5695
573.169	6423
573.227	5825
573.285	5938
573.343	5387
573.401	5378
573.459	5422
573.517	5824
573.576	5719
573.634	6309
573.692	5047
573.750	6202
573.808	6113
573.866	5665
573.924	5043
573.982	5040
574.040	5816
574.098	5944
574.155	5670
574.213	5636
574.271	5417
574.329	6646
574.387	6054
574.445	5385
574.503	5643
574.560	6049
574.618	5044
574.676	5359
574.734	5064
574.792	6335
574.849	5009
574.907	5273
574.965	4881
575.022	5263
575.080	4444
575.138	4956
575.195	3681
575.253	4677
575.311	4013
575.368	5049
575.426	4460
575.483	4788
575.541	5159
575.598	4804
575.656	4190
575.713	4410
575.771	4499
575.828	5955
575.886	4499
575.943	6062
576.001	3741
576.058	4829
576.115	3930
576.173	4711
576.230	5030
576.287	4764
576.345	5035
576.402	5793
576.459	4740
576.517	5357
576.574	4947
576.631	4702
576.688	5179
576.746	4905
576.803	4206
576.860	5454
576.917	4406
576.974	4931
577.031	4499
577.089	4803
577.146	4277
577.203	3759
577.260	4410
577.317	4988
577.374	4156
577.431	4974
577.488	4947
577.545	5408
577.602	5018
577.659	5127
577.716	3818
577.773	5678
577.830	3636
577.886	5218
577.943	4958
578.000	5164
578.057	3950
578.114	4961
578.171	5001
578.227	5215
578.284	4659
578.341	5587
578.398	4288
578.454	5894
578.511	5355
578.568	4819
578.625	4305
578.681	5332
578.738	4473
578.794	4902
578.851	4224
578.908	4950
578.964	4126
579.021	5580
579.077	4753
579.134	5254
579.190	4558
579.247	5536
579.303	4814
579.360	4957
579.416	4905
579.473	5765
579.529	4992
579.586	6204
579.642	4901
579.698	5383
579.755	5070
579.811	5297
579.867	5589
579.924	5815
579.980	5128
580.036	5569
580.093	5984
580.149	6399
580.205	6378
580.261	6370
580.317	5021
580.374	5934
580.430	5734
580.486	5967
580.542	5872
580.598	5913
580.619	5799
580.654	5603
580.692	5807
580.710	5917
580.765	5516
580.767	5506
580.823	5807
580.838	5873
580.879	6039
580.911	6360
580.935	6605
580.984	6237
580.991	6189
581.047	6330
581.057	6185
581.103	5545
581.130	5678
581.159	5832
581.203	5466
581.215	5365
581.270	7270
581.276	7110
581.326	5603
581.349	6072
581.382	6801
581.422	6071
581.438	5766
581.494	6180
581.494	6168
581.550	5070
581.567	5359
581.606	5954
581.640	5865
581.661	5835
581.713	6777
581.717	6848
581.773	5919
581.786	6058
581.829	6611
581.859	6189
581.885	5775
581.932	6886
581.940	7106
581.996	6336
582.004	6434
582.052	6887
582.077	6297
582.107	5683
582.150	6283
582.163	6439
582.219	5695
582.223	5694
582.274	5662
582.296	5676
582.330	5789
582.368	6151
582.386	6276
582.441	5656
582.441	5655
582.497	6653
582.514	6564
582.552	6352
582.587	6402
582.608	6443
582.659	6268
582.663	6243
582.719	6227
582.732	6222
582.774	6334
582.805	6522
582.830	6686
582.877	6619
582.885	6607
582.941	6504
582.950	6423
582.996	5921
583.023	6517
583.052	7230
583.095	6516
583.107	6319
583.162	7201
583.168	7206
583.218	7293
583.240	7108
583.273	6804
583.313	6893
583.328	6833
583.384	6867
583.385	6845
583.439	6668
583.458	6592
583.494	6301
583.531	6393
583.549	6542
583.603	7211
583.605	7221
583.660	7253
583.676	7341
583.715	7708
583.748	7423
583.770	7198
583.820	6963
583.825	6937
583.881	6261
583.893	6512
583.936	7393
583.965	7144
583.991	7059
584.038	7578
584.046	7640
584.101	6735
584.110	6835
584.156	7209
584.183	7284
584.211	7505
584.255	8064
584.266	8165
584.321	7796
584.328	7844
584.376	8471
584.400	8052
584.431	7400
584.472	8024
584.486	8285
584.541	8335
584.545	8367
584.596	8674
584.617	8404
584.651	8227
584.689	8931
584.706	9124
584.761	8873
584.762	8873
584.816	9539
584.834	9599
584.871	9756
584.906	10302
584.926	10630
584.978	11001
584.980	11018
585.035	12313
585.051	12412
585.090	12848
585.123	13887
585.145	14885
585.195	16586
585.200	16767
585.254	19677
585.267	20527
585.309	24013
585.340	26892
585.364	29519
585.412	35342
585.419	36274
585.473	44551
585.484	46226
585.528	55933
585.556	64620
585.583	80836
585.628	114222
585.637	131255
585.692	251159
585.700	272560
585.747	445204
585.772	513457
585.801	447712
585.845	295697
585.856	256440
585.910	99644
585.917	83147
585.965	54140
585.989	41523
586.019	35340
586.061	27875
586.074	26557
586.128	22969
586.133	22665
586.183	21251
586.205	20417
586.237	19488
586.277	18421
586.292	18171
586.346	18036
586.349	17964
586.401	17022
586.421	16955
586.455	17202
586.493	17454
586.509	17755
586.564	17837
586.565	17832
586.618	17887
586.637	18371
586.672	20687
586.709	21989
586.727	23407
586.781	29558
586.781	29607
586.835	28318
586.853	27732
586.889	24100
586.925	20881
586.944	20070
586.996	18522
586.998	18539
587.052	18004
587.068	17966
587.106	18003
587.140	17724
587.161	17727
587.212	18125
587.215	18140
587.269	17217
587.284	17235
587.323	18024
587.356	18546
587.377	18711
587.427	19067
587.431	19124
587.485	19377
587.499	19381
587.539	19257
587.571	19358
587.593	20043
587.643	21808
587.648	21947
587.702	22278
587.715	22511
587.755	22698
587.786	22531
587.810	22710
587.858	23002
587.864	23037
587.917	22757
587.930	22814
587.971	23024
588.001	22872
588.025	22831
588.073	22796
588.079	22855
588.133	22961
588.145	23043
588.187	22884
588.217	22463
588.241	22648
588.288	23284
588.295	23449
588.348	24491
588.360	24726
588.402	25197
588.431	25029
588.456	25050
588.503	25495
588.510	25599
588.564	26079
588.575	26361
588.617	28142
588.646	28512
588.671	28942
588.718	30680
588.725	30929
588.778	32362
588.789	32771
588.832	37820
588.861	41803
588.886	55618
588.932	84071
588.939	93513
588.993	170115
589.004	182417
589.047	142939
589.075	111010
589.100	81504
589.147	34164
589.154	33555
589.207	30014
589.218	29355
589.261	29656
589.290	29726
589.314	30109
589.361	31083
589.368	31440
589.421	33803
589.433	34538
589.475	44432
589.504	51921
589.528	73553
589.576	118927
589.582	121558
589.635	135801
589.647	136329
589.689	76936
589.718	38153
589.742	34212
589.790	27580
589.795	27589
589.849	27436
589.861	27399
589.902	27824
589.932	27859
589.955	27830
590.004	27766
590.009	27707
590.062	26648
590.075	26274
590.115	25833
590.146	25514
590.168	25933
590.218	26689
590.222	26767
590.275	27181
590.289	27255
590.328	27357
590.360	27247
590.381	27487
590.431	28028
590.435	28134
590.488	29064
590.503	29271
590.541	29671
590.574	29861
590.594	30049
590.645	30431
590.647	30522
590.700	31391
590.716	31620
590.753	32642
590.787	33463
590.806	33917
590.859	34898
590.859	34979
590.912	35648
590.930	35843
590.965	35971
591.001	35873
591.018	35952
591.071	35928
591.072	35856
591.124	35266
591.143	35023
591.177	35439
591.214	35710
591.230	36005
591.283	36795
591.285	36750
591.336	35724
591.356	35188
591.389	35564
591.427	35890
591.442	36101
591.495	36622
591.498	36585
591.547	35750
591.569	35285
591.600	36416
591.640	37660
591.653	37868
591.706	38580
591.711	38553
591.759	39090
591.782	39382
591.811	40392
591.853	41516
591.864	41817
591.917	42870
591.924	42921
591.969	41971
591.995	41335
592.022	41762
592.066	42187
592.075	42469
592.127	43739
592.137	43865
592.180	44637
592.208	45012
592.233	45618
592.279	46478
592.285	46714
592.338	47861
592.350	48011
592.390	48483
592.421	48665
592.443	48722
592.491	48503
592.495	48695
592.548	49910
592.562	50138
592.600	50676
592.633	50934
592.653	51155
592.704	51150
592.705	51417
592.775	50032
592.846	52730
592.916	54905
592.987	53355
593.058	54242
593.128	54631
593.199	55749
593.270	55319
593.341	55604
593.411	57285
593.482	60337
593.553	62445
593.623	62595
593.694	64142
593.764	66895
593.835	66109
593.906	65317
593.976	66037
594.047	68793
594.117	72321
594.188	74386
594.258	76089
594.329	74568
594.399	75291
594.470	77965
594.540	80618
594.611	84038
594.681	84017
594.751	83856
594.822	86120
594.892	89067
594.963	92893
595.033	95004
595.103	98644
595.174	98904
595.244	99832
595.314	104602
595.384	106349
595.455	108795
595.525	112427
595.595	116534
595.665	118739
595.736	115679
595.806	115735
595.876	119859
595.946	119028
596.016	121758
596.087	129387
596.157	131247
596.227	128585
596.297	133902
596.367	139525
596.437	150844
596.507	154678
596.577	152248
596.647	155038
596.717	161609
596.787	168783
596.857	168468
596.927	167056
596.997	170383
597.067	171008
597.137	172615
597.207	173501
597.277	176956
597.347	175530
597.417	166512
597.487	163266
597.557	165353
597.626	170089
597.696	174237
597.766	175208
597.836	170007
597.906	158043
597.975	152675
598.045	151461
598.115	155813
598.185	163857
598.254	179935
598.324	200984
598.394	211074
598.464	210512
598.533	204786
598.603	197041
598.672	183635
598.742	184853
598.812	187884
598.881	191212
598.951	193563
599.020	192667
599.090	197951
599.159	205972
599.229	201355
599.299	192438
599.368	194768
599.437	200219
599.507	188503
599.576	175103
599.646	170520
599.715	167807
599.785	166512
599.854	162478
599.924	159897
599.993	155748
600.062	156882
600.132	161794
600.201	165583
600.270	186628
600.340	212213
600.409	210774
600.478	208628
600.547	206532
600.617	212189
600.686	169164
600.755	144024
600.824	131734
600.894	127322
600.963	125629
601.032	127017
601.101	122576
601.170	117773
601.239	110859
601.308	108333
601.378	109031
601.447	107778
601.516	110343
601.585	109298
601.654	110722
601.723	111735
601.792	113687
601.861	118315
601.930	121512
601.999	124634
602.068	123528
602.137	124033
602.206	126503
602.275	128938
602.343	131126
602.412	131428
602.481	132882
602.550	134215
602.619	136443
602.688	138854
602.756	140019
602.825	141625
602.894	144815
602.963	150867
603.032	151481
603.100	153385
603.169	153363
603.238	153954
603.307	154894
603.375	155743
603.444	159144
603.513	160997
603.581	164562
603.650	168431
603.719	167392
603.787	170476
603.856	177224
603.924	179245
603.993	185689
604.061	190477
604.130	200384
604.198	206316
604.267	209229
604.335	213496
604.404	215214
604.472	221570
604.541	221937
604.609	225456
604.678	225033
604.746	223725
604.815	227976
604.883	236202
604.951	236997
605.020	238787
605.088	243332
605.156	247965
605.225	256268
605.293	256996
605.361	255678
605.429	256057
605.498	261844
605.566	267041
605.634	276610
605.702	289183
605.771	297847
605.839	304246
605.907	299721
605.975	293723
606.043	282266
606.111	280046
606.180	280724
606.248	280300
606.316	277875
606.384	275663
606.452	274191
606.520	279425
606.588	290433
606.656	299526
606.724	299494
606.792	285008
606.860	268402
606.928	240041
606.996	225491
607.064	215577
607.132	219414
607.200	226067
607.267	242661
607.335	243212
607.403	254653
607.471	252452
607.539	237545
607.607	242701
607.674	226046
607.742	212126
607.810	209706
607.878	209833
607.946	212450
608.013	219746
608.081	226757
608.149	230647
608.216	233798
608.284	245055
608.352	244989
608.419	249119
608.487	241722
608.555	233615
608.622	236600
608.690	245832
608.757	266577
608.825	287870
608.893	283049
608.960	274525
609.028	258802
609.095	252650
609.163	253317
609.230	244853
609.298	211308
609.365	209155
609.432	225459
609.500	240760
609.567	267753
609.635	305633
609.702	340511
609.769	338672
609.837	305325
609.904	232951
609.971	227648
610.039	237976
610.106	267602
610.173	371708
610.241	697785
610.308	1012006
610.375	451298
610.442	280068
610.509	249259
610.577	235775
610.644	235929
610.711	241759
610.778	250235
610.845	253564
610.912	267513
610.980	282128
611.047	288741
611.114	285210
611.181	278582
611.248	271371
611.315	275449
611.382	287722
611.449	296531
611.516	305109
611.583	302882
611.650	299502
611.717	305404
611.784	309474
611.851	316671
611.918	330625
611.984	351734
612.051	417471
612.118	574306
612.185	983730
612.252	1370075
612.319	783413
612.386	467049
612.452	400935
612.519	362344
612.586	346239
612.653	339431
612.719	349414
612.786	353662
612.853	331732
612.919	312697
612.986	315838
613.053	309807
613.120	293893
613.186	273828
613.253	273810
613.319	271888
613.386	273007
613.453	276559
613.519	279770
613.586	276464
613.652	274844
613.719	275309
613.785	272737
613.852	281046
613.918	280572
613.985	280400
614.051	286412
614.118	293397
614.184	288618
614.250	277686
614.317	285735
614.383	281104
614.449	285134
614.516	286844
614.582	285292
614.648	281847
614.715	278767
614.781	278854
614.847	270561
614.914	274200
614.980	267622
615.046	262980
615.112	267359
615.179	275280
615.245	273831
615.311	275421
615.377	272763
615.443	279208
615.509	279474
615.575	286970
615.642	294228
615.708	291909
615.774	300294
615.840	316405
615.906	331476
615.972	360968
616.038	437588
616.104	654888
616.170	1117217
616.236	1509015
616.302	1044672
616.368	636390
616.434	511894
616.500	388960
616.565	375103
616.631	444397
616.697	491271
616.763	405817
616.829	458713
616.895	732976
616.961	1060559
617.026	780998
617.092	410702
617.158	322678
617.224	301234
617.289	280442
617.355	258735
617.421	250019
617.487	249781
617.552	239339
617.618	230147
617.684	228620
617.749	229434
617.815	227284
617.880	217259
617.946	214551
618.012	214017
618.077	222740
618.143	219761
618.208	210129
618.274	221332
618.339	237782
618.405	214918
618.470	188598
618.536	192950
618.601	189388
618.667	183406
618.732	168163
618.798	163845
618.863	162126
618.928	158793
618.994	159011
619.059	159456
619.124	160248
619.190	160065
619.255	159252
619.320	157501
619.386	159098
619.451	159895
619.516	156244
619.581	153276
619.647	157183
619.712	162590
619.777	156088
619.842	149871
619.907	154335
619.972	157378
620.038	159621
620.103	153954
620.168	152422
620.233	154905
620.298	156271
620.363	157822
620.428	159937
620.493	164204
620.558	168672
620.623	169502
620.688	172229
620.753	168463
620.818	171734
620.883	173195
620.948	174180
621.013	173078
621.078	169459
621.143	167116
621.207	172475
621.272	172028
621.337	168726
621.402	161702
621.467	162233
621.532	158145
621.596	160365
621.661	159394
621.726	153142
621.791	155752
621.855	156037
621.920	155031
621.985	154615
622.049	158135
622.114	160238
622.179	160775
622.243	163313
622.308	169912
622.373	175800
622.437	178332
622.502	169841
622.566	164250
622.631	162098
622.695	164865
622.760	163681
622.824	165739
622.889	165240
622.953	165457
623.018	168172
623.082	180467
623.147	176598
623.211	175663
623.276	170290
623.340	171701
623.404	162384
623.469	161448
623.533	160192
623.597	163890
623.662	158791
623.726	154686
623.790	140834
623.854	133671
623.919	134622
623.983	136462
624.047	138955
624.111	142314
624.176	143610
624.240	144973
624.304	148696
624.368	150126
624.432	145246
624.496	146227
624.560	153970
624.625	160887
624.689	157996
624.753	162853
624.817	165884
624.881	154616
624.945	150566
625.009	134210
625.073	135438
625.137	138348
625.201	145505
625.265	149642
625.329	144675
625.393	141706
625.456	144683
625.520	147296
625.584	152389
625.648	154820
625.712	158097
625.776	163538
625.839	158524
625.903	143959
625.967	120929
626.031	122889
626.095	136164
626.158	157549
626.222	128978
626.286	107082
626.349	102228
626.413	96370
626.477	91291
626.540	92320
626.604	94402
626.668	91618
626.731	89656
626.795	90253
626.858	90492
626.922	91037
626.986	89044
627.049	87909
627.113	91832
627.176	92951
627.240	89205
627.303	88714
627.366	88358
627.430	87447
627.493	91240
627.557	87098
627.620	86958
627.684	90322
627.747	94494
627.810	92248
627.874	82410
627.937	75204
628.000	75953
628.064	77379
628.127	72307
628.190	66759
628.253	64631
628.317	64805
628.380	60452
628.443	58503
628.506	57236
628.569	56607
628.632	53099
628.696	51478
628.759	51712
628.822	51188
628.885	48781
628.948	48284
629.011	48092
629.074	45790
629.137	45103
629.200	42888
629.263	42959
629.326	42592
629.389	43488
629.452	42603
629.515	42048
629.578	41228
629.641	39875
629.704	43060
629.767	42194
629.830	41392
629.892	39216
629.955	39367
630.018	38533
630.081	39808
630.144	39970
630.207	39583
630.269	39080
630.332	37754
630.395	37179
630.458	38529
630.520	36688
630.583	36288
630.646	35780
630.708	36905
630.771	37993
630.834	39838
630.896	41117
630.959	39156
631.021	39829
631.084	38712
631.146	38249
631.209	38787
631.272	38959
631.334	39429
631.397	39884
631.459	41290
631.522	41028
631.584	43838
631.646	45779
631.709	49702
631.771	51407
631.834	49583
631.896	46947
631.958	43937
632.021	42384
632.083	40513
632.145	38560
632.208	38020
632.270	37843
632.332	37511
632.395	36696
632.457	36955
632.519	36316
632.581	37298
632.643	35562
632.706	36634
632.768	35022
632.830	35755
632.892	36360
632.954	38042
633.016	38036
633.078	37622
633.141	36794
633.203	35826
633.265	36694
633.327	35848
633.389	36808
633.451	37248
633.513	37148
633.575	37826
633.637	37653
633.698	39001
633.760	39443
633.822	42334
633.884	42784
633.946	44690
634.008	46218
634.070	47782
634.132	49237
634.193	54465
634.255	58239
634.317	61244
634.379	62416
634.441	58314
634.502	53255
634.564	47524
634.626	43251
634.687	41018
634.749	38077
634.811	37294
634.873	36763
634.934	36148
634.996	36230
635.057	36609
635.119	36410
635.181	38611
635.242	38198
635.304	38139
635.365	38865
635.427	38356
635.488	37946
635.550	37931
635.611	38236
635.673	38909
635.734	40284
635.796	42033
635.857	46186
635.918	49666
635.980	54648
636.041	59827
636.102	63656
636.164	67615
636.225	66270
636.286	60557
636.348	54807
636.409	47382
636.470	41925
636.531	40037
636.593	38232
636.654	37567
636.715	34409
636.776	33774
636.838	32700
636.899	32490
636.960	30721
637.021	30501
637.082	29936
637.143	29263
637.204	28236
637.265	28448
637.326	29240
637.387	29351
637.448	29967
637.509	28943
637.570	28510
637.631	28501
637.692	27791
637.753	27490
637.814	26769
637.875	26776
637.936	26449
637.997	26172
638.058	26285
638.119	26622
638.179	26228
638.240	25189
638.301	26298
638.362	26103
638.423	24777
638.483	24630
638.544	23104
638.605	23946
638.666	23914
638.726	24567
638.787	23684
638.848	24169
638.908	24348
638.969	22670
639.030	22249
639.090	21820
639.151	22407
639.211	22783
639.272	23314
639.332	23091
639.393	24188
639.453	24137
639.514	28657
639.574	25920
639.635	22411
639.695	20657
639.756	21219
639.816	21220
639.877	19754
639.937	20809
639.997	19741
640.058	21279
640.118	20343
640.178	20847
640.239	20542
640.299	20712
640.359	21899
640.420	22584
640.480	24534
640.540	27674
640.600	32515
640.661	31426
640.721	25670
640.781	27467
640.841	26395
640.901	24670
640.961	21375
641.021	21866
641.082	22720
641.142	24561
641.202	21214
641.262	19714
641.322	20500
641.382	19559
641.442	19793
641.502	19368
641.562	20006
641.622	20077
641.682	21273
641.742	24510
641.802	27385
641.861	22527
641.921	19170
641.981	18700
642.041	18189
642.101	17752
642.161	17892
642.221	17776
642.280	16971
642.340	18045
642.400	17843
642.460	19394
642.519	18061
642.579	18554
642.639	19002
642.698	18459
642.758	20334
642.818	19436
642.877	19442
642.937	20440
642.997	19746
643.056	19252
643.116	19881
643.175	19346
643.235	19875
643.294	20871
643.354	21653
643.414	22406
643.473	24487
643.532	28639
643.592	36134
643.651	50581
643.711	78874
643.770	137275
643.830	263661
643.889	595705
643.948	658053
644.008	184738
644.067	67257
644.126	42678
644.186	33234
644.245	27462
644.304	23267
644.363	22730
644.423	20320
644.482	21058
644.541	21054
644.600	21578
644.659	25942
644.719	29779
644.778	40045
644.837	61620
644.896	114775
644.955	248206
645.014	353438
645.073	80135
645.132	35111
645.191	27815
645.250	24255
645.309	23969
645.368	25063
645.427	31019
645.486	45055
645.545	98011
645.604	104002
645.663	26236
645.722	21651
645.781	21867
645.840	23217
645.898	25722
645.957	32331
646.016	45955
646.075	72986
646.134	128106
646.192	250643
646.251	576015
646.310	459005
646.369	107988
646.427	51524
646.486	43685
646.545	28837
646.603	24042
646.662	20255
646.721	18502
646.779	19605
646.838	18792
646.896	21638
646.955	27481
647.014	39089
647.072	67939
647.131	147032
647.189	295367
647.248	76721
647.306	23268
647.365	17829
647.423	15627
647.481	15597
647.540	13997
647.598	14456
647.657	13795
647.715	13796
647.773	13510
647.832	13330
647.890	12476
647.948	11353
648.007	12209
648.065	11002
648.123	10607
648.181	11915
648.240	10928
648.298	10710
648.356	11041
648.414	10810
648.472	11206
648.531	10199
648.589	10310
648.647	9359
648.705	11176
648.763	10358
648.821	10154
648.879	11532
648.937	11582
648.995	13142
649.053	16144
649.111	22638
649.169	34326
649.227	57780
649.285	109277
649.343	249641
649.401	467148
649.459	140735
649.516	36200
649.574	21856
649.632	19530
649.690	20747
649.748	23340
649.806	29867
649.863	50544
649.921	100970
649.979	243357
650.037	84147
650.094	17277
650.152	12011
650.210	10860
650.268	9877
650.325	9802
650.383	10915
650.440	9752
650.498	8591
650.556	8167
650.613	7772
650.671	8018
650.728	7841
650.786	8377
650.843	10553
650.901	14661
650.958	9554
651.016	7292
651.073	6818
651.131	7359
651.188	5983
651.246	7464
651.303	6342
651.360	6475
651.418	5703
651.475	6741
651.532	5249
651.590	6621
651.647	5152
651.704	5989
651.762	5832
651.819	5426
651.876	5255
651.933	6327
651.990	6397
652.048	5455
652.105	5450
652.162	6084
652.219	5150
652.276	5413
652.333	5410
652.390	5649
652.448	5692
652.505	6336
652.562	5686
652.619	4962
652.676	5012
652.733	5799
652.790	5501
652.847	4924
652.904	5408
652.961	5010
653.017	4422
653.074	4170
653.131	4879
653.188	4071
653.245	4656
653.302	4514
653.359	5118
653.415	5059
653.472	5008
653.529	5247
653.586	4587
653.642	5221
653.699	4554
653.756	5130
653.813	5012
653.869	4300
653.926	5713
653.983	5661
654.039	4570
654.096	4872
654.152	4810
654.209	3905
654.266	4525
654.322	4126
654.379	4192
654.435	4757
654.492	4273
654.548	4361
654.605	4594
654.661	5551
654.717	4033
654.774	4805
654.830	4753
654.887	4731
654.943	4166
655.000	4869
655.056	5070
655.112	5470
655.168	4262
655.225	4385
655.281	4917
655.337	5405
655.394	4734
655.450	4101
655.506	4248
655.562	4432
655.618	4328
655.675	4260
655.731	3802
655.787	3365
655.843	4076
655.899	3464
655.955	4875
656.011	4067
656.067	3635
656.123	4322
656.179	4762
656.235	4866
656.291	4526
656.347	4532
656.403	4796
656.459	4159
656.515	3612
656.571	4223
656.627	4262
656.683	3824
656.739	4046
656.795	4454
656.850	3924
656.906	4142
656.962	3877
657.018	4971
657.074	4835
657.129	7858
657.185	11243
657.241	20083
657.297	42794
657.352	13423
657.408	4278
657.464	5309
657.519	4555
657.575	3324
657.630	3377
657.686	3859
657.742	3533
657.797	3311
657.853	3686
657.908	3592
657.964	2948
658.019	3442
658.075	3461
658.130	3312
658.186	4350
658.241	3177
658.297	2962
658.352	2931
658.407	3543
658.463	3268
658.518	3267
658.573	3716
658.629	3136
658.684	3923
658.739	3777
658.795	2872
658.850	3579
658.905	2308
658.960	3716
659.016	2634
659.071	2990
659.126	2789
659.181	2670
659.236	3398
659.291	3578
659.346	2192
659.401	2453
659.457	4090
659.512	2849
659.567	3395
659.622	2277
659.677	2768
659.732	2551
659.787	3181
659.842	2785
659.897	2712
659.952	2256
660.007	2712
660.061	2251
660.116	2749
660.171	2005
660.226	2337
660.281	3201
660.336	2545
660.391	2385
660.445	3304
660.500	3196
660.555	2210
660.610	1858
660.664	2706
660.719	2178
660.774	2728
660.828	2526
660.883	3355
660.938	2315
660.992	2768
661.047	2908
661.101	2557
661.156	1880
661.211	2339
661.265	2120
661.320	2475
661.374	2322
661.429	2660
661.483	2777
661.538	1918
661.592	2319
661.647	2121
661.701	3230
661.755	3803
661.810	2351
661.864	1856
661.919	2229
661.973	2164
662.027	2305
662.081	1623
662.136	1924
662.190	2448
662.244	2436
662.299	2538
662.353	2027
662.407	2715
662.461	1690
662.515	2851
662.569	2226
662.624	2514
662.678	1813
662.732	2110
662.786	1710
662.840	2260
662.894	2129
662.948	2002
663.002	1773
663.056	2058
663.110	2099
663.164	2433
663.218	2358
663.272	1884
663.326	2683
663.380	2201
663.434	2822
663.488	2112
663.542	2114
663.595	2233
663.649	1615
663.703	2962
663.757	2206
663.811	1250
663.864	2329
663.918	2506
663.972	2049
664.026	2249
664.079	2868
664.133	1984
664.187	1862
664.240	1533
664.294	1730
664.348	2400
664.401	2019
664.455	1745
664.508	1525
664.562	1861
664.615	929
664.669	2005
664.722	1790
664.776	1369
664.829	1518
664.883	1640
664.936	1630
664.990	2109
665.043	2820
665.097	2228
665.150	2196
665.203	2564
665.257	2019
665.310	2119
665.363	1842
665.417	1685
665.470	2403
665.523	2546
665.576	2873
665.630	3321
665.683	2150
665.736	2268
665.789	2739
665.842	2060
665.895	1652
665.949	2508
666.002	1624
666.055	3152
666.108	2126
666.161	2691
666.214	2397
666.267	1974
666.320	2236
666.373	2376
666.426	2684
666.479	2173
666.532	3121
666.585	2770
666.638	2241
666.691	3100
666.744	2349
666.796	2372
666.849	2131
666.902	2877
666.955	2379
667.008	2048
667.060	2645
667.113	1459
667.166	1929
667.219	2256
667.271	2895
667.324	2979
667.377	2136
667.430	2516
667.482	2504
667.535	2551
667.587	2171
667.640	2911
667.693	2124
667.745	2856
667.798	2619
667.850	2633
667.903	1846
667.955	2921
668.008	2370
668.060	3260
668.113	2566
668.165	2437
668.218	2057
668.270	2086
668.322	2270
668.375	2211
668.427	2161
668.479	1918
668.532	2643
668.584	2537
668.636	1584
668.689	2319
668.741	2054
668.793	3187
668.845	2066
668.898	2617
668.950	3007
669.002	2573
669.054	1429
669.106	1124
669.158	2102
669.211	1086
669.263	2420
669.315	1933
669.367	1576
669.419	1614
669.471	2606
669.523	2768
669.575	2414
669.627	1512
669.679	1353
669.731	1786
669.783	2399
669.835	2844
669.886	2326
669.938	2973
669.990	3150
670.042	1765
670.094	1999
670.146	1715
670.197	1969
670.249	2217
670.301	1958
670.353	2373
670.404	2349
670.456	1263
670.508	2181
670.560	2870
670.611	4122
670.663	5906
670.715	8659
670.766	19116
670.818	22258
670.869	5158
670.921	2242
670.972	3233
671.024	2485
671.075	2374
671.127	2895
671.178	2495
671.230	3131
671.281	3069
671.333	4429
671.384	5376
671.436	5628
671.487	8990
671.538	12361
671.590	20247
671.641	34043
671.692	56975
671.744	104062
671.795	172889
671.846	107778
671.897	43902
671.949	21855
672.000	14297
672.051	9271
672.102	7657
672.153	5304
672.204	4526
672.256	3901
672.307	3900
672.358	2686
672.409	2530
672.460	2597
672.511	2005
672.562	2608
672.613	1887
672.664	1136
672.715	1167
672.766	1166
672.817	1448
672.868	1394
672.919	1746
672.970	1028
673.021	996
673.071	1195
673.122	1935
673.173	1008
673.224	1368
673.275	1882
673.326	1373
673.376	1631
673.427	1008
673.478	833
673.528	1995
673.579	1568
673.630	1099
673.680	1303
673.731	1112
673.782	298
673.832	1331
673.883	246
673.934	650
673.984	1278
674.035	528
674.085	773
674.136	1526
674.186	994
674.237	1713
674.287	1457
674.338	1883
674.388	1454
674.438	1517
674.489	2226
674.539	2006
674.589	1127
674.640	1218
674.690	1647
674.740	1104
674.791	1073
674.841	2056
674.891	1592
674.942	452
674.992	399
675.042	576
675.092	66
675.142	944
675.193	538
675.243	550
675.293	1021
675.343	842
675.393	1358
675.443	1037
675.493	462
675.543	352
675.593	1264
675.643	1396
675.693	1205
675.743	1138
675.793	1450
675.843	421
675.893	628
675.943	1009
675.993	563
676.043	921
676.093	1130
676.142	370
676.192	639
676.242	-57
676.292	717
676.341	320
676.391	1060
676.441	232
676.491	569
676.540	520
676.590	-189
676.640	394
676.689	852
676.739	440
676.789	492
676.838	440
676.888	107
676.937	108
676.987	145
677.037	317
677.086	271
677.136	-427
677.185	148
677.235	-161
677.284	557
677.333	457
677.383	400
677.432	-125
677.482	78
677.531	169
677.580	-176
677.630	-166
677.679	-80
677.728	93
677.778	-277
677.827	-85
677.876	-181
677.925	458
677.975	-296
678.024	610
678.073	-90
678.122	262
678.171	38
678.220	954
678.269	1018
678.319	1760
678.368	1839
678.417	2221
678.466	1202
678.515	764
678.564	136
678.613	-565
678.662	4
678.711	-172
678.760	-544
678.809	-249
678.857	98
678.906	463
678.955	-47
679.004	849
679.053	-156
679.102	-19
679.151	269
679.199	0
679.248	-445
679.297	122
679.346	-475
679.394	-492
679.443	-72
679.492	-251
679.540	-905
679.589	-217
679.638	266
679.686	-677
679.735	409
679.784	1448
679.832	752
679.881	1473
679.929	689
679.978	71
680.026	167
680.075	-727
680.123	-214
680.172	-212
680.220	-627
680.268	-570
680.317	-237
680.365	-821
680.414	-1036
680.462	-451
680.510	577
680.559	-910
680.607	-16
680.655	-151
680.703	-688
680.752	-442
680.800	-119
680.848	-280
680.896	96
680.945	-770
680.993	-750
681.041	19
681.089	-615
681.137	284
681.185	-242
681.233	157
681.258	145
681.281	107
681.329	-683
681.377	-374
681.380	-338
681.425	-182
681.473	454
681.502	390
681.521	300
681.569	285
681.617	621
681.624	579
681.665	126
681.713	-195
681.745	181
681.761	313
681.809	771
681.857	1017
681.867	915
681.904	442
681.952	526
681.989	190
682.000	58
682.048	438
682.096	419
682.111	261
682.143	-167
682.191	1160
682.233	1220
682.239	1198
682.286	1210
682.334	871
682.354	688
682.382	395
682.430	943
682.476	1302
682.477	1284
682.525	1724
682.572	792
682.598	1318
682.620	1737
682.667	2273
682.715	736
682.720	866
682.763	1810
682.810	1494
682.841	1713
682.857	1814
682.905	1519
682.952	1731
682.963	1794
683.000	1843
683.047	1933
683.085	2333
683.095	2434
683.142	1954
683.190	1697
683.206	1758
683.237	1773
683.284	1917
683.328	2274
683.332	2281
683.379	1935
683.426	2060
683.449	2026
683.473	1994
683.521	1735
683.568	2254
683.571	2323
683.615	2930
683.662	2835
683.693	2863
683.709	2830
683.757	2483
683.804	2871
683.814	2758
683.851	2296
683.898	2583
683.936	2644
683.945	2636
683.992	2425
684.039	2461
684.057	2493
684.086	2516
684.133	3100
684.179	2664
684.180	2636
684.227	2560
684.274	3022
684.300	3111
684.321	3134
684.368	2955
684.415	3515
684.422	3508
684.462	3428
684.509	3247
684.543	3350
684.556	3342
684.603	3727
684.649	3339
684.665	3325
684.696	3342
684.743	3988
684.786	3473
684.790	3409
684.837	3593
684.883	4033
684.908	3818
684.930	3571
684.977	4009
685.023	4145
685.029	4150
685.070	4212
685.117	3837
685.150	4211
685.164	4313
685.210	4644
685.257	4849
685.272	4832
685.303	4739
685.350	3900
685.393	4654
685.396	4708
685.443	3978
685.490	4586
685.514	4769
685.536	4884
685.583	4778
685.629	4181
685.636	4129
685.675	3794
685.722	4222
685.757	4076
685.768	4020
685.815	4079
685.861	4744
685.878	4618
685.908	4461
685.954	4940
686.000	4759
686.000	4750
686.047	4855
686.093	4774
686.121	5272
686.139	5624
686.185	5009
686.232	6459
686.242	6296
686.278	5539
686.324	5601
686.363	5630
686.370	5631
686.416	5820
686.463	5638
686.484	5751
686.509	5898
686.555	5659
686.601	5380
686.606	5396
686.647	5494
686.693	5279
686.727	5373
686.739	5422
686.785	5565
686.831	5838
686.848	5807
686.877	5648
686.923	5644
686.969	5658
686.969	5657
687.015	5694
687.061	5663
687.090	5865
687.107	6073
687.153	6602
687.199	6600
687.211	6731
687.245	6844
687.291	6479
687.332	6600
687.336	6617
687.382	6752
687.428	6871
687.453	6676
687.474	6514
687.520	6417
687.565	7034
687.574	6864
687.611	6390
687.657	6752
687.695	7240
687.702	7351
687.748	7887
687.794	8402
687.816	8731
687.839	9019
687.885	8534
687.931	8492
687.937	8600
687.976	8638
688.022	8094
688.058	7728
688.067	7694
688.113	7258
688.158	7310
688.179	7180
688.204	7156
688.249	7172
688.295	7477
688.300	7488
688.340	7668
688.386	7968
688.421	7748
688.431	7704
688.477	7736
688.522	7893
688.542	8006
688.567	8024
688.613	7916
688.658	8142
688.663	8095
688.703	8125
688.749	8188
688.784	8651
688.794	8707
688.839	8370
688.884	8403
688.905	8327
688.930	8324
688.975	8180
689.020	8359
689.026	8338
689.065	8101
689.110	8382
689.146	8072
689.155	8091
689.201	8172
689.246	8850
689.267	8872
689.291	8785
689.336	8830
689.381	8628
689.388	8565
689.426	8081
689.471	7979
689.509	8352
689.516	8527
689.561	8588
689.606	8839
689.630	9017
689.651	8910
689.696	8724
689.741	9039
689.750	8858
689.785	8481
689.830	8133
689.871	8872
689.875	8971
689.920	8639
689.965	8882
689.992	8834
690.010	8718
690.054	9355
690.099	8649
690.112	8680
690.144	8815
690.189	8618
690.233	8452
690.233	8465
690.278	8479
690.323	8485
690.354	8680
690.367	8825
690.412	8981
690.457	9080
690.474	9076
690.501	9071
690.546	9538
690.590	9588
690.595	9552
690.635	9212
690.680	8738
690.716	9030
690.724	9140
690.769	9079
690.813	9169
690.836	8992
690.857	9022
690.902	9830
690.946	10140
690.957	10144
690.991	10255
691.035	10695
691.077	11508
691.080	11618
691.124	12633
691.168	14372
691.198	14874
691.213	14403
691.257	13537
691.301	12358
691.318	11878
691.346	11538
691.390	11270
691.434	10477
691.439	10412
691.478	10319
691.522	10244
691.559	10540
691.567	10636
691.611	10402
691.655	10084
691.680	10125
691.699	10361
691.743	10783
691.787	10813
691.800	10934
691.831	10883
691.875	10657
691.919	10358
691.921	10323
691.964	10268
692.008	10738
692.041	10566
692.052	10518
692.096	10626
692.139	10803
692.162	10828
692.183	10746
692.227	10470
692.271	10246
692.282	10131
692.315	10210
692.359	10343
692.402	10506
692.403	10528
692.447	10460
692.490	10511
692.523	10452
692.534	10468
692.578	10439
692.622	10369
692.643	10266
692.666	10246
692.709	10157
692.753	10273
692.763	10317
692.797	10594
692.840	10465
692.884	10670
692.884	10695
692.928	10358
692.971	10848
693.004	10882
693.015	10920
693.059	10925
693.102	10937
693.124	10869
693.146	10850
693.189	10672
693.233	10800
693.245	10761
693.276	10800
693.320	11090
693.363	11152
693.365	11130
693.407	11267
693.450	11457
693.485	11263
693.493	11273
693.537	11847
693.580	11853
693.605	12060
693.624	12203
693.667	12202
693.710	12353
693.725	12391
693.753	12953
693.797	13728
693.840	14562
693.845	14665
693.883	17426
693.926	20004
693.966	22370
693.970	22164
694.013	19472
694.056	17015
694.086	15190
694.099	14902
694.142	14008
694.185	12955
694.206	12364
694.229	12153
694.272	12151
694.315	11925
694.326	11850
694.358	12002
694.401	11963
694.444	11967
694.446	11941
694.487	11875
694.530	11706
694.566	11639
694.573	11687
694.616	11809
694.659	11839
694.686	11956
694.702	12145
694.745	12437
694.787	12529
694.806	12687
694.830	12735
694.873	12548
694.916	12400
694.926	12354
694.959	12184
695.002	11828
695.044	11627
695.046	11585
695.087	12276
695.130	12840
695.166	13501
695.172	13557
695.215	13384
695.258	13567
695.286	13544
695.301	13547
695.343	13398
695.386	13450
695.406	13347
695.428	13623
695.471	14147
695.514	14601
695.526	14717
695.556	15490
695.599	16805
695.641	17710
695.646	17780
695.684	18605
695.726	19441
695.766	20181
695.769	20179
695.811	19564
695.854	18809
695.886	18196
695.896	18097
695.938	17569
695.981	16842
696.005	16519
696.023	16757
696.065	17108
696.108	17471
696.125	17630
696.150	18441
696.192	19572
696.235	20880
696.245	21088
696.277	21219
696.319	21543
696.361	21779
696.365	21741
696.404	21589
696.446	21370
696.485	21220
696.488	21267
696.530	21140
696.572	21025
696.604	20741
696.614	20755
696.656	20724
696.698	20780
696.724	20675
696.740	20532
696.783	20069
696.825	19643
696.844	19344
696.867	19819
696.909	20732
696.951	21521
696.964	21740
696.992	21783
697.034	21799
697.076	21723
697.083	21661
697.118	21823
697.160	21956
697.202	22048
697.203	21993
697.244	22320
697.286	22663
697.323	22708
697.327	22747
697.369	22721
697.411	22714
697.442	22572
697.453	22588
697.494	22464
697.536	22315
697.562	22175
697.578	22229
697.620	22249
697.661	22208
697.682	22149
697.703	22304
697.744	22510
697.786	22663
697.801	22676
697.828	23248
697.869	24089
697.911	24789
697.921	24912
697.952	24702
697.994	24328
698.035	23989
698.040	23879
698.077	23832
698.118	23706
698.160	23648
698.160	23584
698.201	23981
698.243	24324
698.279	24605
698.284	24705
698.325	24981
698.367	25248
698.399	25424
698.408	25594
698.449	26019
698.491	26462
698.518	26702
698.532	26894
698.573	27222
698.614	27600
698.638	27731
698.656	27874
698.697	28020
698.738	28184
698.757	28189
698.779	28252
698.820	28215
698.862	28179
698.877	28094
698.903	28104
698.944	27989
698.985	27881
698.996	27777
699.026	27913
699.067	27997
699.116	28024
699.235	28066
699.354	28440
699.474	26584
699.593	25823
699.713	26742
699.832	25248
699.951	26723
700.070	28588
700.190	25621
700.309	25230
700.428	24157
700.547	24052
700.667	23851
700.786	23387
700.905	23146
701.024	21314
701.143	23380
701.262	22855
701.381	24948
701.500	24588
701.619	24373
701.738	22440
701.857	24517
701.976	24448
702.095	21048
702.214	23599
702.333	22872
702.452	22068
702.571	23194
702.690	23730
702.809	22831
702.928	22479
703.047	22211
703.165	20825
703.284	21925
703.403	20996
703.522	22156
703.640	22121
703.759	19721
703.878	19895
703.997	20278
704.115	20166
704.234	21568
704.353	21360
704.471	20101
704.590	18707
704.708	18956
704.827	18736
704.946	18012
705.064	18222
705.183	19371
705.301	18330
705.420	19591
705.538	17769
705.656	17281
705.775	16474
705.893	16938
706.012	19271
706.130	18871
706.249	17306
706.367	17563
706.485	17573
706.604	17273
706.722	16849
706.840	16579
706.958	19292
707.077	21567
707.195	16573
707.313	15760
707.431	15793
707.549	15407
707.668	14496
707.786	14977
707.904	16924
708.022	14907
708.140	16410
708.258	15233
708.376	15067
708.494	15415
708.612	14632
708.730	15769
708.848	15416
708.966	15280
709.084	14706
709.202	15507
709.320	15916
709.438	13386
709.556	14733
709.674	14896
709.791	13560
709.909	13682
710.027	13366
710.145	13398
710.263	13392
710.380	12360
710.498	13597
710.616	12723
710.733	12769
710.851	12985
710.969	12674
711.086	13045
711.204	12427
711.322	12334
711.439	12915
711.557	13136
711.674	11051
711.792	12071
711.909	12512
712.027	11218
712.144	12006
712.262	11594
712.379	11824
712.497	11543
712.614	11862
712.732	11282
712.849	11320
712.966	11904
713.084	12027
713.201	11955
713.318	10565
713.436	12534
713.553	13077
713.670	11952
713.787	12660
713.905	12134
714.022	11646
714.139	12235
714.256	13369
714.373	16104
714.490	22748
714.608	40471
714.725	110559
714.842	400122
714.959	284562
715.076	37919
715.193	17620
715.310	15044
715.427	13445
715.544	11150
715.661	12721
715.778	10981
715.895	10971
716.011	10491
716.128	10940
716.245	10147
716.362	11008
716.479	9117
716.596	9168
716.713	9557
716.829	9501
716.946	8952
717.063	9399
717.180	9090
717.296	8403
717.413	8870
717.530	9763
717.646	9022
717.763	8646
717.880	8244
717.996	8140
718.113	7826
718.229	8767
718.346	8414
718.462	7719
718.579	8266
718.695	8445
718.812	7528
718.928	8309
719.045	8663
719.161	7737
719.277	8087
719.394	8194
719.510	9208
719.626	8374
719.743	9425
719.859	11535
719.975	18357
720.092	38483
720.208	156339
720.324	258698
720.440	30325
720.557	12946
720.673	9742
720.789	8787
720.905	8938
721.021	9253
721.137	6805
721.253	7521
721.369	6709
721.486	7249
721.602	7106
721.718	7217
721.834	7090
721.950	7861
722.066	6831
722.181	6541
722.297	6485
722.413	7833
722.529	6569
722.645	7562
722.761	7080
722.877	6621
722.993	6848
723.108	7593
723.224	9702
723.340	7464
723.456	6934
723.571	7059
723.687	5912
723.803	6511
723.918	6620
724.034	6934
724.150	5565
724.265	6572
724.381	6073
724.497	6001
724.612	5976
724.728	6437
724.843	6014
724.959	5934
725.074	6016
725.190	6137
725.305	7079
725.421	5926
725.536	6486
725.651	6493
725.767	6185
725.882	5996
725.997	6205
726.113	5805
726.228	6458
726.343	6413
726.459	6351
726.574	5752
726.689	5446
726.804	6174
726.920	5365
727.035	5668
727.150	6496
727.265	5738
727.380	6151
727.495	5972
727.610	5549
727.725	6311
727.841	5287
727.956	5984
728.071	7071
728.186	6032
728.301	4913
728.416	4904
728.531	5990
728.645	6110
728.760	5932
728.875	5736
728.990	6190
729.105	5324
729.220	5799
729.335	6287
729.449	6627
729.564	4986
729.679	5134
729.794	5761
729.908	5401
730.023	6048
730.138	5217
730.253	6166
730.367	5565
730.482	5147
730.596	5554
730.711	6199
730.826	7373
730.940	8371
731.055	8538
731.169	6833
731.284	6996
731.398	7392
731.513	7454
731.627	8002
731.742	9115
731.856	10749
731.970	13099
732.085	14089
732.199	16827
732.313	25300
732.428	43751
732.542	114924
732.656	294880
732.771	138365
732.885	32929
732.999	20034
733.113	18776
733.227	18572
733.342	17388
733.456	16443
733.570	15657
733.684	14868
733.798	14581
733.912	14248
734.026	14655
734.140	13994
734.254	14137
734.368	13319
734.482	13825
734.596	13670
734.710	14016
734.824	13151
734.938	13040
735.052	13151
735.166	13092
735.280	13226
735.393	12403
735.507	12538
735.621	13117
735.735	12255
735.849	12068
735.962	11683
736.076	11159
736.190	12412
736.303	11702
736.417	12709
736.531	11661
736.644	10715
736.758	11149
736.872	11490
736.985	11549
737.099	11197
737.212	10669
737.326	11274
737.439	10212
737.553	11473
737.666	9877
737.780	10158
737.893	9998
738.007	10644
738.120	9755
738.233	10424
738.347	9298
738.460	10858
738.573	9364
738.687	11330
738.800	10295
738.913	9450
739.026	9953
739.140	10281
739.253	9756
739.366	10293
739.479	9134
739.592	9788
739.705	9763
739.818	8897
739.932	10527
740.045	9226
740.158	9251
740.271	8868
740.384	9897
740.497	9497
740.610	7645
740.723	8554
740.836	8856
740.949	8649
741.062	8898
741.174	10012
741.287	8507
741.400	8762
741.513	8845
741.626	8040
741.739	8906
741.851	8894
741.964	8387
742.077	8348
742.189	7176
742.302	7591
742.415	7797
742.527	6541
742.640	8236
742.753	7369
742.865	7047
742.978	8462
743.090	7599
743.203	7265
743.316	8017
743.428	7468
743.541	7728
743.653	8240
743.766	6860
743.878	7688
743.990	7325
744.103	6387
744.215	7646
744.327	7579
744.440	6805
744.552	7816
744.664	5934
744.777	6712
744.889	8051
745.001	6585
745.113	5951
745.226	7140
745.338	6840
745.450	5626
745.562	7760
745.674	6802
745.786	5701
745.898	7669
746.010	6799
746.122	5913
746.234	7050
746.347	6460
746.459	7051
746.570	6307
746.682	6004
746.794	7644
746.906	6968
747.018	5688
747.130	5989
747.242	6727
747.354	5293
747.466	6591
747.577	6177
747.689	6817
747.801	6429
747.913	6173
748.024	4910
748.136	5304
748.248	5591
748.359	5629
748.471	5457
748.583	6434
748.694	5139
748.806	6319
748.918	5862
749.029	6053
749.141	5812
749.252	6525
749.364	5761
749.475	5168
749.587	5329
749.698	4957
749.809	5289
749.921	5670
750.032	4546
750.144	4914
750.255	4624
750.366	5080
750.478	5725
750.589	4177
750.700	5140
750.811	4801
750.923	4723
751.034	5085
751.145	3938
751.256	4862
751.367	5666
751.479	4330
751.590	4935
751.701	4483
751.812	4118
751.923	4838
752.034	4008
752.145	5510
752.256	5511
752.367	4225
752.478	4589
752.589	5105
752.700	4030
752.811	5292
752.922	4217
753.032	4789
753.143	5124
753.254	5130
753.365	4420
753.476	5273
753.586	4783
753.697	4001
753.808	5219
753.919	4320
754.029	3897
754.140	5375
754.251	4408
754.361	4789
754.472	3933
754.582	5194
754.693	3839
754.804	4401
754.914	4297
755.025	3866
755.135	3691
755.246	4839
755.356	5028
755.466	4881
755.577	3782
755.687	4279
755.798	4803
755.908	4201
756.018	3653
756.129	4189
756.239	4474
756.349	3891
756.460	4044
756.570	4772
756.680	4870
756.790	4520
756.900	4506
757.011	4566
757.121	4148
757.231	3474
757.341	3787
757.451	4199
757.561	3324
757.671	3748
757.781	4022
757.891	4582
758.001	4019
758.111	3747
758.221	4384
758.331	4357
758.441	4680
758.551	4438
758.661	4761
758.771	5522
758.880	4539
758.990	4234
759.100	3561
759.210	4180
759.320	4034
759.429	3976
759.539	4612
759.649	4810
759.758	5019
759.868	6565
759.978	5210
760.087	5275
760.197	6895
760.307	5614
760.416	5059
760.526	5571
760.635	4802
760.745	5672
760.854	5859
760.964	6652
761.073	6876
761.182	6774
761.292	6999
761.401	5831
761.511	4501
761.620	4317
761.729	4276
761.839	4319
761.948	3642
762.057	3852
762.166	3723
762.276	4307
762.385	4466
762.494	3614
762.603	4292
762.712	3634
762.822	3594
762.931	3900
763.040	4228
763.149	3273
763.258	3678
763.367	3800
763.476	3628
763.585	3475
763.694	4425
763.803	3809
763.912	3755
764.021	3428
764.130	3537
764.238	3826
764.347	3977
764.456	4592
764.565	4410
764.674	4835
764.783	4100
764.891	4569
765.000	5773
765.109	5140
765.217	5272
765.326	5682
765.435	5952
765.543	6995
765.652	7788
765.761	9518
765.869	10859
765.978	15467
766.086	22511
766.195	35109
766.303	65450
766.412	131615
766.520	196930
766.629	175281
766.737	105777
766.846	49581
766.954	29486
767.062	20604
767.171	14544
767.279	11809
767.387	10116
767.496	8098
767.604	6615
767.712	6615
767.820	5808
767.928	6059
768.037	4762
768.145	5022
768.253	5450
768.361	5235
768.469	4855
768.577	4622
768.685	4885
768.793	4866
768.901	5711
769.009	5495
769.117	5854
769.225	6693
769.333	7833
769.441	11417
769.549	15927
769.657	26271
769.765	55786
769.873	128740
769.981	163728
770.088	105431
770.196	39466
770.304	21582
770.412	14561
770.519	10970
770.627	8581
770.735	7711
770.842	7235
770.950	6438
771.058	6242
771.165	6915
771.273	6825
771.380	7600
771.488	7448
771.595	9024
771.703	10120
771.810	8991
771.918	8304
772.025	8466
772.133	9413
772.240	11763
772.348	9605
772.455	11747
772.562	11208
772.670	10050
772.777	9860
772.884	9658
772.991	9507
773.099	9288
773.206	9589
773.313	9277
773.420	9573
773.528	8990
773.635	9071
773.742	8952
773.849	9959
773.956	8553
774.063	9680
774.170	8489
774.277	9046
774.384	9008
774.491	8226
774.598	7887
774.705	8365
774.812	8380
774.919	8647
775.026	7861
775.133	8327
775.239	7962
775.346	8523
775.453	7848
775.560	8015
775.667	7706
775.773	7719
775.880	7397
775.987	7004
776.093	8229
776.200	8267
776.307	8612
776.413	6060
776.520	6494
776.627	8753
776.733	6680
776.840	6841
776.946	6721
777.053	8229
777.159	6774
777.266	6394
777.372	7150
777.478	6721
777.585	7233
777.691	7896
777.798	6037
777.904	8275
778.010	6083
778.117	5837
778.223	6868
778.329	5754
778.435	6702
778.542	5848
778.648	7290
778.754	6139
778.860	5413
778.966	6795
779.072	5876
779.178	5599
779.284	6374
779.391	4927
779.497	5933
779.603	6737
779.708	6703
779.815	6161
779.920	5297
780.026	9680
780.132	12142
780.238	6402
780.344	5747
780.450	4792
780.556	6913
780.661	4311
780.767	5483
780.873	6790
780.979	3878
781.085	4627
781.190	6703
781.296	4501
781.402	3729
781.507	5036
781.613	5157
781.719	3487
781.824	5288
781.930	6159
782.035	4380
782.141	4704
782.246	5706
782.352	4499
782.457	3863
782.563	4951
782.668	5043
782.773	5032
782.879	3981
782.984	4962
783.090	5003
783.195	4423
783.300	5009
783.405	4578
783.511	4161
783.616	4863
783.721	4772
783.826	4363
783.932	5042
784.037	3162
784.142	4268
784.247	3948
784.352	4155
784.457	4918
784.562	3431
784.667	3975
784.772	5073
784.877	3137
784.982	3848
785.087	4535
785.192	5590
785.297	4163
785.402	3181
785.507	4238
785.611	5309
785.716	4015
785.821	3410
785.926	3360
786.031	4442
786.135	3702
786.240	4067
786.345	2954
786.450	3181
786.554	3644
786.659	3955
786.763	3238
786.868	3751
786.973	3614
787.077	3687
787.182	3480
787.286	2877
787.391	4092
787.495	4523
787.600	3077
787.704	2442
787.809	3244
787.913	3596
788.017	2998
788.122	3300
788.226	3601
788.330	3205
788.435	1850
788.539	2711
788.643	3584
788.747	3025
788.852	2195
788.956	3577
789.060	3093
789.164	2511
789.268	3485
789.372	3545
789.476	3347
789.580	3131
789.684	2543
789.788	2845
789.892	3360
789.996	3842
790.100	2683
790.204	2745
790.308	3220
790.412	3214
790.516	2575
790.620	2109
790.724	2720
790.828	3628
790.931	3095
791.035	2827
791.139	3010
791.242	2695
791.346	3662
791.450	2298
791.554	2294
791.657	3304
791.761	2540
791.864	3000
791.968	2518
792.072	3358
792.175	3401
792.279	2717
792.382	2250
792.486	2413
792.589	1484
792.693	2423
792.796	3006
792.899	2053
793.003	3530
793.106	2833
793.209	2372
793.313	2831
793.416	1708
793.519	1806
793.623	2321
793.726	2582
793.829	3173
793.932	1930
794.035	1954
794.138	2320
794.242	2572
794.345	4372
794.448	2471
794.551	1839
794.654	2804
794.757	3468
794.860	5679
794.963	2571
795.066	2025
795.169	2543
795.272	2423
795.375	2197
795.477	2959
795.580	2013
795.683	1857
795.786	2058
795.889	2132
795.991	3062
796.094	1937
796.197	2015
796.300	2432
796.402	2007
796.505	2792
796.608	1928
796.710	1671
796.813	1781
796.915	2346
797.018	3517
797.120	2554
797.223	2615
797.326	2411
797.428	3026
797.530	1818
797.633	1400
797.735	1648
797.838	2372
797.940	2980
798.042	2869
798.145	1785
798.247	1395
798.349	1505
798.452	1735
798.554	2106
798.656	2474
798.758	3013
798.860	2946
798.962	2114
799.065	1441
799.167	1792
799.269	2730
799.371	2065
799.473	2159
799.575	2872
799.677	3268
799.779	3101
799.881	1001
799.983	2106
800.085	2956
800.187	1576
800.289	1725
800.390	1537
800.492	1659
800.594	2800
800.696	2436
800.798	1753
800.899	1815
801.001	2216
801.103	1720
801.205	1422
801.306	1816
801.408	1216
801.509	1952
801.611	1888
801.713	1983
801.814	1938
801.916	1507
802.017	1420
802.119	993
802.220	904
802.322	1237
802.423	1965
802.525	1677
802.626	1609
802.727	1129
802.829	1691
802.930	1025
803.031	1964
803.133	1363
803.234	1494
803.335	2011
803.436	2283
803.538	1820
803.639	1662
803.740	2130
803.841	876
803.942	1833
804.043	2354
804.144	943
804.245	1247
804.346	1381
804.447	1163
804.548	1421
804.649	1470
804.750	1361
804.851	948
804.952	776
805.053	1772
805.154	1050
805.255	1681
805.355	1088
805.456	1277
805.557	519
805.658	72
805.758	868
805.859	851
805.960	1731
806.061	674
806.161	1367
806.262	1810
806.362	1057
806.463	722
806.564	1267
806.664	1466
806.765	1658
806.865	883
806.966	1578
807.066	703
807.166	1298
807.267	2153
807.367	1746
807.468	1249
807.568	654
807.668	1511
807.769	1004
807.869	1342
807.969	1745
808.069	1312
808.170	245
808.270	994
808.370	964
808.470	1289
808.570	1055
808.670	1603
808.770	1109
808.870	807
808.970	762
809.070	758
809.170	1258
809.271	715
809.370	391
809.470	119
809.570	545
809.670	-37
809.770	1013
809.870	869
809.970	939
810.070	1452
810.169	862
810.269	810
810.369	1863
810.469	651
810.568	916
810.668	1316
810.768	1207
810.867	813
810.967	1196
811.066	128
811.166	745
811.265	609
811.365	609
811.464	531
811.564	937
811.663	157
811.763	786
811.862	1716
811.962	1154
812.061	1026
812.160	1252
812.260	357
812.359	701
812.458	573
812.557	1097
812.657	2053
812.756	1528
812.855	1155
812.954	536
813.053	1031
813.153	1236
813.252	929
813.351	796
813.450	753
813.549	1697
813.648	1426
813.747	1042
813.846	508
813.945	2147
814.044	1597
814.143	1011
814.242	1360
814.341	874
814.439	839
814.538	1481
814.637	1541
814.736	1396
814.835	2388
814.933	737
815.032	2024
815.131	1923
815.229	2881
815.328	6035
815.427	7993
815.525	6673
815.624	5723
815.722	4276
815.821	5792
815.919	5207
816.018	5637
816.116	6357
816.215	5367
816.313	5757
816.412	6323
816.510	7565
816.609	7594
816.707	6941
816.805	8051
816.904	7903
817.002	7209
817.100	7538
817.198	7404
817.296	7827
817.395	7012
817.493	7951
817.591	6718
817.689	6162
817.787	6264
817.885	6691
817.983	5647
818.081	6060
818.179	6097
818.277	5501
818.375	8304
818.473	7088
818.571	6152
818.669	5644
818.767	5669
818.865	7118
818.963	6680
819.061	4895
819.158	6886
819.256	5397
819.354	6721
819.452	6490
819.549	7270
819.647	7419
819.745	5885
819.842	5378
819.940	4905
820.038	5713
820.135	5495
820.233	5112
820.330	5926
820.428	5180
820.525	5046
820.623	6131
820.720	4829
820.818	4342
820.915	6049
821.012	5960
821.110	5018
821.207	5408
821.304	4338
821.402	4945
821.499	5978
821.596	5198
821.693	4455
821.791	4678
821.888	5431
821.985	4874
822.082	5004
822.179	5044
822.276	4205
822.373	4825
822.470	3977
822.567	3969
822.664	4018
822.761	3747
822.858	3519
822.955	4802
823.052	4622
823.149	3117
823.246	5076
823.343	5117
823.440	3800
823.536	3567
823.633	4814
823.730	4942
823.827	3688
823.923	3708
824.020	4577
824.117	3247
824.213	4180
824.310	4343
824.407	4433
824.503	3111
824.600	4123
824.696	4154
824.793	2793
824.889	5050
824.986	4872
825.082	3738
825.179	2613
825.275	2636
825.371	4212
825.468	5209
825.564	2917
825.660	1389
825.757	3851
825.853	5292
825.949	3277
826.045	3226
826.142	2607
826.238	3651
826.334	4162
826.430	3328
826.526	3614
826.622	2361
826.718	2130
826.814	3753
826.910	5330
827.006	3819
827.102	1636
827.198	2637
827.294	3305
827.390	3452
827.486	3342
827.582	2436
827.678	1941
827.774	2831
827.869	3946
827.965	3439
828.061	2734
828.157	1615
828.252	3065
828.348	3654
828.444	4006
828.539	1885
828.635	3407
828.731	3173
828.826	2870
828.922	2613
829.017	2577
829.113	3641
829.208	4079
829.304	1361
829.399	3730
829.495	3922
829.590	3287
829.685	2943
829.781	3919
829.876	2381
829.971	4050
830.066	2132
830.162	1137
830.257	1705
830.352	3802
830.447	3032
830.543	875
830.638	1612
830.733	3813
830.828	3509
830.923	2103
831.018	2316
831.113	2866
831.208	3399
831.303	3406
831.398	1154
831.493	1405
831.588	2355
831.683	4172
831.778	2947
831.873	917
831.967	2202
832.062	2243
832.157	2385
832.252	3646
832.346	1787
832.441	2136
832.536	2897
832.631	2884
832.725	2152
832.820	801
832.914	2360
833.009	2795
833.104	1555
833.198	1599
833.293	1302
833.387	3004
833.482	2692
833.576	1176
833.670	2351
833.765	1994
833.859	1708
833.954	2924
834.048	1982
834.142	2156
834.237	554
834.331	1400
834.425	1322
834.519	1969
834.613	2459
834.708	991
834.802	1814
834.896	1496
834.990	2122
835.084	1713
835.178	874
835.272	1111
835.366	1435
835.460	2813
835.554	1941
835.648	1402
835.742	249
835.836	400
835.930	796
836.024	1855
836.117	2352
836.211	1634
836.305	1760
836.399	394
836.493	934
836.586	1267
836.680	855
836.774	1397
836.867	1603
836.961	437
837.055	965
837.148	683
837.242	698
837.335	1329
837.429	2406
837.522	607
837.616	754
837.709	1059
837.803	1002
837.896	987
837.989	1468
838.083	1980
838.176	1606
838.269	-240
838.363	251
838.456	782
838.549	922
838.642	895
838.735	1687
838.829	949
838.922	1112
839.015	1700
839.108	1298
839.201	952
839.294	1035
839.387	1640
839.480	1125
839.573	961
839.666	973
839.759	627
839.852	547
839.945	1161
840.038	849
840.131	1378
840.223	359
840.316	890
840.409	1273
840.502	912
840.594	1882
840.687	1246
840.780	975
840.873	235
840.965	993
841.058	873
841.150	1041
841.243	1584
841.336	905
841.428	1038
841.521	1377
841.613	70
841.706	1087
841.798	616
841.890	376
841.983	514
842.075	1014
842.167	523
842.260	290
842.352	1361
842.444	1211
842.537	1309
842.629	466
842.721	989
842.813	181
842.905	963
842.997	1593
843.090	164
843.182	494
843.274	685
843.366	628
843.458	397
843.550	1679
843.642	1077
843.734	1125
843.826	1499
843.918	1462
844.009	901
844.101	366
844.193	717
844.285	638
844.377	1349
844.469	1602
844.560	1125
844.652	-31
844.744	1546
844.835	860
844.927	421
845.019	1226
845.110	477
845.202	841
845.293	1330
845.385	336
845.476	687
845.568	610
845.659	687
845.751	702
845.842	-130
845.934	-11
846.025	1046
846.116	1075
846.208	507
846.299	1315
846.390	919
846.482	1135
846.573	-187
846.664	182
846.755	-138
846.846	557
846.937	476
847.029	532
847.120	243
847.211	-228
847.302	350
847.393	881
847.484	1104
847.575	1006
847.666	47
847.757	451
847.847	-58
847.938	672
848.029	1228
848.120	1025
848.211	1096
848.302	319
848.392	170
848.483	120
848.574	824
848.664	775
848.755	771
848.846	868
848.936	542
849.027	740
849.118	962
849.208	522
849.299	676
849.389	1686
849.480	2232
849.570	5236
849.661	8976
849.751	16423
849.841	27600
849.932	11141
850.022	1153
850.112	1461
850.203	198
850.293	1165
850.383	785
850.474	584
850.564	151
850.654	499
850.744	71
850.834	-104
850.924	303
851.014	749
851.104	1048
851.194	784
851.284	848
851.374	352
851.464	684
851.554	662
851.644	812
851.734	1261
851.824	904
851.914	819
852.004	994
852.094	673
852.183	87
852.273	270
852.363	-160
852.452	-288
852.542	922
852.632	466
852.721	553
852.811	-97
852.901	1034
852.990	894
853.080	1270
853.169	803
853.259	537
853.348	1226
853.438	1528
853.527	1650
853.617	1768
853.706	2767
853.795	4650
853.885	9279
853.974	18069
854.063	33457
854.152	58326
854.242	84774
854.331	38955
854.420	11001
854.509	5056
854.598	2984
854.687	3279
854.777	2155
854.866	1522
854.955	817
855.044	751
855.133	937
855.222	343
855.311	784
855.400	641
855.488	583
855.577	346
855.666	1035
855.755	896
855.844	793
855.933	532
856.021	489
856.110	509
856.199	267
856.288	-126
856.376	423
856.465	-288
856.554	1439
856.642	112
856.731	593
856.819	214
856.908	876
856.996	942
857.085	-89
857.173	616
857.262	167
857.350	236
857.438	-110
857.527	454
857.615	106
857.703	517
857.792	537
857.880	-389
857.968	-159
858.056	222
858.145	409
858.233	-181
858.321	460
858.409	757
858.497	143
858.585	411
858.673	355
858.761	253
858.849	-308
858.937	-483
859.025	-503
859.113	240
859.201	-33
859.289	1211
859.377	1202
859.465	903
859.552	900
859.640	-1141
859.728	309
859.816	-169
859.903	718
859.991	339
860.079	-126
860.166	590
860.254	-34
860.342	264
860.429	840
860.517	359
860.604	216
860.692	240
860.779	-303
860.867	372
860.954	1250
861.042	160
861.129	688
861.216	1084
861.304	728
861.391	942
861.478	1055
861.565	801
861.653	804
861.740	-453
861.827	331
861.914	136
862.001	-721
862.089	418
862.176	1047
862.263	696
862.350	12
862.437	-95
862.524	680
862.611	588
862.698	-4
862.785	330
862.871	764
862.958	281
863.045	560
863.132	842
863.219	530
863.306	-832
863.392	965
863.479	-247
863.566	520
863.652	1132
863.739	860
863.826	1084
863.912	642
863.999	255
864.086	721
864.172	1007
864.259	692
864.345	842
864.432	1374
864.518	1198
864.604	437
864.691	668
864.777	1194
864.863	1363
864.950	2046
865.036	2612
865.122	4131
865.209	7486
865.295	7329
865.381	7607
865.467	6484
865.553	6257
865.639	6489
865.726	7136
865.812	8914
865.898	14111
865.984	21591
866.070	31001
866.156	50165
866.242	56599
866.328	22787
866.414	9450
866.499	7089
866.585	6612
866.671	6482
866.757	5600
866.843	5816
866.928	5454
867.014	5512
867.100	5460
867.186	4819
867.271	5836
867.357	4812
867.442	5102
867.528	5246
867.614	5316
867.699	5019
867.785	4720
867.870	4813
867.956	3843
868.041	4820
868.127	4256
868.212	4248
868.297	5287
868.383	3966
868.468	5331
868.553	4830
868.639	4599
868.724	4894
868.809	4886
868.894	5000
868.979	3902
869.065	4225
869.150	3936
869.235	3758
869.320	4207
869.405	4490
869.490	3410
869.575	4647
869.660	3958
869.745	2953
869.830	3064
869.915	4864
870.000	4209
870.085	4003
870.169	3521
870.254	3904
870.339	4759
870.424	3461
870.509	3817
870.593	4369
870.678	5058
870.763	4209
870.847	4358
870.932	3403
871.016	4272
871.101	3800
871.186	3400
871.270	2802
871.355	5056
871.439	3766
871.523	2764
871.608	4697
871.692	3403
871.777	2552
871.861	4746
871.945	4181
872.030	3759
872.114	3885
872.198	3182
872.282	3366
872.367	2927
872.451	3668
872.535	3859
872.619	3402
872.703	3631
872.787	3045
872.871	3269
872.955	3234
873.039	3075
873.123	2360
873.207	3556
873.291	3352
873.375	2202
873.459	2965
873.543	3527
873.627	3520
873.711	2631
873.794	2808
873.878	2839
873.962	2707
874.045	1971
874.129	2659
874.137	2693
874.213	3036
874.245	3079
874.296	3157
874.352	2581
874.380	2299
874.460	2224
874.464	2222
874.547	2578
874.568	2675
874.631	2958
874.676	3111
874.714	3235
874.784	2839
874.798	2767
874.881	3002
874.892	2827
874.965	1589
874.999	1601
875.048	1620
875.107	2499
875.131	2870
875.215	2777
875.215	2776
875.298	2064
875.323	1814
875.381	1276
875.430	1722
875.465	2022
875.538	3283
875.548	3463
875.631	2520
875.646	2478
875.714	2212
875.753	1817
875.798	1345
875.861	1518
875.881	1600
875.964	2534
875.968	2563
876.047	2984
876.076	2561
876.130	1809
876.183	1858
876.213	1889
876.291	2231
876.296	2247
876.379	1963
876.398	1903
876.462	1809
876.506	1889
876.545	1928
876.613	1822
876.628	1794
876.711	1771
876.721	1804
876.794	2080
876.828	2186
876.877	2330
876.935	2159
876.960	2081
877.043	1265
877.043	1268
877.125	1903
877.150	1953
877.208	1952
877.258	1959
877.291	1986
877.365	1617
877.374	1574
877.456	918
877.472	980
877.539	1200
877.579	1294
877.622	1501
877.687	1855
877.704	1867
877.787	1755
877.794	1701
877.869	1396
877.901	1681
877.952	2071
878.008	1724
878.034	1587
878.115	1069
878.117	1054
878.199	1359
878.222	1211
878.282	1053
878.329	1442
878.364	1622
878.437	1753
878.447	1748
878.529	1404
878.544	1339
878.611	1421
878.651	1584
878.694	1637
878.758	1376
878.776	1311
878.858	1245
878.865	1277
878.941	1403
878.972	1215
879.023	1068
879.078	782
879.105	606
879.185	951
879.187	959
879.269	1219
879.292	1256
879.351	1387
879.399	1293
879.433	1262
879.506	1181
879.516	1132
879.598	800
879.613	836
879.680	1181
879.720	1186
879.762	1051
879.827	775
879.844	764
879.926	1213
879.933	1149
880.007	376
880.040	558
880.089	1060
880.147	778
880.171	547
880.253	1486
880.254	1486
880.335	1214
880.360	999
880.417	636
880.467	713
880.499	785
880.574	1172
880.580	1202
880.662	1072
880.680	1086
880.744	1138
880.787	904
880.825	614
880.893	414
880.907	402
880.989	1229
881.000	1162
881.070	659
881.106	967
881.152	1395
881.213	954
881.233	764
881.315	935
881.319	923
881.396	646
881.426	621
881.478	704
881.532	725
881.559	795
881.639	934
881.641	925
881.722	857
881.745	657
881.803	529
881.852	854
881.885	893
881.958	653
881.966	664
882.047	757
882.064	831
882.129	759
882.171	568
882.210	309
882.277	-106
882.291	-24
882.372	603
882.383	706
882.454	858
882.489	1029
882.535	1207
882.596	751
882.616	591
882.697	667
882.702	663
882.778	539
882.808	369
882.859	282
882.914	434
882.940	340
883.020	-17
883.021	-18
883.102	183
883.127	250
883.183	338
883.233	605
883.264	783
883.339	364
883.345	321
883.426	358
883.445	325
883.507	235
883.551	172
883.587	46
883.657	99
883.668	206
883.749	968
883.763	1061
883.830	560
883.869	189
883.910	387
883.975	971
883.991	895
884.072	-90
884.081	-94
884.152	714
884.187	863
884.233	831
884.292	1119
884.314	1230
884.394	835
884.398	826
884.475	432
884.504	367
884.555	287
884.610	137
884.636	234
884.716	793
884.716	795
884.797	675
884.821	770
884.877	781
884.927	410
884.958	589
885.033	1272
885.038	1233
885.118	383
885.139	173
885.199	1
885.244	25
885.279	126
885.350	145
885.359	149
885.439	564
885.456	584
885.520	291
885.561	65
885.600	189
885.667	470
885.680	473
885.760	651
885.773	663
885.840	577
885.878	395
885.920	194
885.984	280
886.000	430
886.080	909
886.089	985
886.160	354
886.195	14
886.240	469
886.300	928
886.320	848
886.400	723
886.406	696
886.480	444
886.511	419
886.560	138
886.616	-286
886.640	-180
886.720	543
886.722	555
886.800	-85
886.827	-262
886.879	112
886.932	417
886.959	533
887.038	1014
887.039	1010
887.119	621
887.143	518
887.198	713
887.248	916
887.278	730
887.354	100
887.358	95
887.437	180
887.459	172
887.517	181
887.564	329
887.596	321
887.669	170
887.676	149
887.755	-96
887.774	-130
887.835	79
887.880	220
887.914	181
887.985	40
887.994	40
888.073	136
888.090	165
888.153	179
888.195	170
888.232	156
888.300	98
888.311	96
888.391	111
888.405	126
888.470	311
888.510	401
888.549	287
888.615	119
888.628	47
888.708	-395
888.720	-446
888.787	103
888.825	346
888.866	63
888.930	-312
888.945	-283
889.024	-87
889.035	-62
889.103	-173
889.140	-228
889.182	-14
889.245	315
889.261	204
889.340	-317
889.349	-371
889.419	278
889.454	601
889.498	333
889.559	-14
889.577	-38
889.656	-132
889.664	-135
889.735	307
889.768	519
889.814	691
889.873	923
889.978	61
890.083	-152
890.187	-54
890.292	1060
890.397	-188
890.501	19
890.606	282
890.710	717
890.815	416
890.919	372
891.024	-519
891.128	135
891.233	-50
891.337	729
891.442	582
891.546	72
891.650	501
891.755	-26
891.859	1484
891.963	39
892.068	168
892.172	570
892.276	129
892.380	655
892.484	636
892.589	87
892.693	-223
892.797	33
892.901	-15
893.005	339
893.109	-458
893.213	276
893.317	449
893.421	293
893.525	-795
893.629	-226
893.733	-16
893.837	260
893.941	83
894.045	486
894.148	-227
894.252	48
894.356	-407
894.460	650
894.564	399
894.667	137
894.771	-685
894.875	-104
894.978	-691
895.082	349
895.186	57
895.289	326
895.393	542
895.496	-97
895.600	697
895.703	123
895.807	78
895.910	-411
896.014	-328
896.117	191
896.221	-216
896.324	-186
896.427	-284
896.531	237
896.634	-46
896.737	1031
896.840	-534
896.944	-100
897.047	154
897.150	53
897.253	-49
897.356	338
897.460	276
897.563	291
897.666	-172
897.769	1094
897.872	102
897.975	-97
898.078	448
898.181	-386
898.284	-402
898.387	265
898.490	300
898.593	512
898.695	652
898.798	69
898.901	241
899.004	197
899.107	620
899.209	-12
899.312	130
899.415	655
899.518	756
899.620	10
899.723	-418
899.826	596
899.928	-167
900.031	236
900.133	260
900.236	-127
900.338	-99
900.441	-480
900.543	-338
900.646	35
900.748	-389
900.851	356
900.953	490
901.055	327
901.158	448
901.260	727
901.362	68
901.465	-239
901.567	224
901.669	167
901.771	331
901.873	60
901.976	334
902.078	-192
902.180	-228
902.282	382
902.384	75
902.486	-152
902.588	348
902.690	-88
902.792	-66
902.894	-194
902.996	124
903.098	908
903.200	274
903.302	-76
903.404	495
903.505	87
903.607	-418
903.709	607
903.811	766
903.913	-81
904.014	-121
904.116	536
904.218	-232
904.319	-333
904.421	507
904.523	228
904.624	592
904.726	200
904.827	-39
904.929	31
905.030	805
905.132	-524
905.233	-543
905.335	180
905.436	-117
905.537	-122
905.639	-156
905.740	107
905.841	1039
905.943	-184
906.044	236
906.145	915
906.247	841
906.348	470
906.449	574
906.550	416
906.651	68
906.752	-52
906.854	144
906.955	635
907.056	-482
907.157	-121
907.258	-118
907.359	321
907.460	169
907.561	793
907.662	-10
907.762	671
907.863	-1027
907.964	760
908.065	-244
908.166	378
908.267	938
908.367	48
908.468	524
908.569	742
908.670	288
908.770	979
908.871	213
908.971	114
909.072	-441
909.173	-399
909.273	-475
909.374	-307
909.474	258
909.575	1177
909.675	-193
909.776	371
909.876	706
909.977	800
910.077	-145
910.177	624
910.278	142
910.378	-59
910.478	-71
910.579	246
910.679	929
910.779	2
910.879	537
910.980	1225
911.080	278
911.180	-232
911.280	73
911.380	34
911.480	-482
911.580	246
911.680	424
911.780	700
911.880	277
911.980	191
912.080	-502
912.180	399
912.280	125
912.380	154
912.480	757
912.580	76
912.679	64
912.779	536
912.879	-309
912.979	491
913.078	222
913.178	430
913.278	-599
913.377	621
913.477	-561
913.577	144
913.676	473
913.776	163
913.875	-261
913.975	38
914.074	86
914.174	191
914.273	-399
914.373	644
914.472	-221
914.572	1080
914.671	309
914.770	-193
914.870	801
914.969	-169
915.068	356
915.167	433
915.267	-331
915.366	661
915.465	-243
915.564	31
915.663	-284
915.763	221
915.862	591
915.961	72
916.060	100
916.159	697
916.258	-384
916.357	-138
916.456	304
916.555	-134
916.654	-41
916.752	455
916.851	-2
916.950	362
917.049	452
917.148	306
917.247	-234
917.345	68
917.444	751
917.543	785
917.642	-229
917.740	308
917.839	366
917.937	942
918.036	415
918.135	100
918.233	212
918.332	28
918.430	-55
918.529	-74
918.627	-572
918.726	190
918.824	-56
918.923	-163
919.021	-473
919.119	-353
919.218	128
919.316	132
919.414	19
919.512	904
919.611	866
919.709	361
919.807	-164
919.905	-773
920.003	184
920.102	135
920.200	-408
920.298	290
920.396	401
920.494	539
920.592	-152
920.690	136
920.788	-205
920.886	793
920.984	991
921.082	623
921.180	202
921.277	319
921.375	226
921.473	-9
921.571	447
921.669	272
921.766	-281
921.864	518
921.962	497
922.060	631
922.157	1092
922.255	521
922.352	-148
922.450	832
922.548	677
922.645	591
922.743	577
922.840	851
922.938	1695
923.035	1081
923.133	740
923.230	1292
923.327	1042
923.425	1550
923.522	490
923.619	1705
923.717	961
923.814	1834
923.911	893
924.008	807
924.106	864
924.203	744
924.300	673
924.397	1262
924.494	1018
924.591	1540
924.688	1249
924.786	1081
924.883	1516
924.979	1326
925.077	1221
925.173	990
925.270	902
925.367	1381
925.464	240
925.561	1358
925.658	1213
925.755	411
925.852	688
925.948	372
926.045	1099
926.142	874
926.239	377
926.335	897
926.432	977
926.529	702
926.625	631
926.722	945
926.818	316
926.915	759
927.011	1281
927.108	1003
927.204	981
927.301	1314
927.397	1139
927.494	1464
927.590	267
927.687	298
927.783	551
927.879	383
927.976	247
928.072	435
928.168	249
928.264	724
928.361	1066
928.457	474
928.553	896
928.649	1753
928.745	597
928.841	1264
928.937	639
929.033	1048
929.129	821
929.225	899
929.321	1791
929.417	767
929.513	847
929.609	937
929.705	748
929.801	-3
929.897	246
929.993	914
930.089	134
930.184	658
930.280	697
930.376	1107
930.471	892
930.567	573
930.663	-111
930.758	867
930.854	84
930.950	1402
931.045	695
931.141	941
931.236	1232
931.332	2254
931.427	584
931.523	972
931.618	741
931.714	610
931.809	630
931.905	936
932.000	1276
932.095	78
932.191	450
932.286	460
932.381	1590
932.476	143
932.572	569
932.667	768
932.762	701
932.857	1095
932.952	504
933.047	587
933.142	287
933.237	627
933.332	637
933.427	1125
933.522	634
933.617	368
933.712	52
933.807	952
933.902	1073
933.997	361
934.092	331
934.187	1330
934.282	903
934.376	644
934.471	279
934.566	1179
934.661	-12
934.755	22
934.850	617
934.945	858
935.039	-85
935.134	574
935.228	335
935.323	1265
935.417	967
935.512	-102
935.606	360
935.701	491
935.795	1016
935.890	254
935.984	244
936.079	231
936.173	328
936.267	-205
936.362	301
936.456	1191
936.550	150
936.644	1334
936.738	103
936.833	169
936.927	611
937.021	266
937.115	770
937.209	757
937.303	352
937.397	1420
937.491	56
937.585	835
937.679	1092
937.773	456
937.867	-105
937.961	104
938.055	776
938.149	891
938.243	453
938.337	175
938.430	-289
938.524	957
938.618	380
938.712	63
938.805	289
938.899	487
938.993	950
939.086	619
939.180	396
939.274	94
939.367	-645
939.461	432
939.554	-60
939.648	789
939.741	473
939.835	2
939.928	713
940.022	738
940.115	657
940.208	824
940.302	326
940.395	337
940.488	331
940.582	778
940.675	-110
940.768	148
940.861	495
940.954	-131
941.048	410
941.141	592
941.234	638
941.327	372
941.420	9
941.513	922
941.606	533
941.699	340
941.792	598
941.885	778
941.978	351
942.071	893
942.164	222
942.257	-277
942.349	-255
942.442	-50
942.535	86
942.628	-152
942.721	974
942.813	-3
942.906	122
942.999	759
943.091	141
943.184	321
943.277	-92
943.369	100
943.462	86
943.554	66
943.647	374
943.739	359
943.832	295
943.924	531
944.017	266
944.109	-493
944.201	203
944.294	224
944.386	-703
944.478	652
944.571	328
944.663	763
944.755	395
944.847	-331
944.940	321
945.032	-811
945.124	165
945.216	1089
945.308	372
945.400	47
945.492	-440
945.584	448
945.676	503
945.768	349
945.860	504
945.952	803
946.044	778
946.136	-316
946.228	-43
946.320	386
946.412	89
946.503	295
946.595	949
946.687	124
946.779	496
946.870	-527
946.962	385
947.054	98
947.145	251
947.237	-544
947.329	140
947.420	-206
947.512	-322
947.603	-412
947.695	-195
947.786	-583
947.878	-43
947.969	640
948.061	-380
948.152	364
948.243	777
948.335	-560
948.426	-110
948.517	-104
948.609	570
948.700	787
948.791	-80
948.882	188
948.973	406
949.065	-48
949.156	9
949.247	-167
949.338	-781
949.429	-995
949.520	-277
949.611	-16
949.702	432
949.793	-187
949.884	352
949.975	215
950.066	128
950.157	441
950.247	-740
950.338	38
950.429	1
950.520	709
950.611	631
950.701	-541
950.792	-505
950.883	626
950.973	160
951.064	618
951.155	968
951.245	831
951.336	500
951.427	-208
951.517	413
951.608	661
951.698	200
951.788	14
951.879	303
951.969	97
952.060	-306
952.150	9
952.240	-154
952.331	-260
952.421	23
952.511	-137
952.602	-132
952.692	512
952.782	-463
952.872	-101
952.962	-584
953.052	-89
953.143	-723
953.233	321
953.323	225
953.413	-220
953.503	443
953.593	49
953.683	-101
953.773	-597
953.863	-561
953.953	-969
954.042	-899
954.132	-108
954.222	24
954.312	-358
954.402	-31
954.492	-191
954.581	-361
954.671	-209
954.761	-1205
954.850	415
954.940	411
955.030	-824
955.119	99
955.209	53
955.298	55
955.388	-271
955.477	-501
955.567	-86
955.656	-768
955.746	-68
955.835	-97
955.925	-536
956.014	-645
956.103	-171
956.193	900
956.282	-103
956.371	276
956.461	-635
956.550	-566
956.639	-214
956.728	217
956.817	54
956.906	-163
956.995	511
957.085	91
957.174	-28
957.263	-732
957.352	-260
957.441	-191
957.530	691
957.619	58
957.708	-595
957.796	-770
957.885	674
957.974	-106
958.063	-338
958.152	255
958.241	-6
958.329	-332
958.418	339
958.507	-330
958.596	600
958.684	-321
958.773	-684
958.861	-76
958.950	-368
959.039	-268
959.127	-281
959.216	-216
959.304	-639
959.393	142
959.481	303
959.570	-923
959.658	-416
959.746	-700
959.835	-462
959.923	-1418
960.011	-568
960.100	-84
960.188	-224
960.276	-263
960.365	-422
960.453	-57
960.541	-36
960.629	-535
960.717	142
960.805	-11
960.893	19
960.981	-831
961.069	103
961.158	-139
961.245	-95
961.333	-390
961.421	-113
961.509	305
961.597	-1112
961.685	-202
961.773	115
961.861	101
961.949	62
962.036	447
962.124	-102
962.212	-422
962.299	78
962.387	-772
962.475	35
962.562	-984
962.650	331
962.738	-134
962.825	272
962.913	-204
963.000	-374
963.088	-1061
963.175	90
963.263	-516
963.350	-250
963.438	-21
963.525	-1090
963.612	-422
963.700	-442
963.787	-264
963.874	-1068
963.962	205
964.049	-91
964.136	31
964.223	-565
964.310	-189
964.398	-721
964.485	-531
964.572	-389
964.659	-468
964.746	52
964.833	-720
964.920	-536
965.007	-462
965.094	-510
965.181	181
965.268	-423
965.355	-436
965.441	-324
965.528	-139
965.615	-857
965.702	-279
965.789	66
965.875	68
965.962	-611
966.049	-412
966.136	38
966.222	-513
966.309	244
966.395	-933
966.482	-306
966.569	-926
966.655	-23
966.742	-1080
966.828	-582
966.915	-877
967.001	-696
967.087	-412
967.174	91
967.260	-355
967.347	-467
967.433	337
967.519	-663
967.605	-342
967.692	615
967.778	-610
967.864	-814
967.950	-691
968.036	364
968.123	-471
968.209	-230
968.295	-1144
968.381	207
968.467	-569
968.553	-544
968.639	-615
968.725	-856
968.811	67
968.897	-756
968.983	-507
969.069	-726
969.154	-292
969.240	-1215
969.326	-71
969.412	-592
969.497	-462
969.583	624
969.669	38
969.755	-274
969.840	-645
969.926	-40
970.012	598
970.097	-235
970.183	149
970.268	262
970.354	48
970.439	-318
970.525	-445
970.610	-347
970.696	-456
970.781	-245
970.866	-914
970.952	-441
971.037	389
971.122	-990
971.208	366
971.293	238
971.378	-500
971.463	-1117
971.549	-379
971.634	-214
971.719	138
971.804	-606
971.889	-635
971.974	-702
972.059	-276
972.144	-346
972.229	-78
972.314	-421
972.399	-1626
972.484	-663
972.569	-451
972.654	-430
972.739	-182
972.824	-447
972.908	189
972.993	12
973.078	-238
973.163	-921
973.247	-551
973.332	-787
973.417	-642
973.501	-248
973.586	-908
973.671	-5
973.755	248
973.840	468
973.924	-303
974.009	-287
974.093	-649
974.178	-321
974.262	-815
974.346	-585
974.431	-461
974.515	-170
974.600	-858
974.684	-14
974.768	194
974.852	-344
974.937	188
975.021	-386
975.105	-102
975.189	-9
975.273	-156
975.358	-677
975.442	-74
975.526	-125
975.610	-815
975.694	-844
975.778	-61
975.862	-1129
975.946	-1124
976.030	-572
976.114	-573
976.198	-700
976.281	-387
976.365	329
976.449	-274
976.533	-335
976.617	-1517
976.700	-286
976.784	-207
976.868	-366
976.951	-555
977.035	-247
977.119	-1647
977.202	107
977.286	-206
977.369	-93
977.453	-323
977.536	-148
977.620	-237
977.703	-562
977.787	-889
977.870	-267
977.953	-207
978.037	-1224
978.120	-100
978.203	-322
978.287	-659
978.370	-1264
978.453	-501
978.536	-230
978.620	-435
978.703	805
978.786	-964
978.869	-436
978.952	-1334
979.035	316
979.118	-310
979.201	-788
979.284	-7
979.367	-374
979.450	-311
979.533	-581
979.616	-506
979.699	-416
979.782	106
979.865	-327
979.948	380
980.030	-169
980.113	-374
980.196	-1052
980.279	-946
980.361	-389
980.444	-474
980.526	230
980.609	219
980.692	-467
980.774	-524
980.857	-284
980.939	-989
981.022	-552
981.104	-764
981.187	240
981.269	-876
981.352	144
981.434	-1171
981.516	-217
981.599	822
981.681	-639
981.763	-127
981.846	-101
981.928	-714
982.010	-542
982.092	-782
982.174	-63
982.256	-795
982.339	-584
982.421	-251
982.503	51
982.585	-463
982.667	-137
982.749	-521
982.831	-214
982.913	-745
982.995	65
983.077	-751
983.158	-564
983.240	-402
983.322	-359
983.404	-859
983.486	-552
983.568	259
983.649	61
983.731	-1066
983.813	-323
983.894	-248
983.976	277
984.058	-736
984.139	72
984.221	-783
984.302	88
984.384	-966
984.465	38
984.547	281
984.628	-455
984.710	-81
984.791	32
984.872	-462
984.954	-571
985.035	-78
985.116	-748
985.198	-310
985.279	-596
985.360	-25
985.441	-776
985.522	105
985.604	-840
985.685	-1440
985.766	447
985.847	196
985.928	-368
986.009	-315
986.090	-706
986.171	-773
986.252	-661
986.333	-500
986.414	33
986.495	-292
986.576	-157
986.656	-312
986.737	-444
986.818	187
986.899	-510
986.980	-646
987.060	-454
987.141	-1136
987.222	-584
987.302	734
987.383	-283
987.464	-1101
987.544	-248
987.625	-481
987.705	758
987.786	-769
987.866	-358
987.947	-264
988.027	-360
988.108	143
988.188	-82
988.268	-540
988.349	95
988.429	-170
988.509	582
988.589	-661
988.670	-1410
988.750	-695
988.830	-757
988.910	-945
988.990	-624
989.070	-233
989.151	-479
989.231	-428
989.311	-288
989.391	59
989.471	-231
989.551	-380
989.631	-699
989.711	-7
989.791	79
989.870	-302
989.950	-310
990.030	-1121
990.110	-780
990.190	-617
990.269	-478
990.349	-1331
990.429	-310
990.509	-1044
990.588	-1546
990.668	-340
990.747	-281
990.827	-351
990.907	-356
990.986	-533
991.066	-523
991.145	-437
991.225	-999
991.304	-307
991.383	-456
991.463	129
991.542	-779
991.622	-1126
991.701	-543
991.780	-1045
991.859	-870
991.939	-1584
992.018	-1143
992.097	-594
992.176	-1149
992.256	-101
992.335	-1031
992.414	-1155
992.493	-453
992.572	-1404
992.651	-716
992.730	-1077
992.809	-1438
992.888	-1282
992.967	-628
993.046	-219
993.125	-1477
993.203	-1519
993.282	-894
993.361	-1275
993.440	-764
993.519	-475
993.597	-1034
993.676	-892
993.755	-122
993.834	-787
993.912	-843
993.991	-511
994.069	-609
994.148	-1373
994.226	-448
994.305	-758
994.384	-1021
994.462	-809
994.540	-118
994.619	-979
994.697	-947
994.776	-910
994.854	-881
994.932	-1750
995.011	-1057
995.089	-1071
995.167	-1193
995.245	-616
995.324	-469
995.402	-929
995.480	-675
995.558	-1248
995.636	-1039
995.714	-1556
995.792	-1016
995.870	-851
995.948	-1261
996.026	-1484
996.104	-1068
996.182	-1918
996.260	-784
996.338	-1185
996.416	-278
996.494	-973
996.572	-1176
996.649	-920
996.727	-1673
996.805	-343
996.883	-1041
996.960	-1210
997.038	-1002
997.116	-289
997.193	-1461
997.271	-1002
997.348	-1364
997.426	-1006
997.504	-1106
997.581	-531
997.658	-1379
997.736	-1543
997.813	-1771
997.891	-112
997.968	-854
998.046	-1346
998.123	-1864
998.200	-722
998.277	-857
998.355	-421
998.432	-1042
998.509	-758
998.586	-501
998.663	-1010
998.741	-1063
998.818	-1571
998.895	-1017
998.972	-1339
999.049	-1743
999.126	-1160
999.203	-844
999.280	-860
999.357	-1547
999.434	-1046
999.511	-1112
999.587	-1460
999.664	-1929
999.741	-804
999.818	-1070
999.895	-419
999.971	-1271
1000.048	-784
1000.125	-1048
1000.202	-2622
1000.278	-1034
1000.355	-1215
1000.431	-89
1000.508	-1551
1000.584	-919
1000.661	-1207
1000.738	-1032
1000.814	-858
1000.890	-653
1000.967	-1700
1001.043	-1125
1001.120	-1325
1001.196	-1598
1001.272	-886
1001.349	-1133
1001.425	-767
1001.501	-816
1001.577	-2033
1001.654	59
1001.730	-1169
1001.806	-269
1001.882	-2018
1001.958	-804
1002.034	-1132
1002.110	-1061
1002.186	-1770
1002.262	-1466
1002.338	-815
1002.414	-965
1002.490	-604
1002.566	-1286
1002.642	-1257
1002.718	-1213
1002.794	-1895
1002.870	-1000
1002.945	-1386
1003.021	-1116
1003.097	-1152
1003.173	-132
1003.248	-2013
1003.324	-946
1003.400	-1530
1003.475	-1406
1003.551	-1616
1003.626	-1157
1003.702	-1112
1003.777	-861
1003.853	-645
1003.928	-1100
1004.004	-1757
1004.079	-1201
1004.155	-825
1004.230	-1653
1004.305	-1005
1004.381	-973
1004.456	-496
1004.531	-377
1004.607	-2324
1004.682	-771
1004.757	-1343
1004.832	-1136
1004.907	-1262
1004.982	-1012
1005.057	-1339
1005.133	-1029
1005.208	-245
1005.283	-655
1005.358	-1121
1005.433	-2307
1005.508	-1619
1005.583	-1484
1005.657	-1697
1005.732	-762
1005.807	-714
1005.882	-1052
1005.957	-1285
1006.032	-2032
1006.106	-1436
1006.181	-744
1006.256	-880
1006.331	-1075
1006.405	-1809
1006.480	-690
1006.554	-1274
1006.629	-1415
1006.704	-1974
1006.778	-1429
1006.853	-1622
1006.927	-1086
1007.002	-1149
1007.076	-1224
1007.150	-1593
1007.225	-1275
1007.299	-1655
1007.373	-1589
1007.448	-881
1007.522	-923
1007.596	-1704
1007.671	-1472
1007.745	-1175
1007.819	-1353
1007.893	-1861
1007.967	-667
1008.041	-1098
1008.115	-1052
1008.190	-2260
1008.264	-1990
1008.338	-1337
1008.412	-967
1008.486	-1982
1008.560	-1022
1008.633	-1869
1008.707	-736
1008.781	-1270
1008.855	-1400
1008.929	-1548
1009.003	-1584
1009.076	-1231
1009.150	-1634
1009.224	-1262
1009.298	-1115
1009.371	-1593
1009.445	-1191
1009.519	-1098
1009.592	-1594
1009.666	-1748
1009.739	-1043
1009.813	-1566
1009.886	-1604
1009.960	-2194
1010.033	-795
1010.107	-1277
1010.180	-1659
1010.253	-1793
1010.327	-1576
1010.400	-2131
1010.473	-1703
1010.547	-1387
1010.620	-1818
1010.693	-1570
1010.766	-2144
1010.840	-1701
1010.913	-1640
1010.986	-674
1011.059	-1819
1011.132	-1724
1011.205	-1455
1011.278	-1252
1011.351	-1751
1011.424	-1833
1011.497	-1592
1011.570	-1996
1011.643	-1889
1011.716	-1728
1011.789	-1963
1011.862	-1011
1011.934	-2007
1012.007	-2335
1012.080	-1014
1012.153	-1210
1012.225	-513
1012.298	-1422
1012.371	-1741
1012.443	-1752
1012.516	-2086
1012.588	-1055
1012.661	-2080
1012.733	-1335
1012.806	-1307
1012.879	-1796
1012.951	-1211
1013.023	-1819
1013.096	-1366
1013.168	-1382
1013.241	-1142
1013.313	-2281
1013.385	-1413
1013.458	-1215
1013.530	-1671
1013.602	-1035
1013.674	-1465
1013.746	-1962
1013.819	-1456
1013.891	-1565
1013.963	-2021
1014.035	-1586
1014.107	-1338
1014.179	-2001
1014.251	-1874
1014.323	-1690
1014.395	-1676
1014.467	-2289
1014.539	-2616
1014.611	-1999
1014.683	-1280
1014.754	-1856
1014.826	-1731
1014.898	-1528
1014.970	-1345
1015.042	-828
1015.113	-1536
1015.185	-2187
1015.257	-1232
1015.328	-692
1015.400	-1851
1015.471	-1371
1015.543	-2037
1015.615	-1683
1015.686	-1219
1015.757	-1855
1015.829	-1844
1015.901	-2599
1015.972	-1161
1016.043	-1878
1016.115	-1616
1016.186	-1054
1016.257	-2197
1016.328	-1783
1016.400	-1898
1016.471	-1923
1016.542	-2017
1016.613	-1496
1016.685	-1740
1016.756	-1371
1016.827	-1650
1016.898	-2097
1016.969	-924
1017.040	-1830
1017.111	-1781
1017.182	-1923
1017.253	-1196
1017.324	-1879
1017.395	-1839
1017.466	-1317
1017.537	-1500
1017.608	-1239
1017.678	-1619
1017.749	-2058
1017.820	-2107
1017.891	-2574
1017.961	-1836
1018.032	-2241
1018.103	-1984
1018.173	-1389
1018.244	-1327
1018.315	-2137
1018.385	-1576
1018.456	-1830
1018.526	-2487
1018.597	-1581
1018.667	-2014
1018.738	-2704
1018.808	-870
1018.878	-2055
1018.949	-1618
1019.019	-1106
1019.089	-1943
1019.160	-2519
1019.230	-1870
1019.300	-1987
1019.371	-2048
1019.441	-976
1019.511	-1596
1019.581	-2629
1019.651	-1914
1019.721	-2356
1019.791	-1788
1019.861	-1074
1019.931	-1987
1020.001	-1868
1020.071	-1590
1020.141	-1396
1020.211	-1674
1020.281	-1146
1020.351	-2043
1020.421	-1088
1020.491	-1486
1020.560	-1801
1020.630	-2204
1020.700	-2118
1020.770	-1858
1020.839	-1383
1020.909	-2573
1020.979	-1661
1021.048	-1805
1021.118	-2038
1021.187	-1900
1021.257	-2403
1021.326	-2289
1021.396	-1883
1021.465	-1337
1021.535	-2455
1021.604	-2212
1021.674	-1964
1021.743	-1842
1021.812	-1945
1021.882	-1675
1021.951	-2181
1022.020	-1784
1022.089	-2119
1022.159	-2000
1022.228	-2365
1022.297	-1613
1022.366	-1754
1022.435	-1165
1022.504	-2322
1022.573	-1476
1022.642	-1436
1022.711	-2113
1022.781	-1789
1022.849	-1857
1022.918	-1874
1022.987	-1412
1023.056	-2371
1023.125	-1397
1023.194	-1952
1023.263	-1777
1023.331	-2178
1023.400	-1565
1023.469	-2280
1023.538	-1305
1023.606	-2217
1023.675	-1227
1023.744	-1294
1023.812	-1794
1023.881	-1907
1023.949	-1928
1024.018	-1562
1024.086	-712
1024.155	-1346
1024.223	-1979
1024.292	-2758
1024.360	-1445
1024.429	-1448
1024.497	-2475
1024.565	-1581
1024.634	-1677
1024.702	-721
1024.770	-1818
1024.838	-1688
1024.907	-1779
1024.975	-1766
1025.043	-1773
1025.111	-1877
1025.179	-1001
1025.247	-1756
1025.315	-1861
1025.383	-2263
1025.451	-1114
1025.519	-1635
1025.587	-1389
1025.655	-1275
1025.723	-2135
1025.791	-1771
1025.859	-1247
1025.927	-1680
1025.995	-2049
1026.062	-1681
1026.130	-1113
1026.198	-1707
1026.266	-1649
1026.333	-1334
1026.401	-2272
1026.469	-1597
1026.536	-1959
1026.604	-1295
1026.671	-2237
1026.739	-1138
1026.806	-1752
1026.874	-2151
1026.941	-2624
1027.009	-2201
1027.076	-1462
1027.144	-1716
1027.211	-1364
1027.278	-1551
1027.345	-1744
1027.413	-1276
1027.480	-1984
1027.547	-1545
1027.614	-1417
1027.682	-1687
1027.749	-1538
1027.816	-1912
1027.883	-841
1027.950	-1423
1028.017	-1777
1028.084	-1652
1028.151	-2228
1028.218	-2802
1028.285	-1793
1028.352	-2589
1028.419	-1324
1028.486	-2232
1028.553	-1091
1028.619	-2105
1028.686	-1315
1028.753	-1098
1028.820	-1926
1028.886	-1603
1028.953	-2009
1029.020	-1214
1029.086	-1877
1029.153	-1946
1029.220	-1875
1029.286	-1602
1029.353	-2412
1029.419	-998
1029.486	-2273
1029.552	-1964
1029.619	-983
1029.685	-2026
1029.751	-1649
1029.818	-378
1029.884	-1688
1029.951	-1792
1030.017	-1318
1030.083	-2418
1030.149	-1097
1030.216	-1464
1030.282	-1911
1030.348	-2557
1030.414	-2201
1030.480	-1709
1030.546	-1972
1030.612	-1556
1030.678	-2219
1030.744	-1758
1030.810	-1602
1030.876	-2028
1030.942	-1859
1031.008	-1245
1031.074	-1701
1031.140	-1366
1031.206	-1271
1031.272	-2470
1031.337	-2072
1031.403	-2102
1031.469	-2050
1031.534	-2607
1031.600	-1583
1031.666	-2429
1031.731	-1853
1031.797	-2003
1031.863	-1787
1031.928	-2221
1031.994	-2085
1032.059	-1752
1032.125	-1694
1032.190	-1807
1032.256	-1466
1032.321	-1810
1032.386	-1745
1032.452	-1536
1032.517	-1355
1032.582	-1482
1032.647	-2100
1032.713	-1682
1032.778	-1716
1032.843	-3058
1032.908	-2234
1032.974	-1424
1033.039	-1611
1033.104	-1654
1033.169	-1396
1033.234	-1959
1033.299	-514
1033.364	-1679
1033.429	-1664
1033.494	-2138
1033.559	-1843
1033.624	-1625
1033.688	-2228
1033.753	-2779
1033.818	-1242
1033.883	-2417
1033.948	-1991
1034.013	-1752
1034.077	-1662
1034.142	-714
1034.207	-1904
1034.271	-1655
1034.336	-1262
1034.400	-1319
1034.465	-1515
1034.530	-1879
1034.594	-1474
1034.658	-2229
1034.723	-1668
1034.787	-2064
1034.852	-1541
1034.916	-2405
1034.981	-1428
1035.045	-2540
1035.109	-1808
1035.173	-1899
1035.238	-1699
1035.302	-1640
1035.366	-1482
1035.430	-2279
1035.495	-2239
1035.559	-1966
1035.623	-2002
1035.687	-2822
1035.751	-2604
1035.815	-1484
1035.879	-1450
1035.943	-1260
1036.007	-2063
1036.071	-2005
1036.135	-1309
1036.198	-1967
1036.262	-1864
1036.326	-2118
1036.390	-1254
1036.454	-2574
1036.517	-1591
1036.581	-1996
1036.645	-2073
1036.709	-1669
1036.772	-2301
1036.836	-2111
1036.900	-1829
1036.963	-833
1037.026	-1445
1037.090	-2134
1037.154	-1576
1037.217	-1343
1037.280	-1806
1037.344	-1093
1037.407	-1705
1037.471	-1856
1037.534	-1501
1037.597	-2103
1037.661	-1895
1037.724	-1628
1037.787	-2067
1037.850	-1199
1037.913	-1611
1037.977	-1933
1038.040	-1293
1038.103	-2059
1038.166	-2027
1038.229	-1733
1038.292	-1480
1038.355	-2137
1038.418	-1260
1038.481	-1750
1038.544	-1865
1038.607	-1329
1038.670	-2192
1038.732	-1788
1038.795	-2144
1038.858	-1507
1038.921	-2274
1038.984	-1801
1039.046	-1907
1039.109	-1898
1039.172	-1848
1039.234	-1903
1039.297	-2465
1039.360	-1483
1039.422	-1430
1039.485	-1587
1039.547	-2500
1039.610	-2501
1039.672	-2389
1039.734	-2067
1039.797	-1791
1039.859	-1777
1039.922	-2264
1039.984	-1700
1040.046	-2084
1040.109	-1458
1040.171	-1547
1040.233	-1812
1040.295	-2172
1040.358	-2542
1040.420	-1824
1040.482	-1983
1040.544	-1965
1040.606	-2709
1040.668	-1211
1040.730	-2040
1040.792	-1389
1040.854	-2117
1040.916	-1963
1040.978	-2292
1041.040	-1852
1041.102	-1880
1041.164	-2168
1041.225	-1135
1041.287	-2149
1041.349	-1934
1041.411	-1771
1041.472	-1411
1041.534	-2043
1041.596	-2413
1041.657	-2024
1041.719	-2224
1041.781	-2364
1041.842	-1664
1041.904	-1579
1041.965	-1790
1042.027	-1912
1042.088	-1438
1042.150	-1940
1042.211	-2517
1042.272	-1643
1042.334	-2090
1042.395	-1815
1042.456	-2054
1042.518	-1876
1042.579	-2030
1042.640	-1895
1042.701	-2175
1042.763	-1180
1042.824	-2369
1042.885	-1509
1042.946	-1673
1043.007	-2465
1043.068	-2484
1043.129	-1379
1043.190	-2441
1043.251	-1345
1043.312	-2063
1043.373	-1666
1043.434	-1790
1043.495	-2516
1043.556	-2226
1043.616	-2067
1043.677	-2145
1043.738	-1634
1043.799	-1690
1043.859	-1940
1043.920	-1976
1043.981	-1923
1044.041	-1576
1044.102	-2454
1044.162	-877
1044.223	-1634
1044.284	-888
1044.344	-1704
1044.405	-2404
1044.465	-1808
1044.525	-1865
1044.586	-1085
1044.646	-1187
1044.707	-1331
1044.767	-1842
1044.827	-1255
1044.887	-2169
1044.948	-1827
1045.008	-1340
1045.068	-1602
1045.128	-2194
1045.188	-779
1045.249	-1381
1045.309	-2567
1045.369	-1841
1045.429	-2202
1045.489	-2285
1045.549	-1084
1045.609	-1151
1045.669	-2183
1045.729	-2217
1045.789	-1238
1045.848	-1432
1045.908	-1149
1045.968	-1892
1046.028	-1352
1046.088	-1988
1046.147	-1344
1046.207	-805
1046.267	-1795
1046.326	-1280
1046.386	-1159
1046.446	-1116
1046.505	-953
1046.565	-1978
1046.624	-1293
1046.684	-957
1046.743	-765
1046.803	-1023
1046.862	-523
1046.922	0
