'Start Wavelength	183.907
'End Wavelength	1046.922
'Gate Delay	5.000
'Gate Width (ms)	1.050
'Laser Output Level	0.000
'X Position	0.000
'Y Position	0.000
'Z Position	0.000
'Grid Point Number	1.000
'Shot Number	100.000
183.907	447.000
183.977	-501.000
184.047	-698
184.116	80
184.186	187
184.256	203
184.325	-168
184.395	-867
184.465	147
184.534	-191
184.604	-898
184.674	-66
184.743	-804
184.813	172
184.883	-452
184.952	-33
185.022	-574
185.092	-70
185.161	28
185.231	-993
185.301	-557
185.370	253
185.440	111
185.509	-656
185.579	-588
185.649	-35
185.718	88
185.788	-211
185.857	-170
185.927	354
185.996	-334
186.066	-641
186.136	-459
186.205	363
186.275	157
186.344	144
186.414	-304
186.483	-1285
186.553	14
186.622	-178
186.692	-589
186.761	-477
186.831	103
186.900	-233
186.970	-36
187.039	-183
187.109	703
187.178	-460
187.248	16
187.317	-277
187.387	-399
187.456	680
187.526	-345
187.595	-447
187.664	43
187.734	-253
187.803	-296
187.873	-127
187.942	-805
188.012	-220
188.081	-474
188.150	-328
188.220	118
188.289	-7
188.358	-311
188.428	486
188.497	-75
188.567	292
188.636	-812
188.705	-58
188.775	-643
188.844	-514
188.913	21
188.983	-508
189.052	-232
189.121	-594
189.191	183
189.260	268
189.329	-477
189.399	-642
189.468	14
189.537	-720
189.606	85
189.676	-647
189.745	492
189.814	-225
189.883	-205
189.953	-718
190.022	-2
190.091	121
190.161	28
190.230	-255
190.299	-333
190.368	-238
190.437	19
190.507	-287
190.576	-116
190.645	-293
190.714	7
190.783	-1004
190.853	-197
190.922	-243
190.991	-136
191.060	-401
191.129	-133
191.198	333
191.268	-328
191.337	350
191.406	-244
191.475	60
191.544	-141
191.613	-268
191.682	-286
191.752	445
191.821	-552
191.890	-820
191.959	-344
192.028	-760
192.097	458
192.166	-370
192.235	-1154
192.304	-112
192.373	-130
192.442	-168
192.511	370
192.580	-86
192.650	198
192.719	275
192.788	321
192.857	53
192.926	43
192.995	-124
193.064	-163
193.133	158
193.202	176
193.271	-452
193.340	246
193.409	-310
193.478	627
193.547	54
193.615	72
193.684	-598
193.753	92
193.822	272
193.891	488
193.960	-434
194.029	-512
194.098	-180
194.167	332
194.236	-961
194.305	-431
194.374	-65
194.443	-776
194.512	-335
194.580	-262
194.649	85
194.718	240
194.787	281
194.856	-678
194.925	-796
194.994	51
195.062	-572
195.131	-332
195.200	-627
195.269	4
195.338	206
195.407	34
195.475	28
195.544	670
195.613	476
195.682	-356
195.751	-1011
195.819	-89
195.888	-171
195.957	223
196.026	-424
196.094	-847
196.163	-381
196.232	397
196.301	-835
196.369	-329
196.438	-178
196.507	66
196.576	-896
196.644	-712
196.713	-284
196.782	-326
196.850	436
196.919	-71
196.988	66
197.056	-604
197.125	-500
197.194	-14
197.262	-57
197.331	-209
197.400	-935
197.468	-76
197.537	43
197.606	234
197.674	540
197.743	443
197.812	-412
197.880	422
197.949	-417
198.017	705
198.086	121
198.155	-436
198.223	-52
198.292	396
198.360	102
198.429	-585
198.497	-1064
198.566	-162
198.635	695
198.703	698
198.772	235
198.840	905
198.909	815
198.977	-223
199.046	56
199.114	-429
199.183	672
199.251	-176
199.320	-976
199.388	-180
199.457	-790
199.525	19
199.594	-821
199.662	-47
199.731	-539
199.799	1409
199.867	-286
199.936	203
200.004	-108
200.073	214
200.141	-148
200.210	268
200.278	-215
200.346	52
200.415	77
200.483	-804
200.552	-345
200.620	-204
200.688	-343
200.757	-544
200.825	317
200.893	-690
200.962	-678
201.030	-551
201.098	-687
201.167	751
201.235	264
201.303	-550
201.372	-313
201.440	170
201.508	-955
201.577	90
201.645	587
201.713	-504
201.781	387
201.850	4
201.918	-179
201.986	-625
202.055	77
202.123	-221
202.191	-479
202.259	-107
202.327	177
202.396	33
202.464	284
202.532	-244
202.600	213
202.669	647
202.737	-579
202.805	-627
202.873	268
202.941	-8
203.009	-321
203.078	-755
203.146	-937
203.214	-593
203.282	-747
203.350	619
203.418	-743
203.487	-168
203.555	-315
203.623	-84
203.691	-538
203.759	-1006
203.827	-664
203.895	-342
203.963	-615
204.031	-363
204.099	156
204.168	-537
204.236	-341
204.304	-512
204.372	127
204.440	-471
204.508	-838
204.576	63
204.644	19
204.712	296
204.780	-426
204.848	-402
204.916	-616
204.984	393
205.052	308
205.120	-585
205.188	-422
205.256	-133
205.324	898
205.392	-810
205.460	-271
205.528	-59
205.596	-388
205.664	-680
205.732	-276
205.799	12
205.867	1070
205.935	-574
206.003	756
206.071	-98
206.139	-312
206.207	-8
206.275	-795
206.343	-249
206.411	184
206.478	-533
206.546	-216
206.614	-441
206.682	-601
206.750	-275
206.818	-45
206.885	-314
206.953	-1328
207.021	327
207.089	-150
207.157	-411
207.225	-177
207.292	132
207.360	-1026
207.428	-268
207.496	-926
207.563	-32
207.631	78
207.699	-498
207.767	-199
207.834	-235
207.902	-328
207.970	-876
208.038	-663
208.105	31
208.173	-200
208.241	-301
208.309	-262
208.376	333
208.444	-229
208.512	-576
208.579	-856
208.647	41
208.715	492
208.782	-356
208.850	-587
208.918	-117
208.985	-572
209.053	-64
209.120	-870
209.188	96
209.256	1
209.323	-597
209.391	-394
209.459	371
209.526	-614
209.594	-43
209.661	-528
209.729	-338
209.796	73
209.864	-749
209.932	-1466
209.999	1436
210.067	439
210.134	-556
210.202	-226
210.269	768
210.337	150
210.404	-183
210.472	-372
210.539	215
210.607	-485
210.674	-810
210.742	-303
210.809	-711
210.877	-220
210.944	258
211.012	-447
211.079	1333
211.146	-613
211.214	-304
211.281	168
211.349	99
211.416	368
211.484	565
211.551	-268
211.618	-312
211.686	-106
211.753	-253
211.821	20
211.888	-647
211.955	602
212.023	93
212.090	90
212.157	32
212.225	-636
212.292	560
212.359	1130
212.427	4081
212.494	896
212.561	431
212.629	331
212.696	317
212.763	-89
212.831	-412
212.898	50
212.965	-191
213.032	357
213.100	620
213.167	-277
213.234	407
213.301	-428
213.369	247
213.436	-339
213.503	-1
213.570	495
213.638	332
213.705	-173
213.772	-1008
213.839	-1042
213.906	1151
213.973	-498
214.041	-873
214.108	170
214.175	-395
214.242	-884
214.309	-127
214.376	-681
214.444	-1240
214.511	-745
214.578	-58
214.645	-146
214.712	536
214.779	-888
214.846	-672
214.913	410
214.980	215
215.048	230
215.115	519
215.182	-20
215.249	-253
215.316	-482
215.383	314
215.450	218
215.517	-479
215.584	-727
215.651	-667
215.718	-755
215.785	-33
215.852	-474
215.919	484
215.986	474
216.053	-363
216.120	-218
216.187	211
216.254	-292
216.321	-504
216.388	-148
216.455	147
216.522	-310
216.589	-479
216.656	369
216.722	-69
216.789	133
216.856	158
216.923	-295
216.990	495
217.057	149
217.124	517
217.191	-724
217.258	740
217.324	599
217.391	793
217.458	515
217.525	-431
217.592	-300
217.659	-939
217.725	617
217.792	-342
217.859	517
217.926	-167
217.993	-172
218.059	-5
218.126	120
218.193	-149
218.260	-526
218.327	263
218.393	-704
218.460	84
218.527	-951
218.594	224
218.660	-473
218.727	1321
218.794	-678
218.860	319
218.927	-365
218.994	32
219.061	-603
219.127	-68
219.194	262
219.261	628
219.327	-84
219.394	-146
219.461	-214
219.527	350
219.594	305
219.661	329
219.727	-949
219.794	-101
219.860	-581
219.927	882
219.994	338
220.060	1050
220.127	471
220.193	196
220.260	-624
220.326	540
220.393	708
220.460	1308
220.526	916
220.593	57
220.659	898
220.726	361
220.792	2236
220.859	1146
220.925	1792
220.992	2918
221.058	2803
221.125	2501
221.191	1637
221.258	-10
221.324	164
221.391	171
221.457	-169
221.524	401
221.590	-131
221.657	2008
221.723	910
221.789	959
221.856	480
221.922	-20
221.989	282
222.055	435
222.121	-1896
222.188	1219
222.254	395
222.321	-162
222.387	-1107
222.453	-420
222.520	-391
222.586	-583
222.652	153
222.719	-1017
222.785	-149
222.851	-528
222.918	-17
222.984	-647
223.050	-354
223.116	-1187
223.183	561
223.249	-614
223.315	-770
223.382	-738
223.448	645
223.514	-1057
223.580	-472
223.647	-1069
223.713	-1416
223.779	-758
223.845	54
223.911	-225
223.978	-1283
224.044	324
224.110	-637
224.176	-206
224.242	-144
224.309	-1073
224.375	-164
224.441	-556
224.507	-642
224.573	-988
224.639	-218
224.705	-130
224.772	-183
224.838	-593
224.904	-73
224.970	-929
225.036	-600
225.102	-1036
225.168	-251
225.234	126
225.300	-245
225.366	189
225.432	-277
225.499	-496
225.565	-1356
225.631	-731
225.697	-752
225.763	418
225.829	-534
225.895	412
225.961	-271
226.027	-88
226.093	-962
226.159	1244
226.225	1149
226.291	1575
226.357	4453
226.423	2162
226.489	771
226.554	835
226.620	992
226.686	-222
226.752	1923
226.818	2586
226.884	6795
226.950	6081
227.016	1303
227.082	984
227.148	158
227.214	492
227.279	421
227.345	-62
227.411	-219
227.477	312
227.543	-94
227.609	343
227.674	-551
227.740	323
227.806	285
227.872	-327
227.938	-450
228.003	-20
228.069	-436
228.135	-1133
228.201	-376
228.267	-834
228.332	-271
228.398	-646
228.464	-659
228.530	-1379
228.595	-457
228.661	-989
228.727	-923
228.792	574
228.858	-341
228.924	-1293
228.990	1352
229.055	-806
229.121	-65
229.187	325
229.252	-728
229.318	-592
229.384	-281
229.449	-507
229.515	-1843
229.581	-1411
229.646	592
229.712	-528
229.777	382
229.843	-174
229.909	-167
229.974	946
230.040	389
230.105	-694
230.171	-786
230.236	379
230.302	958
230.368	-374
230.433	-434
230.499	515
230.564	1234
230.630	-759
230.695	-454
230.761	-537
230.826	-1718
230.892	1091
230.957	-1279
231.023	-348
231.088	-957
231.154	-945
231.219	117
231.284	282
231.350	205
231.415	-616
231.481	-99
231.546	-681
231.612	270
231.677	-86
231.742	-1216
231.808	1006
231.873	-1005
231.939	-2345
232.004	710
232.069	499
232.135	-387
232.200	-1095
232.265	1019
232.331	-651
232.396	-576
232.461	-1254
232.527	-582
232.592	-1024
232.657	-435
232.723	241
232.788	-210
232.853	65
232.918	171
232.984	-802
233.049	-820
233.114	-67
233.179	103
233.245	750
233.310	567
233.375	-1459
233.440	-320
233.506	-296
233.571	-728
233.636	-511
233.701	-940
233.766	40
233.832	495
233.897	-739
233.962	-1347
234.027	696
234.092	-259
234.157	-523
234.222	-1130
234.288	-328
234.353	802
234.418	1806
234.483	679
234.548	894
234.613	-563
234.678	-164
234.743	-778
234.808	2392
234.873	234
234.938	1063
235.004	-381
235.069	167
235.134	-1054
235.199	708
235.264	-814
235.329	-2215
235.394	987
235.459	451
235.524	-888
235.589	624
235.654	-590
235.719	-2131
235.784	527
235.849	-214
235.913	1265
235.978	446
236.043	727
236.108	227
236.173	-1136
236.238	493
236.303	-858
236.368	-201
236.433	773
236.498	1031
236.563	221
236.627	1255
236.692	8711
236.757	7259
236.822	2257
236.887	1195
236.952	1095
237.017	-613
237.081	1277
237.146	421
237.211	2921
237.276	8584
237.341	15168
237.405	5307
237.470	2453
237.535	1710
237.600	1216
237.664	722
237.729	-413
237.794	-661
237.859	2248
237.923	1341
237.988	-56
238.053	716
238.118	644
238.182	2342
238.247	4164
238.312	-628
238.376	1196
238.441	-772
238.506	652
238.570	-1614
238.635	830
238.700	-271
238.764	-253
238.829	532
238.893	607
238.958	1240
239.023	229
239.087	339
239.152	-17
239.216	-961
239.281	114
239.346	-102
239.410	-85
239.475	-552
239.539	1973
239.604	1548
239.668	544
239.733	746
239.797	502
239.862	346
239.926	1554
239.991	318
240.055	-288
240.120	-587
240.184	-141
240.249	-1090
240.313	-382
240.378	-49
240.442	861
240.507	2546
240.571	257
240.635	210
240.700	1493
240.764	93
240.829	-262
240.893	-682
240.957	-23
241.022	909
241.086	2364
241.151	133
241.215	-1472
241.279	340
241.344	148
241.408	1030
241.472	-504
241.537	1035
241.601	449
241.665	-1342
241.730	-649
241.794	588
241.858	-697
241.922	-316
241.987	568
242.051	-723
242.115	-1869
242.179	-96
242.244	-928
242.308	119
242.372	466
242.436	-471
242.501	152
242.565	-700
242.629	-1287
242.693	50
242.757	-591
242.822	300
242.886	-360
242.950	565
243.014	-763
243.078	-212
243.142	-138
243.206	-577
243.271	213
243.335	-757
243.399	1012
243.463	3082
243.527	12547
243.591	2732
243.655	623
243.719	46
243.783	484
243.847	829
243.911	1257
243.975	458
244.040	-434
244.104	1170
244.168	-345
244.232	-237
244.296	760
244.360	790
244.424	-845
244.488	612
244.552	-423
244.615	-1122
244.679	441
244.743	-9
244.807	-1269
244.871	191
244.935	476
244.999	-984
245.063	-829
245.127	45
245.191	322
245.255	298
245.319	313
245.383	-1204
245.446	369
245.510	-1005
245.574	131
245.638	293
245.702	-1316
245.766	1505
245.829	1510
245.893	-618
245.957	-789
246.021	523
246.085	19
246.149	-114
246.212	2721
246.276	4090
246.340	601
246.404	359
246.467	984
246.531	105
246.595	890
246.659	1189
246.722	-898
246.786	318
246.850	819
246.913	842
246.977	-1529
247.041	8
247.104	41
247.168	790
247.232	1381
247.295	5370
247.359	2596
247.423	463
247.486	1435
247.550	1253
247.614	428
247.677	541
247.741	-83
247.804	214
247.868	508
247.932	438
247.995	5805
248.059	1387
248.122	-219
248.186	1822
248.249	1062
248.313	8130
248.376	8907
248.440	4911
248.503	581
248.567	2541
248.630	911
248.694	2867
248.757	4062
248.821	8698
248.884	5549
248.948	3459
249.011	7209
249.075	10216
249.138	8554
249.202	2878
249.265	1089
249.328	3227
249.392	945
249.455	1783
249.519	419
249.582	1143
249.645	2271
249.709	1153
249.772	487
249.835	991
249.899	533
249.962	416
250.025	526
250.089	2864
250.152	4205
250.215	1877
250.279	836
250.342	1487
250.405	1579
250.468	791
250.532	1357
250.595	2923
250.658	9677
250.721	20137
250.785	5765
250.848	3894
250.911	1444
250.974	3154
251.038	1948
251.101	6208
251.164	2070
251.227	3226
251.290	1708
251.354	3603
251.417	15867
251.480	16833
251.543	9981
251.606	30233
251.669	23718
251.732	7630
251.795	7936
251.859	8583
251.922	18520
251.985	11880
252.048	4976
252.111	3616
252.174	1870
252.237	4499
252.300	10505
252.363	10845
252.426	26522
252.489	10098
252.552	4604
252.615	2744
252.678	3378
252.741	7081
252.804	9869
252.867	25783
252.930	14420
252.993	6460
253.056	3747
253.119	2657
253.182	2115
253.245	3681
253.308	3314
253.371	1838
253.434	2047
253.497	2428
253.559	5134
253.622	3381
253.685	3285
253.748	3311
253.811	641
253.874	2625
253.937	1309
254.000	1724
254.062	2872
254.125	4851
254.188	4265
254.251	2607
254.314	1305
254.376	1771
254.439	3218
254.502	2215
254.565	2203
254.628	5382
254.690	3081
254.753	909
254.816	-90
254.878	1682
254.941	4258
255.004	4170
255.067	1183
255.129	801
255.192	242
255.255	-812
255.317	408
255.380	709
255.443	145
255.505	-16
255.568	-1705
255.631	-645
255.693	368
255.756	-818
255.819	767
255.881	-736
255.944	304
256.006	-208
256.069	-114
256.132	-156
256.194	484
256.257	1567
256.319	1485
256.382	246
256.444	35
256.507	755
256.569	-358
256.632	-131
256.694	237
256.757	3929
256.819	14489
256.882	3374
256.944	640
257.007	990
257.069	-348
257.132	-131
257.194	776
257.257	-258
257.319	-190
257.381	-273
257.444	2314
257.506	15562
257.569	16384
257.631	5125
257.693	2039
257.756	896
257.818	922
257.880	272
257.943	462
258.005	-94
258.067	352
258.130	227
258.192	784
258.254	1725
258.317	1059
258.379	441
258.441	1470
258.503	1833
258.566	2750
258.628	4992
258.690	-531
258.753	847
258.815	1520
258.877	-250
258.939	-353
259.001	1029
259.064	-839
259.126	-800
259.188	387
259.250	101
259.312	620
259.375	866
259.437	376
259.499	99
259.561	-630
259.623	-73
259.685	-182
259.747	143
259.809	2581
259.872	5994
259.934	8115
259.996	8988
260.058	1446
260.120	185
260.182	164
260.244	235
260.306	-200
260.368	869
260.430	-1235
260.492	681
260.554	1942
260.616	1308
260.678	2266
260.740	5455
260.802	881
260.864	1099
260.926	-930
260.988	1131
261.050	-189
261.112	889
261.174	6174
261.236	5002
261.298	484
261.359	2453
261.421	3044
261.483	-220
261.545	608
261.607	-853
261.669	-73
261.731	587
261.793	3886
261.854	-101
261.916	633
261.978	-659
262.040	349
262.102	569
262.164	225
262.225	381
262.287	611
262.349	330
262.411	678
262.472	569
262.534	-345
262.596	2983
262.658	547
262.719	-505
262.781	252
262.843	2218
262.904	1393
262.966	897
263.028	247
263.090	6281
263.151	18307
263.213	5548
263.275	1984
263.336	251
263.398	964
263.459	-360
263.521	228
263.583	636
263.644	476
263.706	-899
263.767	-749
263.829	320
263.891	-317
263.952	-765
264.014	-666
264.075	-74
264.137	1353
264.198	633
264.260	-1848
264.321	-533
264.383	-333
264.444	3482
264.506	-316
264.567	239
264.629	661
264.690	1568
264.752	82
264.813	-132
264.875	-511
264.936	992
264.998	-846
265.059	-1321
265.120	-863
265.182	-732
265.243	4950
265.305	6006
265.366	1220
265.427	119
265.489	1152
265.550	-1199
265.611	-318
265.673	-480
265.734	-656
265.795	112
265.857	-1187
265.918	-446
265.979	665
266.040	9236
266.102	9305
266.163	2133
266.224	457
266.286	280
266.347	-694
266.408	-496
266.469	-569
266.530	-118
266.592	-1211
266.653	559
266.714	856
266.775	-1169
266.836	-966
266.898	-1537
266.959	-803
267.020	-574
267.081	399
267.142	-512
267.203	-365
267.264	-1102
267.326	663
267.387	-905
267.448	-727
267.509	-514
267.570	-733
267.631	-1059
267.692	-1485
267.753	-421
267.814	-961
267.875	172
267.936	1621
267.997	-610
268.058	-1044
268.119	-678
268.180	109
268.241	-1535
268.302	-828
268.363	-1684
268.424	-750
268.485	-337
268.546	-331
268.607	-805
268.668	-585
268.729	-1086
268.790	-83
268.851	-345
268.912	738
268.972	954
269.033	-283
269.094	-256
269.155	-1206
269.216	-811
269.277	60
269.338	-1125
269.398	-748
269.459	-983
269.520	71
269.581	115
269.642	-328
269.702	-1499
269.763	-373
269.824	-1193
269.885	-1059
269.945	899
270.006	160
270.067	-697
270.128	-908
270.188	-1244
270.249	-1450
270.310	-1301
270.370	166
270.431	-302
270.492	-874
270.553	444
270.613	300
270.674	2291
270.734	179
270.795	-849
270.856	-274
270.916	-949
270.977	-1067
271.038	880
271.098	-330
271.159	171
271.219	10
271.280	-20
271.340	257
271.401	-692
271.462	671
271.522	-72
271.583	-1001
271.643	-599
271.704	-1122
271.764	-626
271.825	183
271.885	6966
271.946	10316
272.006	2365
272.066	3473
272.127	8979
272.187	1171
272.248	66
272.308	-114
272.369	4736
272.429	2809
272.489	468
272.550	1320
272.610	1204
272.671	410
272.731	598
272.791	1729
272.852	189
272.912	353
272.972	-752
273.033	-858
273.093	27
273.153	-112
273.214	-118
273.274	-190
273.334	2746
273.394	7871
273.455	2193
273.515	1560
273.575	5115
273.635	1691
273.696	3631
273.756	6799
273.816	3140
273.876	646
273.936	3035
273.997	6530
274.057	1100
274.117	695
274.177	371
274.237	8303
274.297	8687
274.358	4681
274.418	5446
274.478	3630
274.538	1288
274.598	447
274.658	4832
274.718	5871
274.778	1999
274.838	574
274.898	1220
274.958	8316
275.018	8083
275.078	5092
275.138	1669
275.198	-453
275.258	458
275.318	674
275.378	304
275.438	1214
275.498	735
275.558	2339
275.618	7962
275.678	5016
275.738	1387
275.798	1065
275.858	71
275.918	-465
275.978	-284
276.038	-471
276.098	-18
276.157	-324
276.217	3785
276.277	629
276.337	219
276.397	-18
276.457	-65
276.517	-180
276.576	-748
276.636	-1013
276.696	-323
276.756	2078
276.815	759
276.875	21
276.935	1008
276.995	261
277.055	-850
277.114	121
277.174	183
277.234	3064
277.293	147
277.353	428
277.413	-173
277.472	-760
277.532	-104
277.592	-377
277.651	2723
277.711	5845
277.771	1482
277.830	6001
277.890	6456
277.950	3642
278.009	14841
278.069	4812
278.128	4556
278.188	6460
278.248	1680
278.307	6368
278.367	3569
278.426	409
278.486	308
278.545	-140
278.605	332
278.664	-23
278.724	251
278.783	1365
278.843	8100
278.902	1624
278.962	-73
279.021	771
279.081	441
279.140	1324
279.199	445
279.259	314
279.318	1144
279.378	410
279.437	1932
279.496	10523
279.556	37028
279.615	32240
279.675	8521
279.734	3591
279.793	5126
279.853	7859
279.912	2767
279.971	1269
280.031	657
280.090	2251
280.149	4899
280.208	4709
280.268	25064
280.327	29559
280.386	5571
280.445	2637
280.505	3372
280.564	1157
280.623	942
280.682	1559
280.742	3082
280.801	155
280.860	-580
280.919	-1056
280.978	-372
281.037	-431
281.097	-484
281.156	-414
281.215	262
281.274	275
281.333	3902
281.392	2894
281.451	368
281.510	-226
281.569	-293
281.628	-550
281.688	-532
281.747	-343
281.806	-689
281.865	-644
281.924	-1125
281.983	-641
282.042	-1593
282.101	-1083
282.160	-839
282.219	-548
282.278	-765
282.337	1173
282.396	386
282.454	-480
282.513	-113
282.572	2117
282.631	1190
282.690	-476
282.749	-521
282.808	-1106
282.867	-877
282.926	-286
282.985	-154
283.043	-722
283.102	-1067
283.161	-1176
283.220	424
283.279	3660
283.338	307
283.396	-640
283.455	-416
283.514	-875
283.573	76
283.631	-108
283.690	-798
283.749	-477
283.808	196
283.866	493
283.925	-610
283.984	-569
284.043	-428
284.101	102
284.160	-273
284.219	397
284.277	764
284.336	401
284.395	4583
284.453	3712
284.512	698
284.570	835
284.629	1309
284.688	584
284.746	196
284.805	456
284.863	336
284.922	2250
284.981	2511
285.039	4517
285.098	8424
285.156	21941
285.215	60717
285.273	62535
285.332	27295
285.390	13498
285.449	7836
285.507	4861
285.566	3408
285.624	2836
285.683	1280
285.741	1216
285.799	911
285.858	206
285.916	149
285.975	322
286.033	-245
286.091	-49
286.150	-450
286.208	-234
286.267	-245
286.325	-437
286.383	462
286.442	-92
286.500	214
286.558	-457
286.616	-344
286.675	231
286.733	-323
286.791	-318
286.850	-128
286.908	-470
286.966	683
287.024	108
287.083	-1035
287.141	-1128
287.199	67
287.257	-77
287.315	175
287.374	-436
287.432	974
287.490	-39
287.548	-604
287.606	291
287.664	396
287.723	63
287.781	101
287.839	123
287.897	134
287.955	-295
288.013	882
288.071	4960
288.129	20091
288.187	63923
288.245	29669
288.303	7076
288.361	3791
288.419	3197
288.477	1751
288.535	150
288.593	97
288.651	-593
288.709	-783
288.767	78
288.825	-366
288.883	-1075
288.941	-1419
288.999	-1159
289.057	-160
289.115	-1061
289.173	-1087
289.231	-272
289.289	5
289.346	-1036
289.404	-896
289.462	63
289.520	-209
289.578	11
289.636	-1318
289.694	-836
289.751	-1005
289.809	-971
289.867	-1292
289.925	-570
289.983	-865
290.040	-807
290.098	-1471
290.156	-818
290.214	-1743
290.271	-843
290.329	-503
290.387	-1708
290.444	-1074
290.502	-2188
290.560	-674
290.617	-1233
290.675	-340
290.733	-1020
290.790	-1167
290.848	-869
290.906	-1025
290.963	-1371
291.021	-1276
291.078	-971
291.136	-666
291.194	659
291.251	4152
291.309	-103
291.366	-557
291.424	-625
291.481	-1452
291.539	-1236
291.596	-937
291.654	-1013
291.711	-1017
291.769	-975
291.826	-604
291.884	-247
291.941	-1366
291.999	-1458
292.056	-1192
292.114	-745
292.171	-735
292.228	-1936
292.286	-637
292.343	-628
292.401	-59
292.458	-425
292.515	-861
292.573	-813
292.630	32
292.687	-1425
292.745	-379
292.802	-693
292.859	2304
292.917	3663
292.974	1459
293.031	-198
293.089	-855
293.146	-1026
293.203	-501
293.260	-1532
293.318	-1331
293.375	-61
293.432	-1275
293.489	-1294
293.546	-1180
293.604	-1091
293.661	2187
293.718	9000
293.775	3729
293.832	544
293.889	-339
293.947	-222
294.004	-880
294.061	-551
294.118	1071
294.175	3814
294.232	5278
294.289	1730
294.346	-40
294.403	285
294.460	-195
294.517	-487
294.574	-115
294.631	-906
294.688	-1207
294.745	981
294.802	9619
294.859	11062
294.916	3207
294.973	742
295.030	334
295.087	219
295.144	531
295.201	-221
295.258	-162
295.315	-358
295.372	2483
295.429	7306
295.486	2547
295.542	71
295.599	2768
295.656	6935
295.713	3389
295.770	6781
295.827	2424
295.883	683
295.940	-250
295.997	564
296.054	755
296.111	605
296.167	1006
296.224	-883
296.281	-574
296.338	-1174
296.394	-387
296.451	-141
296.508	1747
296.564	4083
296.621	3340
296.678	7188
296.734	13941
296.791	4886
296.848	1280
296.904	752
296.961	3674
297.018	6777
297.074	6129
297.131	1870
297.187	739
297.244	1710
297.301	7760
297.357	17025
297.414	5578
297.470	1732
297.527	-57
297.583	-132
297.640	448
297.696	-571
297.753	-985
297.809	-588
297.866	-121
297.922	-673
297.979	-956
298.035	-1054
298.092	656
298.148	2943
298.204	3674
298.261	845
298.317	3111
298.374	10584
298.430	7392
298.486	1293
298.543	788
298.599	44
298.656	370
298.712	1884
298.768	5260
298.824	3754
298.881	620
298.937	-300
298.993	-175
299.050	-760
299.106	-382
299.162	-934
299.218	-238
299.275	-825
299.331	-205
299.387	1277
299.443	8906
299.500	11047
299.556	3330
299.612	844
299.668	101
299.724	-416
299.780	140
299.837	572
299.893	455
299.949	5086
300.005	8168
300.061	6424
300.117	13634
300.173	7272
300.229	1773
300.285	1678
300.341	3000
300.397	941
300.453	382
300.510	-667
300.566	-995
300.622	-495
300.678	875
300.734	4908
300.790	6745
300.845	9146
300.901	5596
300.957	4966
301.013	6118
301.069	1025
301.125	575
301.181	674
301.237	-70
301.293	-335
301.349	-164
301.405	-516
301.461	-641
301.516	-858
301.572	-200
301.628	254
301.684	298
301.740	1123
301.796	3724
301.851	2447
301.907	4322
301.963	6001
302.019	9450
302.074	29437
302.130	32874
302.186	15829
302.242	5260
302.297	3163
302.353	2765
302.409	4792
302.464	4829
302.520	2586
302.576	7774
302.631	11922
302.687	5754
302.743	1562
302.798	406
302.854	199
302.910	32
302.965	81
303.021	1854
303.076	1933
303.132	1613
303.187	3409
303.243	1607
303.299	575
303.354	81
303.410	-665
303.465	-449
303.521	-1395
303.576	246
303.632	588
303.687	1812
303.743	8361
303.798	8582
303.853	2817
303.909	372
303.964	-318
304.020	900
304.075	2051
304.130	1682
304.186	3005
304.241	5223
304.297	3987
304.352	1282
304.358	1123
304.407	-172
304.449	210
304.463	341
304.518	181
304.539	131
304.573	43
304.629	198
304.630	226
304.684	1556
304.720	4462
304.739	5892
304.794	12190
304.811	10736
304.850	7063
304.902	2349
304.905	2058
304.960	1215
304.992	973
305.015	784
305.071	879
305.083	853
305.126	714
305.173	111
305.181	16
305.236	-764
305.264	-186
305.292	436
305.347	604
305.354	502
305.402	-102
305.445	712
305.457	927
305.512	947
305.535	1223
305.567	1566
305.622	1503
305.626	1594
305.678	4288
305.716	8028
305.733	9089
305.788	13109
305.807	11611
305.843	9499
305.897	10027
305.898	10012
305.953	12436
305.988	8471
306.008	6312
306.063	2570
306.078	2042
306.118	1050
306.168	476
306.173	441
306.228	306
306.259	451
306.283	583
306.338	146
306.349	246
306.393	611
306.440	804
306.448	840
306.503	1105
306.530	1101
306.558	1780
306.613	5383
306.620	5889
306.668	9012
306.711	11402
306.723	11340
306.778	9496
306.801	7233
306.833	5016
306.888	2431
306.892	2274
306.943	788
306.982	1271
306.997	1562
307.052	792
307.072	908
307.107	1353
307.162	1904
307.163	1916
307.217	3785
307.253	4790
307.272	4913
307.327	5206
307.343	4900
307.381	4184
307.434	3519
307.436	3662
307.491	7914
307.524	11498
307.546	11866
307.600	11878
307.614	10714
307.655	7041
307.704	3001
307.710	2869
307.765	3580
307.795	4409
307.819	5495
307.874	10041
307.885	10530
307.929	9214
307.975	5787
307.984	5738
308.038	7208
308.065	9149
308.093	17758
308.148	37648
308.156	41909
308.202	63212
308.246	82460
308.257	80775
308.312	46338
308.336	31095
308.366	22480
308.421	14738
308.426	13941
308.475	8812
308.517	5956
308.530	5437
308.585	4573
308.607	4271
308.639	4543
308.694	4993
308.697	5067
308.748	9707
308.787	14060
308.803	13676
308.857	11440
308.877	9675
308.912	8059
308.967	5908
308.967	5891
309.021	8713
309.058	11027
309.076	14214
309.130	25533
309.148	30082
309.185	57352
309.238	102220
309.239	102532
309.293	112734
309.328	105188
309.348	91344
309.402	44635
309.418	32756
309.457	23097
309.508	13671
309.511	13407
309.566	11469
309.598	11036
309.620	12545
309.674	17139
309.688	18607
309.729	17592
309.778	14417
309.783	14151
309.837	10679
309.868	8701
309.892	10091
309.946	14532
309.959	15879
310.001	19855
310.049	24220
310.055	23476
310.109	14505
310.139	8843
310.163	6706
310.218	3321
310.229	2771
310.272	2774
310.319	2816
310.326	2721
310.381	2346
310.409	2024
310.435	1966
310.489	2011
310.499	2035
310.543	2580
310.589	2996
310.598	2932
310.652	2568
310.679	2386
310.706	2261
310.760	2032
310.769	1960
310.814	1231
310.859	613
310.868	699
310.923	1220
310.948	1428
310.977	1508
311.031	1853
311.038	1872
311.085	1839
311.128	1789
311.139	1802
311.193	1806
311.218	1857
311.247	2021
311.301	2181
311.308	2201
311.356	1841
311.398	1490
311.410	1504
311.464	1527
311.488	1540
311.518	1503
311.572	1419
311.578	1400
311.626	2413
311.668	3374
311.680	3370
311.734	3185
311.758	3140
311.788	3014
311.842	2716
311.847	2676
311.896	3975
311.937	5152
311.950	5003
312.004	4261
312.027	3928
312.058	3342
312.112	2275
312.117	2170
312.165	2227
312.207	2279
312.297	2783
312.386	2278
312.476	1808
312.566	5805
312.656	2446
312.745	1476
312.835	1985
312.925	2596
313.015	2222
313.104	2559
313.194	1247
313.284	1767
313.374	2094
313.463	1908
313.553	1287
313.643	995
313.732	1321
313.822	1439
313.912	1938
314.001	1443
314.091	2333
314.180	3752
314.270	3106
314.360	4053
314.449	3030
314.539	1283
314.628	1823
314.718	2011
314.808	2789
314.897	1445
314.987	1379
315.076	1153
315.166	2716
315.255	3380
315.345	2706
315.434	3230
315.524	2853
315.613	2866
315.703	3788
315.792	3767
315.881	9248
315.971	4087
316.060	6225
316.150	9527
316.239	9380
316.328	3565
316.418	1493
316.507	2454
316.597	2311
316.686	1938
316.775	4089
316.865	11505
316.954	2199
317.043	1263
317.133	1310
317.222	1334
317.311	1422
317.400	447
317.490	3086
317.579	2703
317.668	1339
317.757	3133
317.847	5745
317.936	15830
318.025	8523
318.114	3870
318.203	3214
318.293	4233
318.382	7747
318.471	7509
318.560	10121
318.649	23724
318.738	5126
318.828	3439
318.917	3944
319.006	5471
319.095	11986
319.184	30716
319.273	15498
319.362	7662
319.451	3247
319.540	2638
319.629	6349
319.718	9794
319.807	5581
319.896	10534
319.985	37137
320.074	12414
320.163	3551
320.252	6193
320.341	6196
320.430	3992
320.519	4471
320.608	3202
320.697	2514
320.786	2185
320.875	2667
320.964	4636
321.053	6548
321.142	9731
321.230	9402
321.319	7551
321.408	17860
321.497	7511
321.586	7338
321.675	10368
321.764	9878
321.852	6860
321.941	10248
322.030	6324
322.119	8408
322.207	18315
322.296	14751
322.385	6430
322.474	7079
322.562	21447
322.651	11261
322.740	8411
322.829	11370
322.917	14111
323.006	7658
323.095	5703
323.183	4917
323.272	7764
323.361	13656
323.449	43328
323.538	14636
323.626	28467
323.715	17836
323.804	8683
323.892	27455
323.981	13983
324.069	5395
324.158	15608
324.246	14048
324.335	4053
324.424	5789
324.512	2737
324.601	2934
324.689	4253
324.778	5898
324.866	8967
324.954	2440
325.043	3230
325.131	5693
325.220	12479
325.308	12938
325.397	10088
325.485	5131
325.574	1466
325.662	1547
325.750	1448
325.839	1007
325.927	1414
326.015	2441
326.104	4966
326.192	6934
326.280	1651
326.369	1318
326.457	1848
326.545	4940
326.634	1439
326.722	402
326.810	608
326.898	1020
326.987	1707
327.075	4053
327.163	6188
327.251	2077
327.340	1784
327.428	2427
327.516	1503
327.604	1436
327.692	2028
327.781	2440
327.869	4446
327.957	2148
328.045	2306
328.133	1637
328.221	2281
328.309	1633
328.397	1307
328.485	2118
328.574	3092
328.662	10425
328.750	6341
328.838	2126
328.926	1162
329.014	462
329.102	2819
329.190	6541
329.278	4390
329.366	1418
329.454	945
329.542	583
329.630	936
329.718	976
329.806	1683
329.893	1511
329.981	1101
330.069	1214
330.157	6232
330.245	15596
330.333	7351
330.421	1600
330.509	2856
330.597	12879
330.684	8428
330.772	3091
330.860	4510
330.948	5566
331.036	2076
331.123	414
331.211	781
331.299	2230
331.387	6077
331.475	9504
331.562	2935
331.650	1968
331.738	1097
331.825	2676
331.913	1036
332.001	310
332.089	3046
332.176	5584
332.264	14682
332.352	9807
332.439	2869
332.527	1635
332.614	1739
332.702	2872
332.790	1728
332.877	6099
332.965	13084
333.052	2849
333.140	2914
333.228	7959
333.315	1884
333.403	2144
333.490	8292
333.578	6242
333.665	8478
333.753	4926
333.840	1499
333.928	2326
334.015	9551
334.103	12679
334.190	40663
334.278	9002
334.365	3428
334.452	1756
334.540	1387
334.627	1996
334.715	4260
334.802	10503
334.889	51837
334.977	45862
335.064	4992
335.151	2040
335.239	2022
335.326	3725
335.413	18872
335.501	24221
335.588	2583
335.675	1701
335.762	2466
335.850	4837
335.937	3526
336.024	12147
336.111	49556
336.199	17790
336.286	2922
336.373	468
336.460	1526
336.547	869
336.635	1797
336.722	825
336.809	1498
336.896	3463
336.983	12466
337.070	28026
337.157	40475
337.245	34164
337.332	22925
337.419	2214
337.506	1621
337.593	2694
337.680	9800
337.767	27035
337.854	7648
337.941	8104
338.028	11446
338.115	4093
338.202	4810
338.289	9129
338.376	32011
338.463	10236
338.550	15876
338.637	15960
338.724	6836
338.811	9713
338.898	2480
338.984	651
339.071	1457
339.158	2235
339.245	5636
339.332	3990
339.419	6328
339.506	5912
339.593	711
339.679	1421
339.766	945
339.853	1931
339.940	4624
340.027	1652
340.113	1209
340.200	1980
340.287	1449
340.374	2173
340.460	4116
340.547	1426
340.634	3533
340.720	13210
340.807	6687
340.894	888
340.980	1777
341.067	378
341.154	2186
341.240	2500
341.327	5442
341.414	2063
341.500	1508
341.587	2024
341.674	1348
341.760	3977
341.847	4192
341.933	680
342.020	291
342.106	901
342.193	2412
342.279	3111
342.366	2941
342.452	3830
342.539	2167
342.625	5451
342.712	13204
342.798	5396
342.885	1782
342.971	116
343.058	-655
343.144	794
343.230	839
343.317	-148
343.403	-203
343.490	861
343.576	552
343.662	224
343.749	1313
343.835	1679
343.921	5399
344.008	31658
344.094	66397
344.180	14241
344.267	5217
344.353	17429
344.439	18587
344.525	6423
344.612	3903
344.698	3358
344.784	1476
344.870	213
344.957	1170
345.043	2545
345.129	1194
345.215	3706
345.301	1182
345.387	1097
345.474	661
345.560	926
345.646	465
345.732	1360
345.818	1458
345.904	1070
345.990	1753
346.076	757
346.162	4336
346.249	2095
346.335	865
346.421	1587
346.507	7125
346.593	24912
346.679	4904
346.765	1379
346.851	1417
346.937	-420
347.023	1494
347.108	781
347.194	832
347.280	1572
347.366	2014
347.452	7481
347.538	29885
347.624	21858
347.710	16643
347.796	3118
347.882	1006
347.967	1020
348.053	2087
348.139	1563
348.225	853
348.311	162
348.397	411
348.482	1670
348.568	1834
348.654	151
348.740	392
348.825	-1061
348.911	3120
348.997	14059
349.083	27911
349.168	4041
349.254	1780
349.340	1276
349.425	766
349.511	1903
349.597	2123
349.682	4234
349.768	16109
349.854	6118
349.939	1380
350.025	740
350.110	752
350.196	46
350.282	-221
350.367	752
350.453	2385
350.538	2303
350.624	441
350.709	2052
350.795	326
350.880	-76
350.966	1949
351.051	2664
351.137	1928
351.222	998
351.308	5066
351.393	13240
351.479	2988
351.564	679
351.649	1401
351.735	410
351.820	863
351.906	786
351.991	1087
352.076	8425
352.162	12616
352.247	2395
352.332	1660
352.418	2809
352.503	4786
352.588	20874
352.673	14436
352.759	3130
352.844	842
352.929	935
353.014	2071
353.100	1498
353.185	2425
353.270	4055
353.355	5221
353.441	750
353.526	1148
353.611	4707
353.696	4443
353.781	2880
353.866	1410
353.952	1585
354.037	3783
354.122	9641
354.207	8466
354.292	2054
354.377	1082
354.462	847
354.547	1530
354.632	2193
354.717	2393
354.802	418
354.887	204
354.972	625
355.057	497
355.142	-899
355.227	1510
355.312	2476
355.397	5988
355.482	15679
355.567	6428
355.652	5341
355.737	5068
355.822	18659
355.907	13526
355.991	3134
356.076	1092
356.161	36
356.246	644
356.331	2072
356.416	4171
356.501	33912
356.585	31085
356.670	4001
356.755	3140
356.840	4377
356.924	21808
357.009	76908
357.094	27324
357.179	5018
357.263	3638
357.348	3714
357.433	2921
357.517	2358
357.602	1982
357.687	822
357.771	2206
357.856	4605
357.941	4592
358.025	18961
358.110	77897
358.195	33559
358.279	4872
358.364	3413
358.448	13028
358.533	35739
358.617	23521
358.702	24441
358.787	8456
358.871	4459
358.956	3180
359.040	-45
359.125	237
359.209	691
359.294	1868
359.378	3131
359.462	3359
359.547	1818
359.631	677
359.716	-144
359.800	1011
359.885	2748
359.969	303
360.053	1118
360.138	418
360.222	1603
360.306	3820
360.391	2512
360.475	5481
360.559	10164
360.644	12872
360.728	8211
360.812	19104
360.896	48190
360.981	19045
361.065	7732
361.149	2558
361.233	1717
361.318	1843
361.402	1977
361.486	2911
361.570	-236
361.654	1800
361.739	5892
361.823	31992
361.907	48250
361.991	7047
362.075	4097
362.159	7537
362.243	5993
362.327	4105
362.411	5191
362.495	3171
362.580	1089
362.664	1087
362.748	-405
362.832	1405
362.916	613
363.000	8809
363.084	32271
363.168	53210
363.252	11288
363.336	4071
363.420	6260
363.503	27388
363.587	28250
363.671	4677
363.755	2429
363.839	5088
363.923	294
364.007	4724
364.091	4841
364.175	8155
364.258	42289
364.342	19201
364.426	12931
364.510	5847
364.594	6297
364.677	9179
364.761	42309
364.845	28297
364.929	8641
365.013	5804
365.096	5196
365.180	5905
365.264	11477
365.347	43305
365.431	17406
365.515	3646
365.598	1152
365.682	2025
365.766	2446
365.849	4424
365.933	1368
366.017	4282
366.100	1696
366.184	-131
366.267	1365
366.351	797
366.435	-165
366.518	371
366.602	639
366.685	465
366.769	545
366.852	3858
366.936	5392
367.019	2273
367.103	1062
367.186	5824
367.270	1104
367.353	304
367.436	1640
367.520	98
367.603	1431
367.687	1245
367.770	4610
367.853	3297
367.937	12155
368.020	19718
368.104	3820
368.187	4372
368.270	5323
368.353	4935
368.437	8777
368.520	22775
368.603	10703
368.687	13840
368.770	24248
368.853	5187
368.936	6525
369.020	6239
369.103	1288
369.186	169
369.269	319
369.352	3869
369.436	4966
369.519	2908
369.602	-335
369.685	2753
369.768	469
369.851	825
369.934	26
370.018	1456
370.101	3296
370.184	4492
370.267	2498
370.350	4457
370.433	6683
370.516	21700
370.599	24264
370.682	5885
370.765	13494
370.848	16824
370.931	31520
371.014	12203
371.097	805
371.180	2086
371.263	1228
371.346	-336
371.429	987
371.511	420
371.594	2464
371.677	5923
371.760	6836
371.843	4560
371.926	28880
372.009	61553
372.091	18989
372.174	12456
372.257	31234
372.340	10371
372.423	8364
372.505	10773
372.588	3415
372.671	10237
372.754	30956
372.836	14336
372.919	14470
373.002	23943
373.085	5422
373.167	4924
373.250	13202
373.332	31221
373.415	44181
373.498	83947
373.580	28899
373.663	40623
373.746	51380
373.828	10716
373.911	5100
373.993	5241
374.076	23816
374.159	20857
374.241	9157
374.324	26016
374.406	16445
374.489	24932
374.571	70346
374.654	26762
374.736	14388
374.819	44330
374.901	63447
374.983	60749
375.066	9380
375.148	4506
375.231	19808
375.313	37302
375.395	11263
375.478	3143
375.560	1744
375.643	2896
375.725	13200
375.807	55364
375.890	44771
375.972	19022
376.054	10509
376.136	18549
376.219	7239
376.301	16610
376.383	44513
376.465	14886
376.548	7855
376.630	12891
376.712	37384
376.794	16350
376.877	2705
376.959	350
377.041	1098
377.123	4499
377.205	4720
377.287	390
377.369	861
377.452	98
377.534	460
377.616	741
377.698	262
377.780	-37
377.862	870
377.944	1777
378.026	-240
378.108	778
378.190	723
378.272	708
378.354	-52
378.436	-449
378.518	1883
378.600	9882
378.682	7763
378.764	17255
378.846	12921
378.928	3187
379.010	4171
379.091	3573
379.173	1181
379.255	147
379.337	1299
379.419	9601
379.501	26549
379.583	9262
379.664	2212
379.746	5064
379.828	17864
379.910	22993
379.991	19563
380.073	3077
380.155	1755
380.237	1363
380.318	860
380.400	567
380.482	3893
380.564	5495
380.645	3254
380.727	4037
380.809	3523
380.890	1457
380.972	-5
381.053	823
381.135	2643
381.217	5087
381.298	17027
381.380	6856
381.461	8480
381.543	39236
381.624	42913
381.706	7540
381.787	3418
381.869	3866
381.951	16705
382.032	65043
382.113	37908
382.195	6365
382.276	5663
382.358	10836
382.439	33924
382.521	39523
382.602	61277
382.684	27116
382.765	48221
382.846	48183
382.928	64839
383.009	33617
383.090	27939
383.172	96864
383.253	135580
383.334	48318
383.416	53858
383.497	25645
383.578	11585
383.659	24280
383.741	86658
383.822	204454
383.903	97955
383.984	38421
384.066	62093
384.147	34829
384.228	7528
384.309	5165
384.390	4096
384.471	2545
384.553	2881
384.634	5477
384.715	4142
384.796	2099
384.877	3379
384.958	16530
385.039	17144
385.120	5216
385.201	2947
385.282	4458
385.363	4656
385.444	3139
385.525	6388
385.606	27168
385.687	21704
385.768	5620
385.849	5516
385.930	31871
386.011	51326
386.092	11689
386.173	1764
386.254	2702
386.335	2273
386.416	2274
386.496	10576
386.577	17069
386.658	5789
386.739	2859
386.820	4860
386.901	1890
386.981	2042
387.062	1681
387.143	3911
387.224	17251
387.304	14823
387.385	5515
387.466	1256
387.547	4427
387.627	1545
387.708	7168
387.789	31653
387.869	37008
387.950	9744
388.031	1419
388.111	-453
388.192	7287
388.273	10183
388.353	4657
388.434	2380
388.514	6156
388.595	32814
388.676	38014
388.756	16636
388.837	15166
388.917	8422
388.998	1040
389.078	1595
389.159	1465
389.239	-44
389.320	4343
389.400	167
389.480	8121
389.561	18595
389.641	9152
389.722	3301
389.802	4207
389.883	8278
389.963	23032
390.043	14751
390.124	3649
390.204	6986
390.284	19448
390.365	10638
390.445	17631
390.525	40389
390.605	32531
390.686	8523
390.766	3479
390.846	1978
390.927	732
391.007	581
391.087	1733
391.167	1665
391.247	172
391.328	4089
391.408	6368
391.488	3295
391.568	-517
391.648	1369
391.728	3360
391.808	3451
391.888	3238
391.969	9671
392.049	15574
392.129	6894
392.209	7872
392.289	21350
392.369	11068
392.449	9807
392.529	4615
392.609	4608
392.689	5684
392.769	19969
392.849	17036
392.929	13256
393.009	30516
393.089	17731
393.169	11418
393.248	36668
393.328	176921
393.408	179136
393.488	36770
393.568	9323
393.648	4958
393.728	2696
393.807	1592
393.887	3181
393.967	2570
394.047	3103
394.127	3627
394.206	8604
394.286	35520
394.366	151819
394.446	153550
394.525	31399
394.605	7125
394.685	6295
394.764	16158
394.844	26054
394.924	17825
395.003	5293
395.083	3739
395.163	2707
395.242	1673
395.322	2443
395.402	1097
395.481	3771
395.561	10198
395.640	28696
395.720	19353
395.799	31008
395.879	22817
395.958	13679
396.038	50226
396.117	197567
396.197	203261
396.276	55710
396.356	17361
396.435	11336
396.515	6534
396.594	6160
396.673	12135
396.753	47398
396.832	164232
396.912	115219
396.991	24965
397.070	5825
397.150	2339
397.229	2511
397.308	1838
397.388	3084
397.467	2669
397.546	1307
397.625	-574
397.705	2489
397.784	1897
397.863	51
397.942	165
398.022	603
398.101	8149
398.180	26956
398.259	12225
398.338	3348
398.417	1568
398.497	205
398.576	1469
398.655	13
398.734	654
398.813	1206
398.892	9801
398.971	30661
399.050	11934
399.129	384
399.208	1445
399.287	1368
399.366	71
399.445	267
399.524	897
399.603	-20
399.682	2745
399.761	7649
399.840	31385
399.919	23040
399.998	2371
400.077	-134
400.156	-829
400.235	2667
400.313	552
400.392	810
400.471	8952
400.550	13704
400.629	2649
400.708	750
400.786	1161
400.865	4828
400.944	4855
401.023	3197
401.102	370
401.180	-99
401.259	1028
401.338	332
401.416	1573
401.495	-81
401.574	1246
401.652	-504
401.731	2043
401.810	-774
401.888	332
401.967	-535
402.046	-291
402.124	1546
402.203	1176
402.281	1543
402.360	1846
402.438	7311
402.517	4360
402.596	1268
402.674	122
402.753	227
402.831	1007
402.910	887
402.988	2500
403.066	8191
403.145	6115
403.223	3366
403.302	6225
403.380	4222
403.459	4037
403.537	1075
403.615	-205
403.694	-1101
403.772	544
403.850	-333
403.929	4
404.007	-817
404.085	2227
404.164	-262
404.242	1432
404.320	5573
404.398	16792
404.477	19162
404.555	49156
404.633	41588
404.711	13676
404.789	6101
404.868	1039
404.946	-603
405.024	-157
405.102	-112
405.180	-386
405.258	-1177
405.336	390
405.415	-331
405.493	2086
405.571	657
405.649	34
405.727	-1444
405.805	1445
405.883	199
405.961	1240
406.039	1693
406.117	-121
406.195	1567
406.273	10420
406.351	39727
406.429	20873
406.507	2794
406.585	-44
406.663	946
406.740	1621
406.818	68
406.896	86
406.974	1117
407.052	2767
407.130	22534
407.208	30068
407.285	5942
407.363	226
407.441	81
407.519	227
407.596	1252
407.674	5309
407.752	18467
407.830	16887
407.907	4256
407.985	-386
408.063	-309
408.141	-191
408.218	1931
408.296	364
408.373	-752
408.451	914
408.529	-273
408.606	-439
408.684	259
408.762	16
408.839	-353
408.917	-1252
408.994	156
409.072	-1849
409.149	-1614
409.227	158
409.304	-211
409.382	-209
409.459	-343
409.537	850
409.614	-336
409.692	-120
409.769	-703
409.846	-284
409.924	1148
410.001	-970
410.079	-234
410.156	804
410.233	268
410.311	-568
410.388	-1520
410.465	72
410.543	-863
410.620	310
410.697	-401
410.775	853
410.852	-2137
410.929	787
411.006	1509
411.083	-136
411.161	896
411.238	2210
411.315	282
411.392	-234
411.469	776
411.547	695
411.624	-1201
411.701	-160
411.778	379
411.855	2081
411.932	15
412.009	-887
412.086	-163
412.163	47
412.240	710
412.317	2463
412.394	494
412.471	59
412.548	-652
412.625	503
412.702	565
412.779	1872
412.856	184
412.933	-1368
413.010	-783
413.087	1431
413.164	8375
413.241	10434
413.318	1226
413.395	1471
413.471	1739
413.548	439
413.625	204
413.702	-69
413.779	853
413.855	-739
413.932	-524
414.009	-1729
414.086	-1024
414.162	-362
414.239	1094
414.316	7786
414.393	18129
414.469	4891
414.546	-208
414.623	-438
414.699	316
414.776	-728
414.853	-1030
414.929	328
415.006	6
415.082	559
415.159	224
415.236	150
415.312	798
415.389	1149
415.465	2193
415.542	366
415.618	-896
415.695	1623
415.771	-612
415.848	297
415.924	-114
416.000	21
416.077	1206
416.153	-1388
416.230	-1957
416.306	116
416.383	-908
416.459	-83
416.535	-513
416.612	-383
416.688	-679
416.764	-462
416.841	-897
416.917	-1065
416.993	-368
417.069	200
417.146	774
417.222	1775
417.298	246
417.374	-63
417.451	-1069
417.527	-92
417.603	-378
417.679	-498
417.755	-112
417.831	-857
417.908	-191
417.984	-545
418.060	-1449
418.136	1621
418.212	1732
418.288	124
418.364	-105
418.440	-820
418.516	957
418.592	1669
418.668	3283
418.744	5160
418.820	2730
418.896	462
418.972	-1223
419.048	-300
419.124	2639
419.200	267
419.276	-504
419.352	-1182
419.428	-933
419.504	-24
419.579	-404
419.655	102
419.731	205
419.807	3025
419.883	5730
419.959	3144
420.034	393
420.110	1569
420.186	10594
420.262	7699
420.337	476
420.413	494
420.489	-520
420.565	-388
420.640	-1022
420.716	-477
420.792	-1840
420.867	603
420.943	-851
421.019	1030
421.094	-243
421.170	-161
421.245	-1199
421.321	-544
421.397	-1070
421.472	2314
421.548	8185
421.623	4586
421.699	-59
421.774	448
421.850	-479
421.925	335
422.001	1058
422.076	-445
422.152	82
422.227	1625
422.302	1413
422.378	2694
422.453	4425
422.529	14598
422.604	61851
422.679	125323
422.755	64669
422.830	15729
422.905	4420
422.981	1598
423.056	304
423.131	924
423.207	-352
423.282	201
423.357	2740
423.432	1386
423.508	1458
423.583	4459
423.658	2663
423.733	463
423.808	426
423.883	1118
423.959	-119
424.034	-639
424.109	-873
424.184	-1292
424.259	-688
424.334	-1027
424.409	-876
424.484	-565
424.559	-32
424.634	-724
424.709	190
424.784	997
424.859	47
424.934	1698
425.009	7645
425.084	11703
425.159	3696
425.234	486
425.309	-1090
425.384	596
425.459	-954
425.534	-448
425.609	-545
425.683	-872
425.758	-1130
425.833	-716
425.908	700
425.983	4413
426.058	13225
426.132	4548
426.207	214
426.282	2893
426.357	682
426.431	382
426.506	-250
426.581	-115
426.655	-717
426.730	-437
426.805	-841
426.879	-238
426.954	-360
427.029	1057
427.103	13689
427.178	34495
427.253	12938
427.327	779
427.402	669
427.476	2714
427.551	189
427.625	400
427.700	-304
427.774	-1235
427.849	626
427.923	-747
427.998	285
428.072	-201
428.147	1224
428.221	6412
428.296	16624
428.370	6610
428.444	265
428.519	1848
428.593	5860
428.667	4723
428.742	5644
428.816	5048
428.890	14378
428.965	17051
429.039	7339
429.113	6523
429.188	759
429.262	-264
429.336	1079
429.410	5729
429.485	4033
429.559	5400
429.633	4055
429.707	858
429.781	2770
429.855	18298
429.930	24756
430.004	18611
430.078	31406
430.152	23263
430.226	27399
430.300	25413
430.374	2213
430.448	785
430.522	9796
430.596	29454
430.670	16012
430.744	28144
430.818	40599
430.892	8432
430.966	515
431.040	1001
431.114	-1954
431.188	-1208
431.262	-1093
431.336	-854
431.410	2389
431.484	7242
431.557	4143
431.631	-256
431.705	-473
431.779	1828
431.853	14117
431.927	9544
432.000	95
432.074	191
432.148	-50
432.222	252
432.295	-578
432.369	-1135
432.443	952
432.516	14673
432.590	35444
432.664	12125
432.737	667
432.811	-1296
432.885	-1133
432.958	-643
433.032	-1340
433.106	-1288
433.179	-1420
433.253	-776
433.326	-660
433.400	-310
433.473	-856
433.547	-1392
433.620	-800
433.694	-231
433.767	511
433.841	-910
433.914	-870
433.988	-918
434.061	-1565
434.134	-1046
434.208	-1778
434.281	-1318
434.355	-1393
434.428	-739
434.501	-1643
434.575	-1123
434.648	-1435
434.721	-880
434.795	-1710
434.868	-1069
434.941	-1633
435.014	-1535
435.088	-867
435.161	-431
435.234	-503
435.307	-566
435.381	-690
435.454	-347
435.527	-610
435.600	138
435.673	-566
435.746	-1101
435.819	-945
435.892	-472
435.966	-1276
436.039	-1952
436.112	-648
436.185	-883
436.258	-2121
436.331	-2006
436.404	-1086
436.477	-939
436.550	-978
436.623	-836
436.696	-1713
436.769	-985
436.842	-539
436.915	-2
436.987	58
437.060	-525
437.133	-1191
437.206	-1827
437.279	-892
437.352	-530
437.425	-854
437.498	-923
437.570	582
437.643	594
437.716	-725
437.789	-1806
437.861	78
437.934	2779
438.007	850
438.080	-591
438.152	-421
438.225	2139
438.298	20457
438.370	55478
438.443	22044
438.516	3690
438.588	-108
438.661	-1053
438.734	-452
438.806	-816
438.879	210
438.951	350
439.024	906
439.096	-266
439.169	-641
439.241	-653
439.314	-885
439.386	-299
439.459	829
439.531	1571
439.604	-169
439.676	-138
439.749	-1011
439.821	-1388
439.893	-1257
439.966	-864
440.038	-834
440.110	-360
440.183	-1135
440.255	-770
440.327	569
440.400	8001
440.472	35004
440.544	23285
440.617	2015
440.689	1251
440.761	1372
440.833	2536
440.905	852
440.978	-327
441.050	-1021
441.122	-399
441.194	-1355
441.266	-630
441.338	-1097
441.411	578
441.483	10164
441.555	14306
441.627	2937
441.699	1324
441.771	586
441.843	-817
441.915	-708
441.987	-745
442.059	-931
442.131	-537
442.203	383
442.275	1366
442.347	1538
442.419	236
442.491	5922
442.563	15130
442.635	8738
442.706	9202
442.778	6041
442.850	1002
442.922	-1159
442.994	382
443.066	657
443.137	-156
443.209	-496
443.281	455
443.353	2395
443.425	9465
443.496	31023
443.568	30726
443.640	10427
443.711	1912
443.783	-313
443.855	-622
443.926	-1334
443.998	-530
444.070	769
444.141	83
444.213	793
444.285	2211
444.356	1170
444.428	829
444.499	-336
444.571	-414
444.642	-782
444.714	-1022
444.785	981
444.857	2493
444.928	6432
445.000	3080
445.071	3637
445.143	4478
445.214	1035
445.285	3656
445.357	13158
445.428	28272
445.500	60097
445.571	40964
445.642	17536
445.714	10622
445.785	11772
445.856	2263
445.928	1650
445.999	917
446.070	370
446.141	571
446.213	656
446.284	41
446.355	594
446.426	-204
446.497	-589
446.569	904
446.640	3255
446.711	1417
446.782	-542
446.853	898
446.924	501
446.995	-362
447.066	-310
447.138	2111
447.209	1687
447.280	-1832
447.351	-1035
447.422	-1608
447.493	-259
447.564	482
447.635	868
447.706	208
447.777	-880
447.847	-738
447.918	-1286
447.989	205
448.060	1361
448.131	4725
448.202	4254
448.273	1351
448.344	823
448.414	-638
448.485	-701
448.556	-203
448.627	-967
448.698	-41
448.768	-1810
448.839	-281
448.910	1283
448.981	1846
449.051	-414
449.122	-844
449.193	-1511
449.263	-1044
449.334	-615
449.405	407
449.475	1339
449.546	1668
449.616	1804
449.687	1818
449.758	-316
449.828	-623
449.899	-1179
449.969	-1249
450.040	-1199
450.110	31
450.181	-678
450.251	-739
450.322	-422
450.392	-81
450.463	-3
450.533	-1601
450.604	-1002
450.674	-338
450.744	-466
450.815	-1135
450.885	-1000
450.955	-403
451.026	-1450
451.096	-706
451.166	-608
451.237	3216
451.307	8177
451.377	3794
451.447	-916
451.518	-222
451.588	-697
451.658	-521
451.728	1648
451.799	10365
451.869	11992
451.939	2382
452.009	-747
452.079	-666
452.149	-90
452.219	2108
452.289	12428
452.360	10094
452.430	517
452.500	-440
452.570	484
452.640	1917
452.710	6592
452.780	11027
452.850	8094
452.920	5989
452.990	1175
453.060	476
453.129	1124
453.199	2094
453.269	14227
453.339	32488
453.409	50796
453.479	46837
453.549	71669
453.619	72895
453.688	30889
453.758	4564
453.828	359
453.898	723
453.968	-592
454.037	255
454.087	-229
454.107	-433
454.168	-466
454.177	-478
454.247	-724
454.249	-711
454.316	-644
454.330	-355
454.386	719
454.411	2689
454.456	5972
454.492	7060
454.525	8048
454.574	3933
454.595	2154
454.655	308
454.665	18
454.734	552
454.736	592
454.804	1451
454.817	3285
454.873	10801
454.898	11658
454.943	13162
454.979	8561
455.013	4411
455.060	1415
455.082	127
455.141	1401
455.152	1616
455.221	7625
455.222	7744
455.291	16674
455.303	16459
455.360	15100
455.384	19789
455.430	27978
455.465	22457
455.499	17352
455.546	13462
455.569	11527
455.627	7370
455.638	6656
455.707	946
455.708	948
455.777	178
455.789	216
455.846	168
455.869	120
455.916	83
455.950	-100
455.985	-294
456.031	-213
456.054	-215
456.112	13
456.124	100
456.193	-726
456.193	-744
456.262	423
456.274	616
456.332	1424
456.355	1154
456.401	716
456.436	585
456.470	420
456.516	-230
456.540	-594
456.597	-678
456.609	-691
456.678	-95
456.678	-100
456.747	-774
456.759	-719
456.817	-323
456.840	-430
456.886	-708
456.920	-505
456.955	-339
457.001	-319
457.024	-257
457.082	386
457.093	496
457.162	1394
457.163	1404
457.232	2078
457.243	1884
457.301	631
457.324	251
457.370	-159
457.405	-193
457.439	-231
457.485	37
457.508	114
457.566	-88
457.577	-113
457.646	431
457.647	431
457.715	-91
457.727	93
457.784	1066
457.808	1520
457.853	2282
457.889	2872
457.922	3138
457.969	2479
457.991	2269
458.050	1997
458.060	2029
458.129	3730
458.130	3778
458.198	4565
458.211	4188
458.267	2417
458.292	1625
458.336	579
458.372	195
458.405	233
458.453	1069
458.474	1438
458.533	3000
458.543	3245
458.611	6646
458.614	6704
458.680	5691
458.694	4876
458.749	2537
458.775	1769
458.818	748
458.855	549
458.887	517
458.936	434
458.955	205
459.016	10
459.024	96
459.093	1057
459.097	1055
459.162	597
459.177	589
459.230	559
459.257	835
459.299	1158
459.338	1153
459.368	1135
459.418	1098
459.437	935
459.499	373
459.505	377
459.574	675
459.579	660
459.643	676
459.659	844
459.711	1029
459.740	910
459.780	759
459.820	917
459.849	991
459.900	1013
459.917	1119
459.981	1647
459.986	1637
460.054	1088
460.061	1023
460.123	850
460.141	1022
460.191	1474
460.222	1540
460.260	1551
460.302	1527
460.328	1443
460.382	1533
460.397	1517
460.462	1042
460.465	1093
460.534	2921
460.543	3040
460.602	7597
460.623	9905
460.671	15595
460.703	22676
460.739	24106
460.783	21120
460.808	18879
460.864	5528
460.876	3920
460.944	1557
460.945	1526
461.013	1113
461.024	1050
461.081	1031
461.104	1151
461.150	1148
461.184	1009
461.218	1139
461.264	866
461.286	771
461.345	1527
461.355	1577
461.423	1520
461.425	1507
461.491	1496
461.505	1658
461.559	2895
461.585	3315
461.628	4903
461.665	7263
461.696	8368
461.745	11808
461.764	11574
461.825	5235
461.832	5049
461.901	1940
461.905	1986
461.969	1456
461.985	1154
462.037	1469
462.065	1874
462.105	1800
462.145	1713
462.173	2492
462.225	3915
462.241	4207
462.305	7137
462.310	7091
462.378	5193
462.385	4687
462.446	2411
462.465	1955
462.514	1642
462.545	2008
462.582	1922
462.625	1452
462.650	1320
462.705	1144
462.718	1206
462.785	1896
462.786	1919
462.854	3329
462.865	3541
462.922	3627
462.945	3773
462.990	3659
463.025	2873
463.058	2235
463.104	1614
463.126	1465
463.184	1245
463.194	1332
463.262	2023
463.264	2051
463.330	2143
463.344	2152
463.398	2398
463.424	2267
463.466	1775
463.504	2118
463.533	2600
463.583	2276
463.601	2201
463.663	2567
463.669	2605
463.737	3043
463.743	3093
463.805	5218
463.823	5817
463.873	7546
463.903	9021
463.940	9934
463.982	11284
464.008	10154
464.062	5563
464.076	5184
464.142	2808
464.144	2752
464.211	2063
464.221	1944
464.279	1580
464.301	1588
464.347	2149
464.381	2608
464.414	2746
464.461	2863
464.482	3016
464.540	3504
464.550	3359
464.617	2062
464.620	2015
464.685	2646
464.699	2796
464.753	3341
464.779	3628
464.820	3466
464.859	3245
464.888	3334
464.938	3576
464.956	3702
465.018	4156
465.023	4153
465.091	3817
465.098	3795
465.158	2830
465.177	2497
465.226	2554
465.257	2638
465.293	2723
465.336	2691
465.361	2950
465.416	3745
465.428	3971
465.495	5089
465.496	5114
465.563	8019
465.575	8575
465.631	11041
465.654	12292
465.698	8690
465.734	4568
465.765	3574
465.813	2383
465.833	2272
465.893	2493
465.900	2407
465.968	1629
465.972	1574
466.035	2497
466.052	2732
466.102	3092
466.131	3258
466.170	2636
466.210	2032
466.237	2514
466.290	3375
466.304	3126
466.369	2017
466.372	2037
466.439	2524
466.449	2584
466.506	3391
466.528	3699
466.573	5247
466.607	6399
466.641	8911
466.687	12468
466.708	13654
466.766	17208
466.775	16059
466.842	6984
466.845	6545
466.909	3974
466.925	3433
466.977	3676
467.004	3876
467.044	3842
467.083	3814
467.111	3547
467.163	3033
467.178	3256
467.242	4174
467.245	4158
467.312	3763
467.321	3709
467.379	3767
467.400	3780
467.446	4608
467.480	5197
467.559	5056
467.638	3547
467.717	3833
467.796	4543
467.875	3726
467.955	3565
468.034	5765
468.113	14564
468.192	19859
468.271	5167
468.350	3872
468.429	4816
468.508	4358
468.588	3264
468.667	3718
468.746	3974
468.825	3636
468.904	3400
468.983	3770
469.062	6058
469.141	7810
469.220	3654
469.299	3223
469.378	1744
469.456	4609
469.535	3885
469.614	4066
469.693	3758
469.772	5467
469.851	6914
469.930	4817
470.009	3432
470.088	3323
470.166	3405
470.245	5100
470.324	5526
470.403	5141
470.482	3492
470.560	4239
470.639	3506
470.718	4483
470.797	3534
470.875	3521
470.954	5482
471.033	5024
471.111	3668
471.190	1552
471.269	2408
471.347	3289
471.426	2993
471.505	2947
471.583	4112
471.662	2752
471.740	2913
471.819	3524
471.898	2764
471.976	3377
472.055	3039
472.133	3055
472.212	4694
472.290	4324
472.369	3035
472.447	3326
472.526	2617
472.604	3562
472.683	3745
472.761	2903
472.839	3421
472.918	3397
472.996	2998
473.075	3380
473.153	3191
473.231	2544
473.310	3435
473.388	2988
473.466	2692
473.545	3499
473.623	3904
473.701	4111
473.780	3099
473.858	1620
473.936	3791
474.014	3556
474.093	3942
474.171	5101
474.249	7679
474.327	5338
474.405	2479
474.484	2435
474.562	2393
474.640	1737
474.718	2449
474.796	2642
474.874	3514
474.952	2157
475.030	2503
475.108	3084
475.187	2170
475.265	2963
475.343	3160
475.421	2926
475.499	2084
475.577	3099
475.655	3968
475.733	7744
475.811	13884
475.889	12133
475.966	7613
476.044	1527
476.122	2450
476.200	2735
476.278	2029
476.356	2951
476.434	3434
476.512	2946
476.590	3761
476.667	4159
476.745	3529
476.823	3095
476.901	3241
476.979	3293
477.056	2762
477.134	2989
477.212	2459
477.290	2226
477.367	2486
477.445	2185
477.523	3151
477.601	1456
477.678	2507
477.756	4040
477.834	3663
477.911	2103
477.989	3254
478.066	3902
478.144	2821
478.222	2286
478.299	3692
478.377	3968
478.454	2765
478.532	2273
478.609	2608
478.687	3919
478.764	2517
478.842	2477
478.919	2502
478.997	3329
479.074	2519
479.152	3155
479.229	4471
479.307	2533
479.384	2546
479.461	2200
479.539	2619
479.616	3461
479.694	2606
479.771	2848
479.848	2982
479.926	3883
480.003	6564
480.080	3136
480.157	3335
480.235	2576
480.312	2808
480.389	3445
480.467	3492
480.544	5598
480.621	4099
480.698	3535
480.775	2916
480.853	3458
480.930	2208
481.007	3051
481.084	3687
481.161	4290
481.238	3672
481.315	2530
481.392	2362
481.470	3256
481.547	2663
481.624	2782
481.701	3126
481.778	3507
481.855	2724
481.932	5347
482.009	8018
482.086	4917
482.163	1776
482.240	3641
482.317	4348
482.393	3748
482.470	3148
482.547	2938
482.624	3103
482.701	3056
482.778	1789
482.855	2463
482.932	2927
483.009	1682
483.085	3198
483.162	2823
483.239	4485
483.316	2295
483.393	2686
483.469	2425
483.546	3302
483.623	4150
483.699	2969
483.776	2802
483.853	3541
483.930	4912
484.006	10919
484.083	19747
484.160	9039
484.236	10083
484.313	7625
484.389	6423
484.466	6359
484.543	4861
484.619	5037
484.696	7460
484.772	6587
484.849	7045
484.925	5921
485.002	6028
485.078	6763
485.155	5169
485.231	4451
485.308	4815
485.384	3874
485.461	6601
485.537	11067
485.614	14074
485.690	5425
485.766	4643
485.843	5803
485.919	7805
485.995	7108
486.072	5673
486.148	4422
486.224	5657
486.301	5334
486.377	6410
486.453	5468
486.530	4725
486.606	7607
486.682	7236
486.758	9934
486.835	11089
486.911	8245
486.987	15539
487.063	13909
487.139	15683
487.215	10732
487.292	6669
487.368	5678
487.444	5209
487.520	7247
487.596	5333
487.672	8117
487.748	12527
487.824	18323
487.900	9832
487.976	5693
488.052	5789
488.128	7193
488.204	5778
488.280	5771
488.356	6827
488.432	13281
488.508	19597
488.584	6841
488.660	3528
488.736	4400
488.812	4959
488.888	5767
488.964	8071
489.039	14917
489.115	23886
489.191	14938
489.267	4746
489.343	4560
489.418	4481
489.494	4242
489.570	3282
489.646	5686
489.722	5025
489.797	4921
489.873	7026
489.949	16386
490.024	13261
490.100	5027
490.176	5625
490.251	4926
490.327	5956
490.403	4203
490.478	3385
490.554	3045
490.629	2212
490.705	3716
490.781	4474
490.856	2999
490.932	4018
491.007	4680
491.083	3886
491.158	3528
491.234	4623
491.309	12525
491.385	11826
491.460	3397
491.536	4201
491.611	3759
491.686	3593
491.762	6089
491.837	10536
491.913	16481
491.988	23744
492.063	31170
492.139	12578
492.214	7283
492.289	3820
492.365	3251
492.440	5260
492.515	3609
492.590	3919
492.666	3440
492.741	4790
492.816	6694
492.891	4004
492.967	1837
493.042	2931
493.117	2950
493.192	3721
493.267	6997
493.342	24137
493.418	34328
493.493	7036
493.568	3080
493.643	3162
493.718	3568
493.793	5124
493.868	6003
493.943	4771
494.018	3789
494.093	2530
494.168	3151
494.243	2365
494.318	3168
494.393	3116
494.468	3509
494.543	2543
494.618	3093
494.693	2614
494.768	2936
494.842	3081
494.917	3680
494.992	3850
495.067	3519
495.142	2470
495.217	2717
495.292	3173
495.366	2850
495.441	3277
495.516	6371
495.591	6736
495.665	18757
495.740	47466
495.815	21818
495.890	4051
495.964	1938
496.039	4614
496.114	4222
496.188	3976
496.263	3899
496.338	2776
496.412	3853
496.487	4607
496.561	5234
496.636	4739
496.710	3686
496.785	3989
496.860	4417
496.934	3827
497.009	4828
497.083	3681
497.158	3714
497.232	4795
497.307	5596
497.381	4326
497.455	4552
497.530	7683
497.604	5130
497.679	4987
497.753	8201
497.827	9499
497.902	7915
497.976	9843
498.050	22185
498.125	89563
498.199	91024
498.273	13369
498.348	8147
498.422	6760
498.496	6350
498.570	6944
498.645	5275
498.719	5393
498.793	6877
498.867	10834
498.941	12921
499.016	34529
499.090	99037
499.164	36500
499.238	5518
499.312	4186
499.386	4902
499.460	5036
499.534	4438
499.609	5527
499.683	7996
499.757	8769
499.831	15619
499.905	65973
499.979	62200
500.053	10557
500.127	10123
500.201	6028
500.275	4903
500.349	4646
500.422	4957
500.496	7190
500.570	13978
500.644	35427
500.718	68399
500.792	17234
500.866	6261
500.940	6942
501.013	6040
501.087	4855
501.161	8240
501.235	9644
501.309	22534
501.382	59852
501.456	53762
501.530	12294
501.603	20259
501.677	8341
501.751	2802
501.825	5805
501.898	8840
501.972	24092
502.046	16347
502.119	4368
502.193	10348
502.266	26539
502.340	13143
502.413	11769
502.487	23682
502.561	13122
502.634	4980
502.708	2665
502.781	2362
502.855	3479
502.928	2371
503.002	3787
503.075	2406
503.149	2703
503.222	4103
503.295	3172
503.369	4244
503.442	5107
503.516	17571
503.589	47645
503.662	31252
503.736	9889
503.809	22186
503.882	16615
503.956	24365
504.029	21060
504.102	10513
504.175	10460
504.249	4515
504.322	4036
504.395	4256
504.468	3574
504.542	2842
504.615	1214
504.688	2449
504.761	667
504.834	3554
504.907	3007
504.980	4975
505.053	2917
505.127	2155
505.200	5788
505.273	3975
505.346	2527
505.419	1931
505.492	2668
505.565	1528
505.638	2103
505.711	906
505.784	528
505.857	1827
505.930	3132
506.003	700
506.076	3398
506.149	2998
506.221	2743
506.294	5045
506.367	7200
506.440	32522
506.513	17555
506.586	4720
506.659	2422
506.731	1710
506.804	1886
506.877	3246
506.950	2519
507.022	2545
507.095	1696
507.168	3783
507.241	3051
507.313	1922
507.386	103
507.459	3946
507.531	1713
507.604	918
507.677	1880
507.749	802
507.822	3140
507.894	3987
507.967	5187
508.040	1811
508.112	2741
508.185	2754
508.257	1351
508.330	4377
508.402	1479
508.475	2714
508.547	2046
508.620	2407
508.692	4717
508.765	2860
508.837	769
508.909	2020
508.982	1231
509.054	3075
509.127	1812
509.199	1147
509.271	1273
509.344	2047
509.416	1051
509.488	921
509.560	2164
509.633	1279
509.705	2107
509.777	1833
509.849	4287
509.922	1352
509.994	1260
510.066	2245
510.138	616
510.210	5098
510.283	3676
510.355	2926
510.427	3063
510.499	3421
510.571	2740
510.643	2246
510.715	5327
510.787	2168
510.859	3847
510.931	2407
511.003	3997
511.076	4268
511.148	2018
511.219	1938
511.291	4709
511.363	6127
511.435	4245
511.507	2291
511.579	3234
511.651	3262
511.723	2459
511.795	1932
511.867	1302
511.939	3088
512.010	5902
512.082	5259
512.154	1139
512.226	2241
512.298	4437
512.369	4518
512.441	4358
512.513	3826
512.585	1330
512.656	3823
512.728	2728
512.800	1525
512.871	2696
512.943	3725
513.015	1612
513.086	2428
513.158	3020
513.230	2197
513.301	3263
513.373	4258
513.444	2745
513.516	2683
513.588	1869
513.659	2321
513.731	2712
513.802	1345
513.874	6551
513.945	10717
514.016	3498
514.088	2093
514.159	1203
514.231	3793
514.302	3985
514.374	2425
514.445	1622
514.516	10325
514.588	4798
514.659	2658
514.730	5660
514.802	6033
514.873	1354
514.944	5172
515.016	2805
515.087	3218
515.158	3888
515.229	6622
515.301	1502
515.372	4698
515.443	1317
515.514	1369
515.585	286
515.656	2368
515.728	2841
515.799	1467
515.870	3725
515.941	3392
516.012	1458
516.083	3036
516.154	2460
516.225	4464
516.296	5078
516.367	4053
516.438	4269
516.509	5474
516.580	7729
516.651	21880
516.722	76709
516.793	35791
516.864	8313
516.935	8342
517.006	8994
517.077	12131
517.148	24305
517.219	83845
517.289	134737
517.360	46355
517.431	15804
517.502	4089
517.573	4164
517.643	3419
517.714	5157
517.785	4928
517.856	3757
517.926	7187
517.997	7328
518.068	7904
518.138	13481
518.209	15095
518.280	53486
518.350	204314
518.421	82464
518.492	12057
518.562	6038
518.633	5112
518.703	3388
518.774	7869
518.845	10501
518.915	11158
518.986	5180
519.056	4944
519.127	8872
519.197	13127
519.268	33029
519.338	22216
519.408	4985
519.479	6092
519.549	3427
519.620	4435
519.690	1423
519.760	2053
519.831	2803
519.901	1953
519.971	2002
520.042	2511
520.112	2549
520.182	3844
520.253	4158
520.323	2569
520.393	1654
520.463	5542
520.534	730
520.604	6273
520.674	3915
520.744	2603
520.814	3898
520.885	6444
520.955	9935
521.025	39759
521.095	14558
521.165	5572
521.235	2518
521.305	1650
521.375	1383
521.445	3256
521.515	2080
521.585	2472
521.655	1735
521.725	3428
521.795	3022
521.865	-124
521.935	4521
522.005	1524
522.075	1286
522.145	3473
522.215	1192
522.285	4527
522.355	5714
522.424	11311
522.494	8393
522.564	4765
522.634	6177
522.704	22397
522.774	8172
522.843	2630
522.913	2882
522.983	2384
523.053	1687
523.122	3711
523.192	2590
523.262	10734
523.331	10509
523.401	5021
523.471	2820
523.540	1474
523.610	335
523.680	2060
523.749	1105
523.819	2807
523.888	1314
523.958	1797
524.027	1955
524.097	1111
524.166	2083
524.236	216
524.305	3456
524.375	1099
524.444	380
524.514	4218
524.583	770
524.653	1511
524.722	2671
524.791	809
524.861	2555
524.930	799
524.999	67
525.069	2531
525.138	2395
525.207	2264
525.277	1970
525.346	1528
525.415	2343
525.484	1680
525.554	1807
525.623	1727
525.692	1871
525.761	2653
525.830	2786
525.900	1768
525.969	3419
526.038	4134
526.107	5974
526.176	19439
526.245	13536
526.314	7269
526.383	12553
526.452	11882
526.522	25409
526.591	26480
526.660	11693
526.729	4797
526.797	7070
526.867	11063
526.935	57060
527.004	70944
527.073	33798
527.142	4476
527.211	2152
527.280	2876
527.349	2460
527.418	1577
527.487	2417
527.555	728
527.624	735
527.693	-44
527.762	2471
527.831	-369
527.899	997
527.968	1022
528.037	141
528.106	1457
528.174	3726
528.243	3578
528.312	4517
528.380	5130
528.449	366
528.518	1934
528.586	-208
528.655	1588
528.723	291
528.792	634
528.861	-237
528.929	-171
528.998	2314
529.066	1250
529.135	1695
529.203	-385
529.272	-770
529.340	1446
529.409	2452
529.477	799
529.545	637
529.614	3126
529.682	687
529.751	1807
529.819	4083
529.887	1912
529.956	559
530.024	2837
530.092	237
530.161	1960
530.229	2414
530.297	2058
530.365	1440
530.434	1560
530.502	-377
530.570	971
530.638	-965
530.707	1867
530.775	3189
530.843	9
530.911	1668
530.979	1747
531.047	1426
531.115	1350
531.183	703
531.252	1360
531.320	716
531.388	221
531.456	1339
531.524	-930
531.592	1388
531.660	2959
531.728	522
531.796	-105
531.864	1181
531.932	1632
532.000	2044
532.067	1147
532.135	1806
532.203	1896
532.271	1151
532.339	3792
532.407	8282
532.475	5482
532.542	2886
532.610	2674
532.678	2149
532.746	15924
532.814	40365
532.881	9018
532.949	1970
533.017	2370
533.084	2026
533.152	790
533.220	1601
533.287	725
533.355	499
533.423	1920
533.490	250
533.558	690
533.625	1473
533.693	204
533.761	1279
533.828	1886
533.896	307
533.963	3113
534.031	4869
534.098	6320
534.166	2698
534.233	1614
534.300	1938
534.368	2403
534.435	673
534.503	1311
534.570	1501
534.637	1354
534.705	2074
534.772	1399
534.840	1690
534.907	8783
534.974	10622
535.041	1803
535.109	1800
535.176	426
535.243	1764
535.310	2423
535.378	1138
535.445	1544
535.512	952
535.579	671
535.646	600
535.714	1835
535.781	1785
535.848	1791
535.915	2916
535.982	1095
536.049	1703
536.116	3001
536.183	926
536.250	1308
536.317	869
536.384	2215
536.451	3070
536.518	2763
536.585	598
536.652	3898
536.719	4172
536.786	1707
536.853	1893
536.920	3992
536.987	4632
537.053	3485
537.120	20023
537.187	17193
537.254	1395
537.321	945
537.388	2572
537.454	472
537.521	175
537.588	913
537.654	1680
537.721	735
537.788	1999
537.855	905
537.921	1029
537.988	690
538.055	2528
538.121	794
538.188	2348
538.254	3397
538.321	4266
538.388	3248
538.454	1558
538.521	1318
538.587	1438
538.654	815
538.720	621
538.787	464
538.853	1716
538.920	2217
538.986	1953
539.053	1417
539.119	1419
539.185	892
539.252	2391
539.318	3233
539.385	3561
539.451	113
539.517	2074
539.583	2315
539.650	5677
539.716	15509
539.782	4243
539.849	714
539.915	1266
539.981	592
540.047	2139
540.114	1671
540.180	2468
540.246	1004
540.312	2476
540.378	5304
540.444	6532
540.510	5361
540.576	16355
540.643	4959
540.709	-559
540.775	1864
540.841	1668
540.907	2094
540.973	3610
541.039	2074
541.105	2733
541.171	467
541.237	239
541.303	2391
541.369	4098
541.435	2967
541.500	4446
541.566	1933
541.632	1153
541.698	1051
541.764	1300
541.830	1178
541.896	-109
541.961	2041
542.027	902
542.093	997
542.159	1337
542.224	673
542.290	3206
542.356	3681
542.421	5403
542.487	2670
542.553	1018
542.618	2135
542.684	916
542.750	1678
542.815	1594
542.881	3642
542.947	13724
543.012	11343
543.078	1137
543.143	767
543.209	2544
543.274	1481
543.340	2225
543.405	4501
543.471	7831
543.536	1908
543.602	1883
543.667	229
543.732	2546
543.798	378
543.863	1879
543.928	762
543.994	202
544.059	1830
544.124	2051
544.190	356
544.255	1628
544.320	1866
544.386	197
544.451	2731
544.516	2696
544.581	1681
544.646	8464
544.712	15056
544.777	2817
544.842	2313
544.907	1891
544.972	1335
545.037	1331
545.102	2326
545.168	1659
545.233	2399
545.298	3159
545.363	2138
545.428	3351
545.493	7929
545.558	12704
545.623	5284
545.688	1533
545.753	1839
545.818	1862
545.883	2139
545.947	1271
546.012	2280
546.077	1186
546.142	3304
546.207	1565
546.272	2571
546.337	2128
546.401	2366
546.466	2079
546.531	1473
546.596	2087
546.661	2212
546.725	2752
546.790	1133
546.855	2563
546.919	1176
546.984	2621
547.049	2059
547.113	2093
547.178	2073
547.243	4261
547.307	3374
547.372	4161
547.436	4172
547.501	2976
547.565	3189
547.630	3426
547.695	4537
547.759	4385
547.823	3405
547.888	3967
547.952	2727
548.017	3772
548.081	4647
548.146	5562
548.210	5786
548.274	2896
548.339	2778
548.403	3841
548.468	3350
548.532	2280
548.596	2706
548.660	2791
548.725	4151
548.789	3655
548.853	5475
548.917	3851
548.982	5076
549.046	5373
549.110	2765
549.174	2971
549.238	3107
549.303	1969
549.367	4538
549.431	2752
549.495	3196
549.559	2988
549.623	3628
549.687	4196
549.751	5700
549.815	4578
549.879	5248
549.943	2933
550.007	5015
550.071	4834
550.135	7697
550.199	3702
550.263	4456
550.327	6217
550.391	5527
550.455	4185
550.519	4098
550.582	3818
550.646	4990
550.710	6059
550.774	4681
550.838	4622
550.901	5135
550.965	6481
551.029	5430
551.093	6659
551.156	8128
551.220	15043
551.284	15672
551.347	8086
551.411	16415
551.475	17075
551.538	6592
551.602	5952
551.666	3784
551.729	3707
551.793	4801
551.856	4836
551.920	4783
551.983	4680
552.047	3719
552.110	3790
552.174	3547
552.237	3751
552.301	4672
552.364	3349
552.428	4612
552.491	2803
552.554	4603
552.618	4006
552.681	4787
552.745	4791
552.808	6968
552.871	9804
552.934	6166
552.998	4206
553.061	4533
553.124	4794
553.187	5589
553.251	4199
553.314	4738
553.377	5066
553.440	8431
553.503	19994
553.567	32137
553.630	6781
553.693	5050
553.756	5543
553.819	3869
553.882	3830
553.945	3576
554.008	2777
554.071	2270
554.134	4497
554.197	4054
554.260	2728
554.323	5175
554.386	3485
554.449	4233
554.512	3857
554.575	3393
554.638	3911
554.701	3790
554.764	3690
554.827	4474
554.889	3671
554.952	1493
555.015	2743
555.078	2732
555.141	2967
555.203	3504
555.266	3013
555.329	3007
555.391	2185
555.454	2650
555.517	3226
555.580	3387
555.642	2749
555.705	2056
555.768	2880
555.830	3343
555.893	2855
555.955	2916
556.018	3299
556.080	3879
556.143	3656
556.206	3549
556.268	3546
556.330	3135
556.393	3214
556.455	4375
556.518	5391
556.580	5465
556.643	3970
556.705	2518
556.767	1984
556.830	3337
556.892	3234
556.955	5044
557.017	3516
557.079	2856
557.142	2256
557.204	3518
557.266	7250
557.328	5974
557.391	2007
557.453	2040
557.515	2401
557.577	3294
557.639	3462
557.701	2257
557.764	2680
557.826	2649
557.888	3763
557.950	2619
558.012	3720
558.074	3827
558.136	7290
558.198	16931
558.260	6907
558.322	3756
558.384	3428
558.446	5008
558.508	6187
558.570	8294
558.632	11105
558.694	16864
558.756	15708
558.818	38636
558.880	93360
558.942	28637
559.003	19787
559.065	9784
559.127	4813
559.189	4835
559.251	5495
559.312	7895
559.374	17562
559.436	57218
559.498	29124
559.559	5985
559.621	5583
559.683	6160
559.744	9226
559.806	25943
559.868	40340
559.929	8520
559.991	5930
560.052	7315
560.114	18719
560.176	12765
560.237	12223
560.299	18141
560.360	5566
560.422	3446
560.483	3419
560.545	3480
560.606	2404
560.667	2978
560.729	2706
560.790	2535
560.852	1826
560.913	3143
560.974	3602
561.036	2724
561.097	2794
561.158	3248
561.220	3209
561.281	2586
561.342	3746
561.403	4739
561.465	5208
561.526	12153
561.587	16071
561.648	3730
561.709	2340
561.771	4201
561.832	2663
561.893	2618
561.954	2889
562.015	2457
562.076	3697
562.137	2987
562.198	2821
562.259	2525
562.320	2772
562.381	2744
562.442	3870
562.503	5728
562.564	3286
562.625	2884
562.686	3487
562.747	2978
562.808	3019
562.869	3469
562.930	4237
562.991	4480
563.051	4564
563.112	4020
563.173	2588
563.234	2794
563.294	3433
563.355	3368
563.416	3068
563.477	3242
563.537	3623
563.598	3650
563.659	4200
563.720	2705
563.780	3810
563.841	3376
563.901	3761
563.962	3928
564.023	3526
564.083	4002
564.144	3540
564.204	3584
564.265	4000
564.325	4753
564.386	9832
564.446	9359
564.507	3421
564.567	3392
564.628	3236
564.688	2876
564.749	3447
564.809	3969
564.869	5442
564.930	3374
564.990	3673
565.050	2824
565.111	3051
565.171	3394
565.231	3071
565.292	3972
565.352	2623
565.412	3721
565.472	4289
565.532	4068
565.593	2911
565.653	3263
565.713	2921
565.773	4255
565.833	4669
565.893	6460
565.953	3994
566.013	4231
566.074	3834
566.134	5383
566.194	9633
566.254	10537
566.314	6209
566.374	4244
566.434	3960
566.494	3193
566.554	3362
566.614	3697
566.673	3644
566.733	4626
566.793	4082
566.853	4799
566.913	4609
566.973	4842
567.033	5282
567.092	5314
567.152	4069
567.212	5613
567.272	4874
567.331	5706
567.391	5107
567.451	5637
567.511	8125
567.570	8377
567.630	4481
567.690	4439
567.749	4322
567.809	4716
567.868	5521
567.928	5503
567.988	6164
568.047	5968
568.107	5610
568.166	7651
568.226	9868
568.285	13288
568.345	11808
568.404	10359
568.464	9052
568.523	8447
568.582	8791
568.642	9067
568.701	10307
568.761	13475
568.820	18826
568.879	20210
568.939	18495
568.998	13932
569.057	9688
569.116	9045
569.176	7101
569.235	6557
569.294	6249
569.353	5215
569.413	5016
569.472	5607
569.531	4931
569.590	4574
569.649	4710
569.708	4773
569.767	4609
569.827	5253
569.886	4547
569.945	4917
570.004	4513
570.063	4322
570.122	4034
570.181	4829
570.240	5707
570.299	5504
570.358	4483
570.417	3266
570.475	3780
570.534	4459
570.593	3653
570.652	4060
570.711	5044
570.770	4058
570.829	4317
570.887	4272
570.946	5310
571.005	3736
571.064	4314
571.122	3849
571.181	5605
571.240	4282
571.299	3565
571.357	3969
571.416	5520
571.475	5752
571.533	6084
571.592	4116
571.650	4713
571.709	4371
571.768	3449
571.826	2938
571.885	4292
571.943	4144
572.002	3208
572.060	4125
572.119	2982
572.177	3450
572.236	3169
572.294	2725
572.352	4131
572.411	3319
572.469	3184
572.528	3852
572.586	3589
572.644	3542
572.703	5219
572.761	4291
572.819	3028
572.877	2534
572.936	3482
572.994	3321
573.052	3394
573.110	3313
573.169	3818
573.227	2257
573.285	3053
573.343	3441
573.401	3107
573.459	3630
573.517	3269
573.576	3633
573.634	2694
573.692	4506
573.750	4088
573.808	2347
573.866	4413
573.924	6058
573.982	6598
574.040	4234
574.098	3603
574.155	3743
574.213	2332
574.271	2703
574.329	3949
574.387	3719
574.445	3112
574.503	2607
574.560	2669
574.618	2743
574.676	2081
574.734	2593
574.792	3127
574.849	3106
574.907	2389
574.965	3235
575.022	1600
575.080	2765
575.138	3316
575.195	3936
575.253	3170
575.311	3153
575.368	3436
575.426	2363
575.483	3039
575.541	3008
575.598	3141
575.656	4589
575.713	2766
575.771	3538
575.828	3191
575.886	3341
575.943	4027
576.001	4278
576.058	3833
576.115	3601
576.173	5633
576.230	6656
576.287	6471
576.345	6374
576.402	4492
576.459	3780
576.517	3862
576.574	5061
576.631	4973
576.688	5037
576.746	3697
576.803	3886
576.860	4341
576.917	5966
576.974	4915
577.031	4369
577.089	4393
577.146	3523
577.203	4628
577.260	5299
577.317	5491
577.374	6344
577.431	5158
577.488	4949
577.545	4003
577.602	4895
577.659	4575
577.716	3917
577.773	5555
577.830	4445
577.886	4496
577.943	4589
578.000	4763
578.057	5365
578.114	5679
578.171	6099
578.227	6970
578.284	7370
578.341	7180
578.398	6526
578.454	6864
578.511	7056
578.568	6883
578.625	5048
578.681	5098
578.738	3876
578.794	5548
578.851	4231
578.908	5299
578.964	4382
579.021	4503
579.077	5146
579.134	6548
579.190	4422
579.247	4619
579.303	3503
579.360	2817
579.416	4174
579.473	3130
579.529	3183
579.586	3572
579.642	4576
579.698	4023
579.755	4942
579.811	4616
579.867	4820
579.924	4859
579.980	5165
580.036	6631
580.093	8501
580.149	10470
580.205	13392
580.261	10667
580.317	9693
580.374	7799
580.430	8655
580.486	7318
580.542	6261
580.598	5364
580.619	5436
580.654	5559
580.692	5257
580.710	5113
580.765	5628
580.767	5647
580.823	5015
580.838	5152
580.879	5503
580.911	5180
580.935	4954
580.984	4599
580.991	4555
581.047	4138
581.057	4275
581.103	4857
581.130	5383
581.159	5935
581.203	6294
581.215	6376
581.270	6665
581.276	6637
581.326	6441
581.349	6187
581.382	5761
581.422	5236
581.438	5023
581.494	4904
581.494	4901
581.550	4516
581.567	4792
581.606	5346
581.640	4986
581.661	4767
581.713	5745
581.717	5826
581.773	4646
581.786	4628
581.829	4504
581.859	4567
581.885	4688
581.932	5318
581.940	5398
581.996	5262
582.004	5235
582.052	5067
582.077	4729
582.107	4451
582.150	5202
582.163	5418
582.219	5285
582.223	5278
582.274	5184
582.296	5207
582.330	5181
582.368	5734
582.386	5989
582.441	5153
582.441	5150
582.497	5302
582.514	5527
582.552	6262
582.587	6315
582.608	6210
582.659	5719
582.663	5677
582.719	5550
582.732	5508
582.774	5533
582.805	5736
582.830	5906
582.877	6448
582.885	6537
582.941	6279
582.950	6450
582.996	7187
583.023	7111
583.052	7283
583.095	8282
583.107	8518
583.162	9924
583.168	10009
583.218	10553
583.240	10059
583.273	9082
583.313	8459
583.328	8287
583.384	8700
583.385	8647
583.439	7047
583.458	7056
583.494	7233
583.531	6871
583.549	6638
583.603	6231
583.605	6222
583.660	6636
583.676	6329
583.715	5639
583.748	6531
583.770	7069
583.820	7134
583.825	7135
583.881	7052
583.893	6786
583.936	6092
583.965	6371
583.991	6459
584.038	6161
584.046	6138
584.101	6402
584.110	6397
584.156	6521
584.183	6201
584.211	5703
584.255	6355
584.266	6539
584.321	6098
584.328	6165
584.376	6901
584.400	7063
584.431	7279
584.472	7146
584.486	7070
584.541	6871
584.545	6875
584.596	6897
584.617	7107
584.651	7943
584.689	8228
584.706	8145
584.761	7497
584.762	7494
584.816	8199
584.834	8405
584.871	8657
584.906	8230
584.926	7917
584.978	8386
584.980	8418
585.035	8083
585.051	8245
585.090	9198
585.123	9667
585.145	9742
585.195	10323
585.200	10443
585.254	11463
585.267	11772
585.309	13173
585.340	14854
585.364	15537
585.412	14149
585.419	13903
585.473	13532
585.484	13557
585.528	15584
585.556	17130
585.583	20272
585.628	27487
585.637	30568
585.692	53966
585.700	58800
585.747	75294
585.772	68659
585.801	48641
585.845	22200
585.856	19146
585.910	14009
585.917	13443
585.965	12323
585.989	12274
586.019	12327
586.061	11852
586.074	11811
586.128	12285
586.133	12290
586.183	12583
586.205	12966
586.237	13386
586.277	13258
586.292	13208
586.346	13462
586.349	13451
586.401	13726
586.421	13703
586.455	14362
586.493	15933
586.509	18242
586.564	26389
586.565	26662
586.618	43278
586.637	45408
586.672	34736
586.709	21049
586.727	17874
586.781	14221
586.781	14239
586.835	13209
586.853	13086
586.889	13306
586.925	12634
586.944	12311
586.996	13322
586.998	13387
587.052	13756
587.068	13934
587.106	14541
587.140	14782
587.161	14541
587.212	14066
587.215	14134
587.269	15127
587.284	15386
587.323	15228
587.356	14901
587.377	15131
587.427	16329
587.431	16418
587.485	16147
587.499	16177
587.539	16791
587.571	17490
587.593	17881
587.643	18203
587.648	18337
587.702	19679
587.715	19930
587.755	20867
587.786	21692
587.810	21907
587.858	22255
587.864	22497
587.917	24380
587.930	24850
587.971	27163
588.001	28949
588.025	29863
588.073	30661
588.079	30905
588.133	33260
588.145	33904
588.187	37687
588.217	40103
588.241	42427
588.288	47276
588.295	48252
588.348	56868
588.360	58636
588.402	66107
588.431	71650
588.456	77246
588.503	88768
588.510	90863
588.564	108201
588.575	112021
588.617	130868
588.646	144341
588.671	162165
588.718	198793
588.725	210913
588.778	312371
588.789	336092
588.832	551926
588.861	710717
588.886	928975
588.932	1362605
588.939	1384340
588.993	1453706
589.004	1449554
589.047	1038382
589.075	736321
589.100	567446
589.147	294680
589.154	282479
589.207	209043
589.218	195128
589.261	183509
589.290	178187
589.314	187769
589.361	210913
589.368	224339
589.421	341958
589.433	369862
589.475	649221
589.504	858503
589.528	1031030
589.576	1347624
589.582	1310848
589.635	859936
589.647	753932
589.689	426302
589.718	218559
589.742	178317
589.790	111233
589.795	108966
589.849	90094
589.861	86331
589.902	81329
589.932	76776
589.955	68050
590.004	48495
590.009	47843
590.062	41390
590.075	39825
590.115	38120
590.146	36679
590.168	35305
590.218	32231
590.222	32299
590.275	32325
590.289	32172
590.328	31192
590.360	30231
590.381	29402
590.431	27518
590.435	27552
590.488	26789
590.503	26548
590.541	26420
590.574	26202
590.594	25961
590.645	25040
590.647	25088
590.700	24634
590.716	24295
590.753	23818
590.787	23650
590.806	23655
590.859	23255
590.859	23317
590.912	23026
590.930	22807
590.965	22729
591.001	22758
591.018	22725
591.071	22351
591.072	22283
591.124	22041
591.143	21841
591.177	22183
591.214	22504
591.230	23010
591.283	24570
591.285	24552
591.336	24792
591.356	24809
591.389	25010
591.427	24973
591.442	24463
591.495	22308
591.498	22080
591.547	21943
591.569	21820
591.600	21880
591.640	21745
591.653	21924
591.706	22384
591.711	22371
591.759	24825
591.782	25976
591.811	26993
591.853	28256
591.864	27439
591.917	22688
591.924	21947
591.969	22203
591.995	22224
592.022	22914
592.066	23951
592.075	24647
592.127	28444
592.137	29079
592.180	32581
592.208	34595
592.233	30697
592.279	22976
592.285	22945
592.338	22201
592.350	21985
592.390	21925
592.421	21718
592.443	21818
592.491	21861
592.495	21987
592.548	22755
592.562	22895
592.600	22603
592.633	22229
592.653	22125
592.704	21562
592.705	21695
592.775	22178
592.846	23066
592.916	23093
592.987	25733
593.058	24952
593.128	21721
593.199	22214
593.270	21995
593.341	21050
593.411	22429
593.482	21666
593.553	21811
593.623	21622
593.694	21871
593.764	25233
593.835	22624
593.906	21535
593.976	22991
594.047	24071
594.117	30463
594.188	28587
594.258	21016
594.329	20663
594.399	20690
594.470	20123
594.540	20861
594.611	21370
594.681	20570
594.751	20537
594.822	23269
594.892	22969
594.963	24709
595.033	23769
595.103	24277
595.174	27847
595.244	42965
595.314	53542
595.384	25288
595.455	22850
595.525	23764
595.595	23687
595.665	24696
595.736	23058
595.806	23573
595.876	23564
595.946	22837
596.016	23107
596.087	23560
596.157	22512
596.227	22603
596.297	25826
596.367	25355
596.437	29247
596.507	43348
596.577	52418
596.647	28514
596.717	25000
596.787	26020
596.857	24995
596.927	25399
596.997	25675
597.067	26590
597.137	29875
597.207	26956
597.277	26206
597.347	26068
597.417	25684
597.487	27643
597.557	27326
597.626	27794
597.696	30415
597.766	38788
597.836	50120
597.906	29355
597.975	24542
598.045	24994
598.115	24291
598.185	25069
598.254	27944
598.324	29682
598.394	29089
598.464	29765
598.533	27769
598.603	25851
598.672	26016
598.742	26819
598.812	26200
598.881	26895
598.951	25462
599.020	24929
599.090	25892
599.159	26924
599.229	24618
599.299	24760
599.368	25064
599.437	25464
599.507	25972
599.576	26048
599.646	28022
599.715	27933
599.785	26062
599.854	27695
599.924	30728
599.993	28075
600.062	24675
600.132	24422
600.201	26783
600.270	29656
600.340	27353
600.409	26277
600.478	26771
600.547	27129
600.617	28385
600.686	25278
600.755	24379
600.824	24692
600.894	23920
600.963	23038
601.032	22052
601.101	22302
601.170	21596
601.239	23213
601.308	23506
601.378	23017
601.447	22657
601.516	21171
601.585	22572
601.654	24326
601.723	22688
601.792	22805
601.861	26221
601.930	29900
601.999	26885
602.068	23484
602.137	24436
602.206	24803
602.275	25366
602.343	29499
602.412	29330
602.481	25535
602.550	23168
602.619	24108
602.688	25954
602.756	23465
602.825	23342
602.894	24201
602.963	24394
603.032	24413
603.100	23743
603.169	24421
603.238	24399
603.307	24181
603.375	23769
603.444	24990
603.513	24032
603.581	23801
603.650	25276
603.719	23884
603.787	23062
603.856	25719
603.924	25695
603.993	25457
604.061	25043
604.130	26632
604.198	26831
604.267	25777
604.335	25654
604.404	26391
604.472	26623
604.541	27817
604.609	27364
604.678	26911
604.746	27740
604.815	27798
604.883	27952
604.951	28189
605.020	27129
605.088	28418
605.156	28792
605.225	27390
605.293	27583
605.361	27965
605.429	28667
605.498	30685
605.566	29810
605.634	29881
605.702	30700
605.771	31768
605.839	32070
605.907	30196
605.975	28306
606.043	29933
606.111	29245
606.180	31396
606.248	33791
606.316	34966
606.384	32067
606.452	37873
606.520	38721
606.588	31568
606.656	27495
606.724	27863
606.792	26123
606.860	25227
606.928	22691
606.996	22600
607.064	21623
607.132	22740
607.200	23631
607.267	24378
607.335	23661
607.403	25006
607.471	23828
607.539	24529
607.607	24735
607.674	23382
607.742	24278
607.810	24997
607.878	24121
607.946	22994
608.013	23059
608.081	23369
608.149	23988
608.216	23188
608.284	24901
608.352	24088
608.419	27662
608.487	37997
608.555	26870
608.622	24167
608.690	24565
608.757	26407
608.825	26117
608.893	27343
608.960	29282
609.028	33556
609.095	41043
609.163	27658
609.230	24011
609.298	24200
609.365	21173
609.432	22696
609.500	25040
609.567	27718
609.635	30438
609.702	31881
609.769	32454
609.837	30820
609.904	25136
609.971	23634
610.039	29494
610.106	40795
610.173	78312
610.241	180505
610.308	137574
610.375	65908
610.442	31197
610.509	24991
610.577	24850
610.644	24070
610.711	23879
610.778	25465
610.845	25373
610.912	27225
610.980	31408
611.047	39685
611.114	32308
611.181	27259
611.248	24430
611.315	26812
611.382	25979
611.449	27832
611.516	28280
611.583	27743
611.650	27646
611.717	29295
611.784	28397
611.851	31354
611.918	35282
611.984	41295
612.051	64448
612.118	145573
612.185	367106
612.252	206449
612.319	48027
612.386	36302
612.452	32307
612.519	35398
612.586	47193
612.653	35861
612.719	31003
612.786	30606
612.853	27914
612.919	26402
612.986	26696
613.053	25304
613.120	24496
613.186	23467
613.253	25266
613.319	24406
613.386	24207
613.453	26388
613.519	28122
613.586	35939
613.652	48211
613.719	39141
613.785	34812
613.852	27328
613.918	26680
613.985	30747
614.051	44371
614.118	87692
614.184	78183
614.250	28689
614.317	25867
614.383	25005
614.449	25276
614.516	25530
614.582	27538
614.648	25091
614.715	24174
614.781	24402
614.847	25670
614.914	27552
614.980	25212
615.046	24870
615.112	23983
615.179	24571
615.245	25151
615.311	27165
615.377	31053
615.443	32299
615.509	29043
615.575	28220
615.642	26988
615.708	30016
615.774	31847
615.840	34930
615.906	41891
615.972	53979
616.038	92753
616.104	203089
616.170	499358
616.236	386646
616.302	79279
616.368	52812
616.434	38404
616.500	37624
616.565	39215
616.631	45651
616.697	38219
616.763	39588
616.829	58142
616.895	99984
616.961	93796
617.026	45555
617.092	31215
617.158	31153
617.224	29041
617.289	27910
617.355	27731
617.421	27348
617.487	27669
617.552	26058
617.618	24513
617.684	24961
617.749	26560
617.815	24442
617.880	22914
617.946	24431
618.012	24329
618.077	24239
618.143	23993
618.208	24261
618.274	25541
618.339	26577
618.405	22478
618.470	24257
618.536	24795
618.601	28335
618.667	24848
618.732	23845
618.798	22674
618.863	22175
618.928	22657
618.994	25809
619.059	28653
619.124	38138
619.190	26984
619.255	22473
619.320	23983
619.386	22403
619.451	21293
619.516	22251
619.581	23368
619.647	22510
619.712	21758
619.777	22342
619.842	22757
619.907	22618
619.972	23184
620.038	22747
620.103	21459
620.168	21476
620.233	21859
620.298	21341
620.363	22114
620.428	22809
620.493	22366
620.558	21901
620.623	22261
620.688	21966
620.753	20759
620.818	22005
620.883	22208
620.948	22118
621.013	22105
621.078	23749
621.143	22465
621.207	26078
621.272	25517
621.337	26646
621.402	28328
621.467	37838
621.532	37513
621.596	29764
621.661	26532
621.726	25240
621.791	25256
621.855	27008
621.920	28299
621.985	30611
622.049	35492
622.114	32608
622.179	28542
622.243	29616
622.308	28718
622.373	29683
622.437	28810
622.502	26913
622.566	26899
622.631	26939
622.695	28154
622.760	27227
622.824	26450
622.889	28821
622.953	31597
623.018	45798
623.082	41158
623.147	28025
623.211	27072
623.276	28060
623.340	23751
623.404	26213
623.469	25454
623.533	26147
623.597	24023
623.662	24970
623.726	24724
623.790	23785
623.854	23860
623.919	25079
623.983	23174
624.047	25433
624.111	23029
624.176	24632
624.240	25459
624.304	28631
624.368	23522
624.432	23618
624.496	25543
624.560	28396
624.625	30146
624.689	25064
624.753	24540
624.817	22999
624.881	23482
624.945	25772
625.009	24420
625.073	22464
625.137	25569
625.201	32630
625.265	30064
625.329	24135
625.393	25635
625.456	24557
625.520	24886
625.584	28964
625.648	38358
625.712	62402
625.776	147124
625.839	157977
625.903	52370
625.967	31658
626.031	57764
626.095	86959
626.158	29640
626.222	20551
626.286	19990
626.349	18816
626.413	18791
626.477	22006
626.540	18645
626.604	18954
626.668	19314
626.731	18678
626.795	20657
626.858	20201
626.922	18663
626.986	19235
627.049	17273
627.113	19798
627.176	18274
627.240	17505
627.303	17486
627.366	17734
627.430	17901
627.493	18489
627.557	18662
627.620	19701
627.684	18693
627.747	18380
627.810	16796
627.874	17922
627.937	15989
628.000	19589
628.064	17398
628.127	15577
628.190	16817
628.253	17359
628.317	16057
628.380	16084
628.443	15676
628.506	16603
628.569	15973
628.632	14602
628.696	15222
628.759	15178
628.822	14354
628.885	14527
628.948	14714
629.011	14882
629.074	14794
629.137	13656
629.200	14351
629.263	17035
629.326	13447
629.389	13763
629.452	14326
629.515	14868
629.578	15084
629.641	16333
629.704	14624
629.767	14997
629.830	14139
629.892	14254
629.955	13253
630.018	16796
630.081	16043
630.144	21231
630.207	15760
630.269	17349
630.332	18504
630.395	15002
630.458	13465
630.520	13710
630.583	13773
630.646	13225
630.708	12875
630.771	12166
630.834	12685
630.896	12137
630.959	12551
631.021	12455
631.084	13482
631.146	14929
631.209	18056
631.272	12740
631.334	11696
631.397	12417
631.459	11975
631.522	13912
631.584	12758
631.646	13570
631.709	14761
631.771	19740
631.834	14990
631.896	13270
631.958	10983
632.021	12352
632.083	10945
632.145	13637
632.208	12798
632.270	13120
632.332	11859
632.395	10920
632.457	12641
632.519	11912
632.581	12429
632.643	10966
632.706	11041
632.768	10349
632.830	12147
632.892	10888
632.954	10025
633.016	12045
633.078	10361
633.141	10172
633.203	10810
633.265	11737
633.327	10925
633.389	11002
633.451	12877
633.513	16632
633.575	16570
633.637	15587
633.698	12888
633.760	11488
633.822	11547
633.884	11571
633.946	11907
634.008	11497
634.070	12345
634.132	14684
634.193	12157
634.255	12417
634.317	11648
634.379	13520
634.441	11937
634.502	10613
634.564	11807
634.626	10458
634.687	10915
634.749	10970
634.811	10480
634.873	9463
634.934	9556
634.996	10940
635.057	8936
635.119	9064
635.181	10428
635.242	11245
635.304	8745
635.365	12344
635.427	9828
635.488	10001
635.550	8726
635.611	10342
635.673	8164
635.734	12109
635.796	10998
635.857	12539
635.918	10597
635.980	13599
636.041	10728
636.102	13131
636.164	12004
636.225	12302
636.286	10010
636.348	11660
636.409	10241
636.470	9444
636.531	10888
636.593	12777
636.654	12093
636.715	8864
636.776	8471
636.838	9248
636.899	10184
636.960	9414
637.021	7911
637.082	8931
637.143	8586
637.204	7995
637.265	7852
637.326	7541
637.387	8711
637.448	7402
637.509	8113
637.570	8210
637.631	8069
637.692	6766
637.753	5853
637.814	8172
637.875	8134
637.936	9638
637.997	7581
638.058	9454
638.119	8624
638.179	8201
638.240	7062
638.301	7113
638.362	7401
638.423	7809
638.483	10104
638.544	6950
638.605	7663
638.666	6381
638.726	8666
638.787	8482
638.848	6958
638.908	7547
638.969	8359
639.030	8589
639.090	7175
639.151	7679
639.211	9704
639.272	12399
639.332	20705
639.393	13520
639.453	7436
639.514	7838
639.574	7278
639.635	7179
639.695	7658
639.756	6737
639.816	8545
639.877	10651
639.937	19246
639.997	23327
640.058	7434
640.118	6139
640.178	7503
640.239	5831
640.299	6645
640.359	6383
640.420	6730
640.480	6670
640.540	7609
640.600	7646
640.661	7642
640.721	7340
640.781	13195
640.841	9159
640.901	8458
640.961	8075
641.021	9020
641.082	10497
641.142	14438
641.202	9433
641.262	4909
641.322	8196
641.382	5315
641.442	7567
641.502	6286
641.562	6923
641.622	6118
641.682	6684
641.742	6855
641.802	7861
641.861	8538
641.921	7550
641.981	9668
642.041	10495
642.101	11305
642.161	6351
642.221	5598
642.280	6198
642.340	5413
642.400	4851
642.460	7479
642.519	6517
642.579	6416
642.639	6590
642.698	3992
642.758	8024
642.818	6294
642.877	5456
642.937	7109
642.997	9650
643.056	13044
643.116	6749
643.175	8066
643.235	5953
643.294	6735
643.354	6671
643.414	6867
643.473	8215
643.532	8555
643.592	11767
643.651	19082
643.711	33531
643.770	67915
643.830	168578
643.889	334075
643.948	62309
644.008	12299
644.067	9524
644.126	6654
644.186	7146
644.245	7345
644.304	4814
644.363	8270
644.423	4594
644.482	6056
644.541	6829
644.600	5178
644.659	7363
644.719	6964
644.778	10876
644.837	14646
644.896	30888
644.955	64107
645.014	20164
645.073	9570
645.132	7062
645.191	5996
645.250	6448
645.309	7599
645.368	6941
645.427	8827
645.486	9677
645.545	15593
645.604	5902
645.663	6216
645.722	5495
645.781	6316
645.840	7463
645.898	8008
645.957	12041
646.016	14067
646.075	29140
646.134	56669
646.192	161828
646.251	206413
646.310	25544
646.369	9598
646.427	8999
646.486	6168
646.545	6676
646.603	5179
646.662	6231
646.721	6023
646.779	5202
646.838	5126
646.896	6867
646.955	7261
647.014	10492
647.072	15754
647.131	41113
647.189	16701
647.248	5301
647.306	6098
647.365	5942
647.423	4206
647.481	5597
647.540	3817
647.598	4679
647.657	4256
647.715	5602
647.773	3872
647.832	4796
647.890	3644
647.948	4481
648.007	6197
648.065	4417
648.123	3949
648.181	6896
648.240	8125
648.298	6314
648.356	3999
648.414	5574
648.472	4881
648.531	6063
648.589	4889
648.647	4833
648.705	4191
648.763	4797
648.821	4915
648.879	4459
648.937	4979
648.995	5717
649.053	6859
649.111	9552
649.169	13458
649.227	22349
649.285	45591
649.343	124443
649.401	53882
649.459	30473
649.516	19514
649.574	13679
649.632	34155
649.690	35835
649.748	14637
649.806	15622
649.863	23809
649.921	30784
649.979	17036
650.037	5940
650.094	4044
650.152	5066
650.210	3982
650.268	4592
650.325	5514
650.383	5647
650.440	3681
650.498	4578
650.556	3201
650.613	3511
650.671	3995
650.728	4990
650.786	4747
650.843	5407
650.901	2376
650.958	4397
651.016	4400
651.073	3711
651.131	3696
651.188	3179
651.246	3804
651.303	3129
651.360	4154
651.418	4098
651.475	4434
651.532	2694
651.590	4142
651.647	3891
651.704	4595
651.762	3596
651.819	4572
651.876	3800
651.933	3569
651.990	4421
652.048	2816
652.105	3328
652.162	4216
652.219	3656
652.276	3179
652.333	4873
652.390	2665
652.448	3861
652.505	4087
652.562	3157
652.619	4555
652.676	9118
652.733	8185
652.790	3218
652.847	1474
652.904	4101
652.961	2951
653.017	3174
653.074	4107
653.131	3641
653.188	1675
653.245	3735
653.302	3096
653.359	2995
653.415	4271
653.472	3314
653.529	3711
653.586	2861
653.642	2331
653.699	3266
653.756	2668
653.813	2678
653.869	2466
653.926	2707
653.983	2780
654.039	3847
654.096	2456
654.152	4872
654.209	2201
654.266	4582
654.322	3334
654.379	5078
654.435	4851
654.492	5818
654.548	8557
654.605	12806
654.661	5762
654.717	3786
654.774	4490
654.830	3837
654.887	3205
654.943	4189
655.000	4859
655.056	4439
655.112	3592
655.168	2809
655.225	3620
655.281	4463
655.337	7059
655.394	13608
655.450	8604
655.506	8362
655.562	13744
655.618	9945
655.675	2855
655.731	3348
655.787	2915
655.843	4381
655.899	2414
655.955	2917
656.011	2784
656.067	2400
656.123	2967
656.179	3255
656.235	4169
656.291	2296
656.347	3819
656.403	4118
656.459	4597
656.515	4919
656.571	4642
656.627	3852
656.683	3169
656.739	4289
656.795	3462
656.850	3861
656.906	3989
656.962	4784
657.018	2228
657.074	2912
657.129	3172
657.185	4330
657.241	5053
657.297	3176
657.352	3614
657.408	2989
657.464	3909
657.519	4037
657.575	1906
657.630	2657
657.686	3133
657.742	3570
657.797	2558
657.853	3831
657.908	3742
657.964	2263
658.019	3412
658.075	3584
658.130	3102
658.186	2684
658.241	2737
658.297	1883
658.352	2206
658.407	3760
658.463	2199
658.518	3696
658.573	2718
658.629	1910
658.684	2751
658.739	2129
658.795	2627
658.850	3092
658.905	1620
658.960	3242
659.016	2327
659.071	2814
659.126	2906
659.181	3155
659.236	8147
659.291	7480
659.346	4531
659.401	3768
659.457	5075
659.512	6399
659.567	4370
659.622	2795
659.677	2598
659.732	2710
659.787	3760
659.842	4517
659.897	5791
659.952	3357
660.007	3203
660.061	3317
660.116	1841
660.171	2509
660.226	2513
660.281	3682
660.336	1826
660.391	3428
660.445	2215
660.500	3186
660.555	2562
660.610	2779
660.664	3161
660.719	1732
660.774	2844
660.828	3874
660.883	3945
660.938	3388
660.992	2175
661.047	2451
661.101	1971
661.156	3293
661.211	2112
661.265	3002
661.320	2694
661.374	2682
661.429	2068
661.483	3273
661.538	2553
661.592	3791
661.647	3085
661.701	3576
661.755	3234
661.810	2974
661.864	2239
661.919	2462
661.973	2753
662.027	2745
662.081	1571
662.136	2882
662.190	3567
662.244	3760
662.299	2725
662.353	2882
662.407	2319
662.461	3157
662.515	3293
662.569	2718
662.624	3214
662.678	2323
662.732	2817
662.786	2765
662.840	3010
662.894	3329
662.948	2607
663.002	3327
663.056	2663
663.110	1664
663.164	2761
663.218	2340
663.272	3493
663.326	3581
663.380	3128
663.434	2705
663.488	3665
663.542	2967
663.595	3535
663.649	3392
663.703	2939
663.757	3721
663.811	2147
663.864	2486
663.918	3219
663.972	2827
664.026	2739
664.079	2800
664.133	3376
664.187	2579
664.240	2496
664.294	2401
664.348	3222
664.401	2551
664.455	3421
664.508	2980
664.562	2284
664.615	2900
664.669	1974
664.722	3085
664.776	1630
664.829	2449
664.883	3260
664.936	3234
664.990	2969
665.043	3733
665.097	3854
665.150	4198
665.203	2487
665.257	3089
665.310	3313
665.363	3658
665.417	3436
665.470	3365
665.523	2977
665.576	3481
665.630	3006
665.683	3172
665.736	3689
665.789	2797
665.842	2518
665.895	3205
665.949	2706
666.002	3243
666.055	3031
666.108	3952
666.161	2896
666.214	3659
666.267	3568
666.320	4993
666.373	4100
666.426	3575
666.479	3227
666.532	3545
666.585	5069
666.638	5990
666.691	4491
666.744	5565
666.796	4221
666.849	4749
666.902	4090
666.955	2913
667.008	2554
667.060	2674
667.113	2261
667.166	3017
667.219	2334
667.271	3560
667.324	2621
667.377	3342
667.430	3302
667.482	3739
667.535	2983
667.587	4631
667.640	3456
667.693	5031
667.745	8038
667.798	8839
667.850	2920
667.903	3804
667.955	3119
668.008	3536
668.060	4409
668.113	4346
668.165	3547
668.218	4050
668.270	3248
668.322	3783
668.375	2988
668.427	3629
668.479	2872
668.532	4382
668.584	3746
668.636	3692
668.689	3365
668.741	3461
668.793	3051
668.845	3384
668.898	4641
668.950	3289
669.002	3601
669.054	2960
669.106	3260
669.158	4242
669.211	3165
669.263	3495
669.315	5669
669.367	5567
669.419	3428
669.471	4864
669.523	4898
669.575	6941
669.627	5157
669.679	4088
669.731	4559
669.783	4442
669.835	5495
669.886	4367
669.938	4047
669.990	3521
670.042	2824
670.094	3404
670.146	2795
670.197	4759
670.249	4747
670.301	5847
670.353	7729
670.404	12115
670.456	15937
670.508	26514
670.560	47983
670.611	86261
670.663	156097
670.715	402807
670.766	527207
670.818	109900
670.869	21846
670.921	13697
670.972	9637
671.024	7310
671.075	6391
671.127	6036
671.178	3371
671.230	4489
671.281	4342
671.333	4169
671.384	4589
671.436	4482
671.487	5356
671.538	5000
671.590	5988
671.641	8865
671.692	11514
671.744	18800
671.795	12513
671.846	6980
671.897	4388
671.949	4231
672.000	3979
672.051	4084
672.102	3783
672.153	3500
672.204	4208
672.256	3929
672.307	3247
672.358	4700
672.409	2892
672.460	2656
672.511	2442
672.562	2660
672.613	2715
672.664	2851
672.715	2818
672.766	3261
672.817	2152
672.868	2916
672.919	2944
672.970	2674
673.021	3092
673.071	2478
673.122	2523
673.173	2868
673.224	2538
673.275	2523
673.326	3494
673.376	2508
673.427	2287
673.478	2206
673.528	2889
673.579	2287
673.630	2378
673.680	4138
673.731	2337
673.782	2657
673.832	2790
673.883	3160
673.934	1987
673.984	2518
674.035	2345
674.085	3304
674.136	3334
674.186	3526
674.237	4663
674.287	8192
674.338	3080
674.388	3360
674.438	2366
674.489	3004
674.539	4082
674.589	2824
674.640	3189
674.690	3062
674.740	2724
674.791	4557
674.841	2582
674.891	2891
674.942	2716
674.992	2721
675.042	2156
675.092	2280
675.142	1745
675.193	2459
675.243	1746
675.293	3239
675.343	2387
675.393	2116
675.443	2578
675.493	2735
675.543	2056
675.593	2600
675.643	2790
675.693	3018
675.743	1965
675.793	2612
675.843	2676
675.893	3292
675.943	1666
675.993	2767
676.043	2375
676.093	2553
676.142	2389
676.192	1918
676.242	1956
676.292	2235
676.341	2706
676.391	2602
676.441	1816
676.491	2364
676.540	1287
676.590	2228
676.640	2266
676.689	2626
676.739	715
676.789	1592
676.838	1777
676.888	1726
676.937	2244
676.987	1029
677.037	1464
677.086	1557
677.136	2085
677.185	1963
677.235	1046
677.284	2235
677.333	2383
677.383	836
677.432	1872
677.482	1258
677.531	2213
677.580	2032
677.630	1357
677.679	1964
677.728	2000
677.778	1857
677.827	1541
677.876	2116
677.925	1121
677.975	1947
678.024	2006
678.073	1392
678.122	1754
678.171	2343
678.220	1968
678.269	2717
678.319	2669
678.368	2790
678.417	1736
678.466	2048
678.515	2353
678.564	2173
678.613	2189
678.662	2040
678.711	2173
678.760	1977
678.809	1778
678.857	2318
678.906	2331
678.955	2424
679.004	2054
679.053	2620
679.102	2170
679.151	2023
679.199	1703
679.248	1839
679.297	1130
679.346	2715
679.394	1620
679.443	2054
679.492	2501
679.540	2085
679.589	1995
679.638	1939
679.686	1289
679.735	2665
679.784	1650
679.832	1692
679.881	1546
679.929	1083
679.978	956
680.026	2248
680.075	1306
680.123	1649
680.172	1400
680.220	1049
680.268	1619
680.317	2051
680.365	1409
680.414	2100
680.462	1373
680.510	2132
680.559	1204
680.607	857
680.655	1677
680.703	1776
680.752	1600
680.800	1848
680.848	1757
680.896	837
680.945	1169
680.993	1579
681.041	1922
681.089	1670
681.137	603
681.185	1411
681.233	1472
681.258	1567
681.281	1623
681.329	644
681.377	1199
681.380	1239
681.425	1336
681.473	2496
681.502	2016
681.521	1614
681.569	2864
681.617	1673
681.624	1809
681.665	2447
681.713	2369
681.745	2415
681.761	2382
681.809	2186
681.857	2455
681.867	2393
681.904	2033
681.952	2688
681.989	2419
682.000	2298
682.048	2351
682.096	2463
682.111	2634
682.143	2913
682.191	2701
682.233	3113
682.239	3141
682.286	2878
682.334	2433
682.354	2615
682.382	2812
682.430	2981
682.476	3105
682.477	3076
682.525	2987
682.572	3142
682.598	3143
682.620	3123
682.667	3239
682.715	3679
682.720	3683
682.763	3412
682.810	3352
682.841	3154
682.857	3009
682.905	3716
682.952	3571
682.963	3635
683.000	3692
683.047	3512
683.085	5140
683.095	5564
683.142	4067
683.190	4371
683.206	4040
683.237	3297
683.284	4778
683.328	4480
683.332	4439
683.379	4430
683.426	3787
683.449	3983
683.473	4130
683.521	3658
683.568	4447
683.571	4445
683.615	4148
683.662	4700
683.693	4513
683.709	4347
683.757	4698
683.804	4768
683.814	4769
683.851	4721
683.898	4906
683.936	5752
683.945	5932
683.992	5233
684.039	6026
684.057	5655
684.086	4990
684.133	5612
684.179	5403
684.180	5374
684.227	6173
684.274	6269
684.300	6049
684.321	5797
684.368	4812
684.415	5949
684.422	5913
684.462	5562
684.509	4431
684.543	4841
684.556	4999
684.603	5728
684.649	4844
684.665	5150
684.696	5777
684.743	5631
684.786	6465
684.790	6526
684.837	6088
684.883	6900
684.908	7228
684.930	7388
684.977	7998
685.023	6927
685.029	6936
685.070	6727
685.117	6109
685.150	6367
685.164	6563
685.210	7438
685.257	8054
685.272	7761
685.303	6986
685.350	8056
685.393	7862
685.396	7845
685.443	8265
685.490	8508
685.514	8491
685.536	8310
685.583	7721
685.629	8235
685.636	8158
685.675	7623
685.722	7996
685.757	7973
685.768	7981
685.815	8148
685.861	7835
685.878	8228
685.908	9017
685.954	8529
686.000	10042
686.000	10070
686.047	10785
686.093	12466
686.121	12910
686.139	12281
686.185	11042
686.232	9196
686.242	9037
686.278	9012
686.324	8536
686.363	8403
686.370	8453
686.416	7760
686.463	8803
686.484	8560
686.509	8245
686.555	8182
686.601	8601
686.606	8616
686.647	8718
686.693	8279
686.727	8546
686.739	8669
686.785	8185
686.831	8817
686.848	8966
686.877	8915
686.923	8840
686.969	7664
686.969	7660
687.015	8728
687.061	8444
687.090	9146
687.107	9334
687.153	8723
687.199	8699
687.211	8441
687.245	8270
687.291	9637
687.332	10120
687.336	10127
687.382	10123
687.428	9487
687.453	9494
687.474	9351
687.520	9504
687.565	9612
687.574	9387
687.611	8814
687.657	8897
687.695	9042
687.702	9160
687.748	10696
687.794	11851
687.816	11787
687.839	11032
687.885	9980
687.931	9568
687.937	9489
687.976	9735
688.022	9434
688.058	9852
688.067	9929
688.113	9667
688.158	8837
688.179	8817
688.204	8961
688.249	9935
688.295	10062
688.300	10036
688.340	10001
688.386	10709
688.421	10800
688.431	10731
688.477	10561
688.522	9821
688.542	10020
688.567	10395
688.613	10138
688.658	10379
688.663	10368
688.703	10219
688.749	10284
688.784	10382
688.794	10459
688.839	10020
688.884	10288
688.905	10418
688.930	10538
688.975	10248
689.020	10286
689.026	10249
689.065	10278
689.110	10677
689.146	10597
689.155	10557
689.201	10890
689.246	10801
689.267	10878
689.291	10897
689.336	11091
689.381	10582
689.388	10463
689.426	10220
689.471	10961
689.509	11054
689.516	11014
689.561	10713
689.606	9715
689.630	10019
689.651	10557
689.696	10515
689.741	10741
689.750	10842
689.785	11102
689.830	11211
689.871	10966
689.875	10938
689.920	10710
689.965	10333
689.992	10348
690.010	10603
690.054	11279
690.099	12144
690.112	12215
690.144	12120
690.189	11563
690.233	11396
690.233	11413
690.278	11604
690.323	12180
690.354	12343
690.367	12432
690.412	12325
690.457	12774
690.474	12838
690.501	13132
690.546	13196
690.590	13936
690.595	13932
690.635	14283
690.680	14943
690.716	15564
690.724	15955
690.769	18084
690.813	19993
690.836	20720
690.857	22955
690.902	28412
690.946	34144
690.957	35634
690.991	47835
691.035	64319
691.077	79549
691.080	79690
691.124	76078
691.168	73448
691.198	71746
691.213	67236
691.257	54508
691.301	41483
691.318	36455
691.346	33084
691.390	27104
691.434	21798
691.439	21112
691.478	19860
691.522	18792
691.559	17618
691.567	17557
691.611	17599
691.655	16708
691.680	16459
691.699	16149
691.743	15296
691.787	14463
691.800	14151
691.831	14236
691.875	14790
691.919	15231
691.921	15196
691.964	14852
692.008	14902
692.041	14866
692.052	14886
692.096	15086
692.139	15242
692.162	15084
692.183	14722
692.227	14767
692.271	14249
692.282	14155
692.315	14714
692.359	14917
692.402	15658
692.403	15691
692.447	15430
692.490	15857
692.523	15870
692.534	15868
692.578	15667
692.622	15447
692.643	15427
692.666	15398
692.709	15108
692.753	14746
692.763	14675
692.797	14618
692.840	14401
692.884	14006
692.884	14040
692.928	14822
692.971	15481
693.004	15919
693.015	16032
693.059	16388
693.102	16946
693.124	16940
693.146	17166
693.189	17916
693.233	18506
693.245	18657
693.276	19489
693.320	20633
693.363	21790
693.365	21781
693.407	23467
693.450	25481
693.485	26820
693.493	27787
693.537	32850
693.580	37762
693.605	40623
693.624	45745
693.667	57762
693.710	69954
693.725	74340
693.753	97634
693.797	134602
693.840	171532
693.845	175282
693.883	168511
693.926	159992
693.966	153520
693.970	150820
694.013	119601
694.056	88761
694.086	67115
694.099	63818
694.142	53210
694.185	42326
694.206	37153
694.229	35627
694.272	32566
694.315	29674
694.326	28816
694.358	27456
694.401	25447
694.444	23553
694.446	23409
694.487	22981
694.530	22192
694.566	21606
694.573	21367
694.616	19303
694.659	17742
694.686	16573
694.702	16543
694.745	16255
694.787	16222
694.806	16009
694.830	15925
694.873	15980
694.916	15920
694.926	15832
694.959	15806
695.002	15934
695.044	15891
695.046	15867
695.087	15950
695.130	15508
695.166	15300
695.172	15380
695.215	15543
695.258	15849
695.286	15873
695.301	15752
695.343	15476
695.386	15095
695.406	14847
695.428	14759
695.471	14696
695.514	14511
695.526	14409
695.556	14705
695.599	15301
695.641	15693
695.646	15715
695.684	15542
695.726	15151
695.766	14568
695.769	14583
695.811	14607
695.854	14597
695.886	14455
695.896	14454
695.938	14125
695.981	13987
696.005	13973
696.023	14301
696.065	14688
696.108	15480
696.125	15587
696.150	15542
696.192	15612
696.235	15699
696.245	15651
696.277	15532
696.319	15358
696.361	15318
696.365	15256
696.404	15614
696.446	16214
696.485	16587
696.488	16614
696.530	16398
696.572	16237
696.604	15970
696.614	15879
696.656	15520
696.698	14946
696.724	14622
696.740	14572
696.783	14346
696.825	14099
696.844	13967
696.867	14183
696.909	14505
696.951	14696
696.964	14767
696.992	14738
697.034	14548
697.076	14297
697.083	14229
697.118	14361
697.160	14449
697.202	14659
697.203	14622
697.244	14419
697.286	14181
697.323	13833
697.327	13888
697.369	14179
697.411	14419
697.442	14568
697.453	14629
697.494	14651
697.536	14714
697.562	14739
697.578	14895
697.620	15110
697.661	15410
697.682	15479
697.703	15744
697.744	16187
697.786	16813
697.801	16934
697.828	17129
697.869	17338
697.911	17613
697.921	17624
697.952	16901
697.994	15910
698.035	14906
698.040	14745
698.077	14761
698.118	14671
698.160	14619
698.160	14576
698.201	14521
698.243	14327
698.279	14188
698.284	14266
698.325	14604
698.367	14898
698.399	15082
698.408	15058
698.449	14771
698.491	14475
698.518	14224
698.532	14353
698.573	14666
698.614	14955
698.638	15072
698.656	14977
698.697	14677
698.738	14356
698.757	14169
698.779	14505
698.820	15049
698.862	15627
698.877	15790
698.903	16009
698.944	16295
698.985	16578
698.996	16612
699.026	16427
699.067	16105
699.116	15679
699.235	14837
699.354	15226
699.474	15191
699.593	18985
699.713	17560
699.832	15763
699.951	16936
700.070	16043
700.190	14767
700.309	14744
700.428	17476
700.547	15638
700.667	14703
700.786	18928
700.905	14525
701.024	17342
701.143	16334
701.262	14721
701.381	12868
701.500	14673
701.619	16953
701.738	13692
701.857	12915
701.976	13053
702.095	12828
702.214	16202
702.333	16196
702.452	14228
702.571	13347
702.690	13271
702.809	12338
702.928	13038
703.047	12877
703.165	13835
703.284	12577
703.403	12986
703.522	14979
703.640	15637
703.759	19656
703.878	28178
703.997	13832
704.115	13319
704.234	13296
704.353	12776
704.471	12568
704.590	12874
704.708	11054
704.827	12377
704.946	12261
705.064	15100
705.183	12341
705.301	15755
705.420	21364
705.538	19413
705.656	16944
705.775	19259
705.893	36265
706.012	40325
706.130	17292
706.249	16910
706.367	16594
706.485	18971
706.604	17563
706.722	18407
706.840	24164
706.958	24518
707.077	17303
707.195	16148
707.313	14458
707.431	14869
707.549	14535
707.668	15738
707.786	15940
707.904	14536
708.022	14550
708.140	14076
708.258	13693
708.376	15125
708.494	14644
708.612	16657
708.730	23313
708.848	21383
708.966	20557
709.084	18307
709.202	17471
709.320	19019
709.438	17655
709.556	18405
709.674	17700
709.791	17780
709.909	16332
710.027	17216
710.145	16803
710.263	18064
710.380	16787
710.498	17039
710.616	18012
710.733	18224
710.851	18587
710.969	19797
711.086	17742
711.204	17478
711.322	16650
711.439	18411
711.557	19254
711.674	17996
711.792	17374
711.909	19248
712.027	19520
712.144	16152
712.262	16409
712.379	19325
712.497	25549
712.614	24504
712.732	20275
712.849	20246
712.966	23085
713.084	27028
713.201	20680
713.318	21883
713.436	19432
713.553	20247
713.670	20710
713.787	24587
713.905	23921
714.022	20449
714.139	19366
714.256	21398
714.373	23493
714.490	30884
714.608	60528
714.725	218232
714.842	183531
714.959	25285
715.076	19925
715.193	18687
715.310	17702
715.427	17797
715.544	15977
715.661	17959
715.778	17714
715.895	19322
716.011	19000
716.128	17899
716.245	17545
716.362	20471
716.479	20568
716.596	17741
716.713	15979
716.829	15987
716.946	16046
717.063	15910
717.180	14084
717.296	15087
717.413	15549
717.530	16101
717.646	15571
717.763	14822
717.880	14351
717.996	14950
718.113	15064
718.229	15203
718.346	13233
718.462	15667
718.579	18867
718.695	33159
718.812	25559
718.928	25937
719.045	16627
719.161	14646
719.277	13622
719.394	14075
719.510	14821
719.626	14089
719.743	17679
719.859	17615
719.975	22385
720.092	60571
720.208	112390
720.324	20667
720.440	15022
720.557	18151
720.673	27752
720.789	42124
720.905	97123
721.021	24555
721.137	13348
721.253	14806
721.369	15492
721.486	18230
721.602	26614
721.718	13185
721.834	11687
721.950	12394
722.066	12341
722.181	11387
722.297	13376
722.413	10874
722.529	11720
722.645	11630
722.761	11347
722.877	11470
722.993	10219
723.108	11849
723.224	11653
723.340	12022
723.456	10824
723.571	11437
723.687	9928
723.803	10625
723.918	10013
724.034	11342
724.150	11606
724.265	14781
724.381	34877
724.497	39516
724.612	10756
724.728	10636
724.843	10608
724.959	15337
725.074	33219
725.190	34026
725.305	13063
725.421	12022
725.536	9577
725.651	9870
725.767	9121
725.882	9635
725.997	9241
726.113	9888
726.228	9082
726.343	8563
726.459	8644
726.574	10238
726.689	8173
726.804	9950
726.920	9387
727.035	10416
727.150	10113
727.265	9881
727.380	10424
727.495	9429
727.610	8509
727.725	9644
727.841	11310
727.956	22065
728.071	16881
728.186	10559
728.301	7335
728.416	9426
728.531	8011
728.645	7731
728.760	9045
728.875	9900
728.990	8348
729.105	8886
729.220	9672
729.335	9532
729.449	7865
729.564	7583
729.679	7381
729.794	8400
729.908	9818
730.023	8846
730.138	6800
730.253	7228
730.367	6711
730.482	8196
730.596	7993
730.711	9169
730.826	7740
730.940	8039
731.055	7518
731.169	7698
731.284	6113
731.398	7815
731.513	8877
731.627	9519
731.742	10092
731.856	10952
731.970	7357
732.085	8271
732.199	7833
732.313	11905
732.428	22843
732.542	55041
732.656	29002
732.771	10092
732.885	8641
732.999	9120
733.113	7779
733.227	8758
733.342	6604
733.456	7250
733.570	5715
733.684	7468
733.798	7098
733.912	6663
734.026	5665
734.140	7334
734.254	8357
734.368	18325
734.482	20632
734.596	6779
734.710	6413
734.824	6536
734.938	5820
735.052	6698
735.166	8575
735.280	7199
735.393	6922
735.507	7784
735.621	11137
735.735	23213
735.849	8212
735.962	6119
736.076	7227
736.190	8490
736.303	10838
736.417	15292
736.531	6143
736.644	7380
736.758	5478
736.872	5872
736.985	4972
737.099	5702
737.212	5454
737.326	5946
737.439	5377
737.553	5819
737.666	5767
737.780	5285
737.893	5360
738.007	6207
738.120	5490
738.233	6159
738.347	5118
738.460	6548
738.573	5114
738.687	6068
738.800	5707
738.913	8791
739.026	6361
739.140	6012
739.253	5752
739.366	5107
739.479	4748
739.592	4974
739.705	5794
739.818	5712
739.932	4981
740.045	5717
740.158	5305
740.271	6842
740.384	6505
740.497	6318
740.610	6101
740.723	5627
740.836	7337
740.949	6758
741.062	9475
741.174	7718
741.287	6381
741.400	5279
741.513	5947
741.626	5909
741.739	6207
741.851	6496
741.964	5250
742.077	5298
742.189	5337
742.302	7136
742.415	5893
742.527	6345
742.640	5017
742.753	4905
742.865	4246
742.978	5027
743.090	5307
743.203	5434
743.316	4863
743.428	6077
743.541	5288
743.653	4985
743.766	5003
743.878	5120
743.990	8391
744.103	7974
744.215	5120
744.327	5543
744.440	7007
744.552	11087
744.664	5957
744.777	5716
744.889	4629
745.001	5240
745.113	4675
745.226	5072
745.338	4945
745.450	6052
745.562	4506
745.674	5676
745.786	5720
745.898	5026
746.010	4122
746.122	4890
746.234	4304
746.347	5880
746.459	4522
746.570	5775
746.682	5080
746.794	4718
746.906	4259
747.018	4177
747.130	4236
747.242	5519
747.354	4846
747.466	5693
747.577	4503
747.689	5541
747.801	3945
747.913	4311
748.024	4638
748.136	4441
748.248	4138
748.359	4876
748.471	4106
748.583	4420
748.694	4354
748.806	6718
748.918	7586
749.029	5723
749.141	4844
749.252	5106
749.364	6276
749.475	13045
749.587	8898
749.698	6180
749.809	4043
749.921	4587
750.032	3374
750.144	4409
750.255	3484
750.366	4818
750.478	4547
750.589	5638
750.700	4897
750.811	5568
750.923	6607
751.034	14674
751.145	13598
751.256	4248
751.367	4136
751.479	4071
751.590	3396
751.701	4366
751.812	3527
751.923	4367
752.034	3598
752.145	4800
752.256	3890
752.367	4723
752.478	3886
752.589	4406
752.700	3575
752.811	4056
752.922	4720
753.032	4818
753.143	5919
753.254	4567
753.365	4519
753.476	4239
753.586	3680
753.697	4477
753.808	4202
753.919	4855
754.029	3670
754.140	4072
754.251	4138
754.361	4479
754.472	3852
754.582	4319
754.693	4705
754.804	4923
754.914	3784
755.025	3872
755.135	3432
755.246	4264
755.356	3676
755.466	4229
755.577	5233
755.687	4797
755.798	4073
755.908	4210
756.018	4195
756.129	4670
756.239	4835
756.349	5209
756.460	3813
756.570	4936
756.680	4121
756.790	4729
756.900	5174
757.011	4553
757.121	3434
757.231	4285
757.341	4165
757.451	3793
757.561	4123
757.671	4586
757.781	3826
757.891	5795
758.001	5917
758.111	5031
758.221	5130
758.331	5793
758.441	5358
758.551	8467
758.661	5953
758.771	5474
758.880	5193
758.990	5569
759.100	5194
759.210	5434
759.320	5396
759.429	5644
759.539	5537
759.649	5771
759.758	5396
759.868	7151
759.978	5134
760.087	6487
760.197	5865
760.307	6460
760.416	6151
760.526	5501
760.635	6621
760.745	6726
760.854	6217
760.964	6521
761.073	6746
761.182	6304
761.292	6446
761.401	7902
761.511	6632
761.620	6829
761.729	7485
761.839	8378
761.948	7845
762.057	8703
762.166	7962
762.276	7736
762.385	8699
762.494	9127
762.603	8498
762.712	9016
762.822	8242
762.931	9746
763.040	8923
763.149	9849
763.258	10020
763.367	12180
763.476	11212
763.585	11423
763.694	13019
763.803	14180
763.912	14370
764.021	15153
764.130	14951
764.238	17012
764.347	17776
764.456	18998
764.565	20962
764.674	22927
764.783	24070
764.891	26485
765.000	31730
765.109	35349
765.217	40663
765.326	50206
765.435	59431
765.543	70131
765.652	89212
765.761	116399
765.869	159257
765.978	232831
766.086	356617
766.195	573040
766.303	848133
766.412	726690
766.520	734719
766.629	764486
766.737	484489
766.846	301285
766.954	200696
767.062	146081
767.171	109800
767.279	84223
767.387	64287
767.496	55041
767.604	47180
767.712	41170
767.820	35578
767.928	33624
768.037	30490
768.145	29354
768.253	27606
768.361	27499
768.469	27914
768.577	28303
768.685	29140
768.793	31469
768.901	35923
769.009	41291
769.117	49545
769.225	65620
769.333	90486
769.441	141436
769.549	236501
769.657	444997
769.765	739140
769.873	654449
769.981	657631
770.088	370963
770.196	201583
770.304	128460
770.412	89520
770.519	66636
770.627	51420
770.735	42587
770.842	34984
770.950	31761
771.058	25609
771.165	24141
771.273	21166
771.380	20241
771.488	17476
771.595	16013
771.703	15205
771.810	15091
771.918	13027
772.025	11891
772.133	12168
772.240	11400
772.348	11012
772.455	11559
772.562	9312
772.670	9931
772.777	9833
772.884	8013
772.991	7878
773.099	8327
773.206	7400
773.313	8371
773.420	7346
773.528	6763
773.635	6891
773.742	7004
773.849	6493
773.956	7105
774.063	5958
774.170	5447
774.277	7764
774.384	6002
774.491	5681
774.598	6459
774.705	6175
774.812	7803
774.919	6592
775.026	6139
775.133	5216
775.239	6125
775.346	4589
775.453	5628
775.560	4439
775.667	5197
775.773	4031
775.880	5629
775.987	4752
776.093	5892
776.200	4432
776.307	4984
776.413	4144
776.520	3760
776.627	4529
776.733	4652
776.840	3392
776.946	5427
777.053	4635
777.159	5820
777.266	3199
777.372	5788
777.478	5095
777.585	4963
777.691	4372
777.798	4894
777.904	5984
778.010	7886
778.117	5689
778.223	4204
778.329	3171
778.435	3751
778.542	3901
778.648	3920
778.754	2662
778.860	3702
778.966	4235
779.072	4036
779.178	3146
779.284	4318
779.391	3853
779.497	3966
779.603	7048
779.708	7933
779.815	21331
779.920	76478
780.026	128238
780.132	18245
780.238	5795
780.344	4456
780.450	4635
780.556	3774
780.661	3751
780.767	3392
780.873	2811
780.979	4499
781.085	2917
781.190	3481
781.296	2121
781.402	2232
781.507	2332
781.613	4151
781.719	1889
781.824	2428
781.930	2326
782.035	3426
782.141	2981
782.246	2394
782.352	2899
782.457	2404
782.563	2949
782.668	3174
782.773	2546
782.879	3137
782.984	3129
783.090	4903
783.195	6437
783.300	4380
783.405	3799
783.511	2914
783.616	3702
783.721	3059
783.826	2355
783.932	3584
784.037	3353
784.142	3774
784.247	2621
784.352	2943
784.457	2655
784.562	2936
784.667	2735
784.772	2801
784.877	1607
784.982	2279
785.087	2226
785.192	3454
785.297	2677
785.402	2513
785.507	2472
785.611	2985
785.716	1872
785.821	2351
785.926	1116
786.031	2560
786.135	2499
786.240	2026
786.345	706
786.450	2727
786.554	1951
786.659	1062
786.763	859
786.868	2779
786.973	2708
787.077	1982
787.182	1049
787.286	2420
787.391	1171
787.495	1481
787.600	1244
787.704	1939
787.809	2326
787.913	1670
788.017	2139
788.122	1747
788.226	1515
788.330	1978
788.435	2084
788.539	2238
788.643	1396
788.747	1638
788.852	1823
788.956	1032
789.060	1988
789.164	1662
789.268	852
789.372	2681
789.476	1764
789.580	1768
789.684	1459
789.788	1826
789.892	1170
789.996	2192
790.100	1213
790.204	1878
790.308	2240
790.412	2075
790.516	2075
790.620	2153
790.724	2039
790.828	2179
790.931	798
791.035	3364
791.139	2185
791.242	1638
791.346	2900
791.450	2417
791.554	2126
791.657	1333
791.761	2238
791.864	3022
791.968	1890
792.072	2142
792.175	1902
792.279	1867
792.382	2107
792.486	3202
792.589	2016
792.693	3004
792.796	1069
792.899	2985
793.003	1542
793.106	1304
793.209	1557
793.313	2715
793.416	762
793.519	3082
793.623	4056
793.726	5748
793.829	2314
793.932	3291
794.035	1277
794.138	2894
794.242	2675
794.345	4108
794.448	6462
794.551	13057
794.654	40721
794.757	72080
794.860	12505
794.963	3997
795.066	1113
795.169	2485
795.272	726
795.375	3447
795.477	1508
795.580	1963
795.683	628
795.786	1455
795.889	613
795.991	2624
796.094	2532
796.197	1749
796.300	2259
796.402	1334
796.505	786
796.608	1105
796.710	2264
796.813	1600
796.915	633
797.018	2316
797.120	1766
797.223	-202
797.326	1863
797.428	1202
797.530	865
797.633	1564
797.735	3293
797.838	6575
797.940	4241
798.042	1135
798.145	546
798.247	1910
798.349	481
798.452	1490
798.554	503
798.656	316
798.758	1277
798.860	2524
798.962	780
799.065	1532
799.167	500
799.269	2536
799.371	2334
799.473	2427
799.575	1661
799.677	3910
799.779	3921
799.881	3907
799.983	1949
800.085	1718
800.187	1985
800.289	1330
800.390	1311
800.492	2327
800.594	1260
800.696	1112
800.798	1541
800.899	591
801.001	-83
801.103	1439
801.205	214
801.306	1299
801.408	708
801.509	1066
801.611	560
801.713	2347
801.814	1373
801.916	960
802.017	520
802.119	416
802.220	1865
802.322	-43
802.423	4610
802.525	1841
802.626	679
802.727	1198
802.829	1022
802.930	15
803.031	2588
803.133	1531
803.234	319
803.335	598
803.436	-161
803.538	1264
803.639	-523
803.740	1482
803.841	-289
803.942	681
804.043	1295
804.144	958
804.245	1023
804.346	921
804.447	1039
804.548	3319
804.649	2644
804.750	1184
804.851	656
804.952	276
805.053	867
805.154	150
805.255	1346
805.355	879
805.456	498
805.557	604
805.658	278
805.758	1671
805.859	973
805.960	805
806.061	253
806.161	1652
806.262	729
806.362	855
806.463	310
806.564	1590
806.664	1329
806.765	2436
806.865	1895
806.966	1611
807.066	-71
807.166	1190
807.267	1675
807.367	930
807.468	1158
807.568	-378
807.668	1180
807.769	588
807.869	-143
807.969	1179
808.069	673
808.170	611
808.270	140
808.370	1295
808.470	2088
808.570	948
808.670	-996
808.770	1439
808.870	36
808.970	716
809.070	319
809.170	418
809.271	703
809.370	881
809.470	1434
809.570	213
809.670	-86
809.770	851
809.870	588
809.970	828
810.070	559
810.169	809
810.269	-1721
810.369	1414
810.469	-359
810.568	662
810.668	401
810.768	832
810.867	377
810.967	475
811.066	-564
811.166	352
811.265	658
811.365	-294
811.464	-711
811.564	858
811.663	122
811.763	-382
811.862	689
811.962	1035
812.061	-633
812.160	-300
812.260	446
812.359	1083
812.458	633
812.557	3457
812.657	4026
812.756	1675
812.855	41
812.954	241
813.053	635
813.153	528
813.252	-858
813.351	-167
813.450	-339
813.549	-272
813.648	469
813.747	908
813.846	-18
813.945	-387
814.044	537
814.143	779
814.242	427
814.341	-125
814.439	273
814.538	1222
814.637	-89
814.736	647
814.835	139
814.933	146
815.032	-72
815.131	307
815.229	-490
815.328	1049
815.427	-245
815.525	1626
815.624	23
815.722	856
815.821	14
815.919	261
816.018	260
816.116	990
816.215	17
816.313	447
816.412	90
816.510	802
816.609	1294
816.707	1297
816.805	264
816.904	276
817.002	753
817.100	1147
817.198	1041
817.296	1350
817.395	690
817.493	2611
817.591	358
817.689	2986
817.787	2522
817.885	5755
817.983	11782
818.081	22638
818.179	54534
818.277	138854
818.375	121922
818.473	34415
818.571	13580
818.669	8801
818.767	7303
818.865	7083
818.963	8880
819.061	12412
819.158	21692
819.256	49009
819.354	117029
819.452	263415
819.549	172009
819.647	48928
819.745	18422
819.842	11992
819.940	6459
820.038	5187
820.135	3634
820.233	4246
820.330	2485
820.428	1226
820.525	2696
820.623	1721
820.720	734
820.818	1083
820.915	1110
821.012	1131
821.110	535
821.207	1733
821.304	71
821.402	1183
821.499	1167
821.596	1281
821.693	946
821.791	1181
821.888	1977
821.985	7261
822.082	3631
822.179	935
822.276	596
822.373	863
822.470	398
822.567	1404
822.664	472
822.761	1504
822.858	-498
822.955	1133
823.052	495
823.149	407
823.246	56
823.343	99
823.440	110
823.536	-82
823.633	-714
823.730	-128
823.827	341
823.923	644
824.020	452
824.117	705
824.213	-1020
824.310	618
824.407	-17
824.503	290
824.600	161
824.696	602
824.793	707
824.889	-550
824.986	-590
825.082	133
825.179	-417
825.275	-535
825.371	-865
825.468	754
825.564	-577
825.660	324
825.757	-475
825.853	1264
825.949	-1091
826.045	168
826.142	-502
826.238	388
826.334	-330
826.430	-1012
826.526	300
826.622	118
826.718	-321
826.814	-895
826.910	1043
827.006	-383
827.102	-434
827.198	1558
827.294	-413
827.390	259
827.486	-94
827.582	-621
827.678	-840
827.774	591
827.869	-1185
827.965	1079
828.061	-405
828.157	-301
828.252	-700
828.348	-713
828.444	472
828.539	-326
828.635	-424
828.731	324
828.826	-567
828.922	397
829.017	-911
829.113	830
829.208	-121
829.304	-595
829.399	1044
829.495	-539
829.590	964
829.685	-456
829.781	-175
829.876	29
829.971	-476
830.066	435
830.162	-642
830.257	-410
830.352	-1203
830.447	1224
830.543	881
830.638	-504
830.733	821
830.828	26
830.923	-363
831.018	97
831.113	53
831.208	379
831.303	-22
831.398	-14
831.493	-438
831.588	176
831.683	-1013
831.778	706
831.873	-428
831.967	555
832.062	-912
832.157	-542
832.252	441
832.346	-238
832.441	702
832.536	1590
832.631	5535
832.725	3989
832.820	431
832.914	-807
833.009	23
833.104	526
833.198	787
833.293	-504
833.387	347
833.482	441
833.576	-1799
833.670	228
833.765	-43
833.859	138
833.954	334
834.048	-12
834.142	56
834.237	-56
834.331	-678
834.425	58
834.519	-660
834.613	559
834.708	-551
834.802	431
834.896	-255
834.990	238
835.084	864
835.178	-505
835.272	-784
835.366	-697
835.460	-1
835.554	208
835.648	-505
835.742	-1027
835.836	162
835.930	-985
836.024	-240
836.117	1353
836.211	-34
836.305	2160
836.399	3150
836.493	74
836.586	38
836.680	91
836.774	-451
836.867	227
836.961	-1154
837.055	-231
837.148	-1085
837.242	32
837.335	-848
837.429	-253
837.522	-294
837.616	848
837.709	3836
837.803	2326
837.896	100
837.989	28
838.083	2147
838.176	6677
838.269	4635
838.363	1434
838.456	-379
838.549	1448
838.642	2726
838.735	6563
838.829	1655
838.922	-87
839.015	-677
839.108	-774
839.201	-318
839.294	-320
839.387	-49
839.480	10
839.573	1356
839.666	2400
839.759	-365
839.852	-476
839.945	-108
840.038	-266
840.131	-567
840.223	-219
840.316	219
840.409	-343
840.502	-1384
840.594	51
840.687	-1550
840.780	444
840.873	-295
840.965	111
841.058	934
841.150	4669
841.243	2355
841.336	563
841.428	-593
841.521	314
841.613	-514
841.706	1213
841.798	145
841.890	378
841.983	-700
842.075	-179
842.167	-471
842.260	843
842.352	1439
842.444	2630
842.537	5369
842.629	9024
842.721	1361
842.813	316
842.905	-1122
842.997	-111
843.090	508
843.182	2702
843.274	6254
843.366	15411
843.458	29274
843.550	16993
843.642	1409
843.734	1092
843.826	925
843.918	1356
844.009	305
844.101	190
844.193	-651
844.285	-1067
844.377	-94
844.469	669
844.560	-564
844.652	187
844.744	209
844.835	-495
844.927	252
845.019	370
845.110	132
845.202	-306
845.293	157
845.385	-213
845.476	-562
845.568	1503
845.659	-608
845.751	500
845.842	-1932
845.934	-625
846.025	-539
846.116	-89
846.208	-1045
846.299	-436
846.390	-680
846.482	632
846.573	123
846.664	859
846.755	1520
846.846	2603
846.937	-1611
847.029	-909
847.120	-467
847.211	-504
847.302	25
847.393	-1215
847.484	-506
847.575	-268
847.666	-1461
847.757	76
847.847	-315
847.938	951
848.029	-1689
848.120	-915
848.211	38
848.302	-801
848.392	-669
848.483	45
848.574	-1067
848.664	-1149
848.755	-642
848.846	-364
848.936	-494
849.027	53
849.118	-772
849.208	489
849.299	854
849.389	576
849.480	1830
849.570	3983
849.661	5820
849.751	10626
849.841	2881
849.932	-20
850.022	-1243
850.112	584
850.203	-943
850.293	-18
850.383	-1030
850.474	-585
850.564	-786
850.654	-752
850.744	-1237
850.834	-339
850.924	-601
851.014	473
851.104	-466
851.194	-97
851.284	309
851.374	790
851.464	287
851.554	1167
851.644	-360
851.734	1870
851.824	46
851.914	-606
852.004	125
852.094	-465
852.183	-689
852.273	359
852.363	-640
852.452	210
852.542	-836
852.632	-220
852.721	-1424
852.811	-785
852.901	-535
852.990	-340
853.080	-1027
853.169	-14
853.259	-748
853.348	-880
853.438	-262
853.527	1144
853.617	940
853.706	2593
853.795	4457
853.885	13094
853.974	24531
854.063	48783
854.152	76785
854.242	24180
854.331	2527
854.420	691
854.509	407
854.598	492
854.687	576
854.777	567
854.866	-841
854.955	-102
855.044	-348
855.133	-299
855.222	-1012
855.311	-565
855.400	-146
855.488	-242
855.577	-886
855.666	1005
855.755	-245
855.844	1080
855.933	298
856.021	460
856.110	-585
856.199	-1303
856.288	-226
856.376	-78
856.465	-1791
856.554	213
856.642	-1351
856.731	106
856.819	-745
856.908	398
856.996	-1291
857.085	-928
857.173	-178
857.262	-583
857.350	-269
857.438	-1460
857.527	-973
857.615	-449
857.703	-119
857.792	-1688
857.880	-509
857.968	-1125
858.056	-1107
858.145	-535
858.233	-1782
858.321	-1657
858.409	-656
858.497	-801
858.585	-1025
858.673	-209
858.761	-1158
858.849	-113
858.937	-1381
859.025	-227
859.113	-1066
859.201	-516
859.289	-171
859.377	-862
859.465	-546
859.552	-474
859.640	-311
859.728	-425
859.816	-634
859.903	-70
859.991	-1239
860.079	-136
860.166	-445
860.254	-1180
860.342	-957
860.429	-881
860.517	-948
860.604	-313
860.692	-133
860.779	-1408
860.867	-790
860.954	97
861.042	-165
861.129	-279
861.216	-436
861.304	-260
861.391	-628
861.478	-29
861.565	-531
861.653	393
861.740	-1200
861.827	-289
861.914	-510
862.001	-988
862.089	-593
862.176	-1013
862.263	-1235
862.350	-344
862.437	-1276
862.524	-68
862.611	-1728
862.698	-1014
862.785	-913
862.871	-258
862.958	-1289
863.045	-1183
863.132	-529
863.219	-287
863.306	-1915
863.392	9
863.479	-1563
863.566	-829
863.652	-1315
863.739	-650
863.826	-591
863.912	-584
863.999	-1530
864.086	-595
864.172	-1241
864.259	-297
864.345	-467
864.432	-481
864.518	-788
864.604	-676
864.691	-1087
864.777	168
864.863	-627
864.950	100
865.036	-791
865.122	-260
865.209	-358
865.295	-516
865.381	-324
865.467	-118
865.553	264
865.639	639
865.726	1128
865.812	4861
865.898	11930
865.984	18304
866.070	35803
866.156	36621
866.242	7216
866.328	1184
866.414	19
866.499	-109
866.585	-606
866.671	-672
866.757	-153
866.843	345
866.928	-1339
867.014	-731
867.100	-724
867.186	439
867.271	-8
867.357	1216
867.442	1504
867.528	291
867.614	-938
867.699	-841
867.785	-161
867.870	-560
867.956	286
868.041	383
868.127	-6
868.212	103
868.297	-158
868.383	-311
868.468	-60
868.553	2907
868.639	2644
868.724	7733
868.809	4965
868.894	-600
868.979	-529
869.065	-180
869.150	-1259
869.235	-496
869.320	-1619
869.405	-129
869.490	-1056
869.575	47
869.660	-818
869.745	530
869.830	-51
869.915	-596
870.000	-782
870.085	-249
870.169	-1017
870.254	-297
870.339	-833
870.424	-665
870.509	-235
870.593	-731
870.678	-1206
870.763	-1048
870.847	-854
870.932	-827
871.016	-1585
871.101	-717
871.186	-737
871.270	-1260
871.355	-1390
871.439	250
871.523	-807
871.608	-596
871.692	-916
871.777	-824
871.861	-1424
871.945	-1356
872.030	-1111
872.114	-647
872.198	-1320
872.282	-1252
872.367	-1142
872.451	-698
872.535	-747
872.619	-899
872.703	-1425
872.787	-37
872.871	-1339
872.955	-543
873.039	-742
873.123	-121
873.207	-837
873.291	-179
873.375	-639
873.459	-636
873.543	-1746
873.627	-477
873.711	-1170
873.794	-64
873.878	-1251
873.962	-511
874.045	-1312
874.129	-219
874.137	-303
874.213	-1143
874.245	-574
874.296	348
874.352	-977
874.380	-1629
874.460	-1226
874.464	-1210
874.547	-1091
874.568	-1033
874.631	-845
874.676	-543
874.714	-304
874.784	-534
874.798	-578
874.881	502
874.892	367
874.965	-567
874.999	-583
875.048	-624
875.107	-1044
875.131	-1214
875.215	-663
875.215	-663
875.298	-410
875.323	-675
875.381	-1343
875.430	-1088
875.465	-880
875.538	-596
875.548	-572
875.631	-571
875.646	-716
875.714	-1286
875.753	-1053
875.798	-806
875.861	-1200
875.881	-1338
875.964	-823
875.968	-774
876.047	148
876.076	14
876.130	-257
876.183	-450
876.213	-529
876.291	723
876.296	805
876.379	-303
876.398	-273
876.462	-339
876.506	-480
876.545	-481
876.613	-323
876.628	-296
876.711	-643
876.721	-540
876.794	232
876.828	-179
876.877	-806
876.935	-498
876.960	-353
877.043	-608
877.043	-606
877.125	-135
877.150	-238
877.208	-440
877.258	-265
877.291	-147
877.365	-97
877.374	-97
877.456	330
877.472	180
877.539	-455
877.579	-257
877.622	-1
877.687	-308
877.704	-406
877.787	43
877.794	1
877.869	-454
877.901	-188
877.952	240
878.008	-296
878.034	-460
878.115	231
878.117	235
878.199	-411
878.222	-403
878.282	-62
878.329	-33
878.364	-120
878.437	-409
878.447	-409
878.529	-763
878.544	-590
878.611	-78
878.651	-277
878.694	-422
878.758	-70
878.776	-2
878.858	-405
878.865	-405
878.941	-416
878.972	-635
879.023	-744
879.078	-386
879.105	-286
879.185	127
879.187	132
879.269	577
879.292	261
879.351	-364
879.399	-326
879.433	-262
879.506	-159
879.516	-164
879.598	-597
879.613	-603
879.680	-819
879.720	-775
879.762	-498
879.827	-381
879.844	-381
879.926	31
879.933	14
880.007	-255
880.040	-104
880.089	122
880.147	173
880.171	270
880.253	1807
880.254	1814
880.335	2309
880.360	2828
880.417	4363
880.467	6795
880.499	8165
880.574	8955
880.580	8982
880.662	2178
880.680	1684
880.744	9
880.787	-101
880.825	-181
880.893	-294
880.907	-319
880.989	-589
881.000	-554
881.070	-57
881.106	-131
881.152	-266
881.213	-291
881.233	-324
881.315	-776
881.319	-744
881.396	-106
881.426	-143
881.478	-299
881.532	-344
881.559	-447
881.639	-531
881.641	-519
881.722	-684
881.745	-492
881.803	-50
881.852	-135
881.885	-354
881.958	-471
881.966	-430
882.047	107
882.064	131
882.129	98
882.171	593
882.210	883
882.277	983
882.291	1033
882.372	58
882.383	-49
882.454	-676
882.489	-542
882.535	-485
882.596	-677
882.616	-746
882.697	-748
882.702	-770
882.778	-161
882.808	263
882.859	226
882.914	-360
882.940	-515
883.020	-100
883.021	-95
883.102	-626
883.127	-514
883.183	-193
883.233	-322
883.264	-569
883.339	-296
883.345	-213
883.426	-400
883.445	-167
883.507	273
883.551	77
883.587	-193
883.657	226
883.668	362
883.749	179
883.763	259
883.830	-183
883.869	-666
883.910	-616
883.975	-66
883.991	-34
884.072	-478
884.081	-479
884.152	10
884.187	96
884.233	-112
884.292	-136
884.314	-106
884.394	-463
884.398	-447
884.475	382
884.504	409
884.555	-93
884.610	-374
884.636	-280
884.716	-170
884.716	-168
884.797	9
884.821	-118
884.877	-148
884.927	11
884.958	37
885.033	-302
885.038	-306
885.118	137
885.139	126
885.199	-367
885.244	-496
885.279	-321
885.350	-395
885.359	-358
885.439	486
885.456	551
885.520	53
885.561	-65
885.600	-8
885.667	-267
885.680	-274
885.760	26
885.773	63
885.840	-15
885.878	-91
885.920	205
885.984	301
886.000	186
886.080	273
886.089	244
886.160	78
886.195	24
886.240	-16
886.300	-184
886.320	-128
886.400	351
886.406	371
886.480	597
886.511	729
886.560	577
886.616	158
886.640	-9
886.720	-412
886.722	-422
886.800	1
886.827	131
886.879	7
886.932	-193
886.959	-276
887.038	-341
887.039	-339
887.119	-400
887.143	-426
887.198	117
887.248	555
887.278	342
887.354	-174
887.358	-162
887.437	38
887.459	103
887.517	195
887.564	239
887.596	183
887.669	46
887.676	21
887.755	-327
887.774	-419
887.835	154
887.880	615
887.914	341
887.985	-270
887.994	-234
888.073	81
888.090	158
888.153	-241
888.195	-616
888.232	-491
888.300	-117
888.311	-37
888.391	399
888.405	496
888.470	179
888.510	-95
888.549	-4
888.615	291
888.628	321
888.708	348
888.720	355
888.787	203
888.825	98
888.866	127
888.930	189
888.945	137
889.024	-105
889.035	-140
889.103	279
889.140	464
889.182	203
889.245	-117
889.261	-56
889.340	196
889.349	226
889.419	141
889.454	93
889.498	-255
889.559	-721
889.577	-590
889.656	-15
889.664	46
889.735	706
889.768	1016
889.814	606
889.873	64
889.978	263
890.083	143
890.187	-144
890.292	-98
890.397	-399
890.501	459
890.606	-125
890.710	266
890.815	242
890.919	338
891.024	202
891.128	-603
891.233	393
891.337	-180
891.442	-373
891.546	-241
891.650	-105
891.755	-72
891.859	1616
891.963	-163
892.068	381
892.172	-435
892.276	278
892.380	27
892.484	389
892.589	-704
892.693	479
892.797	-554
892.901	-246
893.005	-674
893.109	-184
893.213	270
893.317	641
893.421	-230
893.525	-42
893.629	-93
893.733	-523
893.837	-243
893.941	-12
894.045	-196
894.148	-282
894.252	-249
894.356	-140
894.460	612
894.564	182
894.667	231
894.771	445
894.875	-201
894.978	-129
895.082	-266
895.186	335
895.289	-58
895.393	-815
895.496	-421
895.600	-124
895.703	-305
895.807	809
895.910	39
896.014	172
896.117	696
896.221	106
896.324	150
896.427	34
896.531	-274
896.634	369
896.737	-79
896.840	-514
896.944	-446
897.047	58
897.150	-136
897.253	-399
897.356	224
897.460	245
897.563	-216
897.666	-580
897.769	383
897.872	-135
897.975	-209
898.078	-303
898.181	324
898.284	366
898.387	336
898.490	-196
898.593	341
898.695	-199
898.798	-835
898.901	-82
899.004	-108
899.107	-277
899.209	-284
899.312	-266
899.415	-487
899.518	538
899.620	-339
899.723	-254
899.826	-344
899.928	-207
900.031	-331
900.133	-58
900.236	36
900.338	-247
900.441	-208
900.543	590
900.646	-378
900.748	-259
900.851	-770
900.953	80
901.055	-516
901.158	-672
901.260	-128
901.362	-99
901.465	-857
901.567	-283
901.669	-17
901.771	-211
901.873	-956
901.976	-794
902.078	-649
902.180	83
902.282	-638
902.384	505
902.486	104
902.588	-473
902.690	-291
902.792	-851
902.894	-106
902.996	-994
903.098	-75
903.200	-179
903.302	-432
903.404	-509
903.505	-185
903.607	-808
903.709	-214
903.811	-316
903.913	-445
904.014	81
904.116	-670
904.218	152
904.319	-701
904.421	-122
904.523	-273
904.624	-669
904.726	-320
904.827	-86
904.929	-137
905.030	336
905.132	-38
905.233	-610
905.335	-867
905.436	-456
905.537	-923
905.639	-1109
905.740	-225
905.841	37
905.943	-118
906.044	218
906.145	190
906.247	-98
906.348	75
906.449	-402
906.550	-715
906.651	411
906.752	-740
906.854	-465
906.955	-237
907.056	-216
907.157	-813
907.258	-239
907.359	-821
907.460	488
907.561	-490
907.662	65
907.762	-392
907.863	-445
907.964	-1014
908.065	-327
908.166	-612
908.267	-232
908.367	-688
908.468	-329
908.569	-492
908.670	-205
908.770	112
908.871	-339
908.971	-673
909.072	-201
909.173	-361
909.273	359
909.374	49
909.474	-155
909.575	-412
909.675	342
909.776	-472
909.876	-629
909.977	-637
910.077	-656
910.177	-1328
910.278	64
910.378	112
910.478	-797
910.579	-894
910.679	-306
910.779	-885
910.879	74
910.980	-508
911.080	-324
911.180	-939
911.280	42
911.380	65
911.480	-721
911.580	-1553
911.680	-291
911.780	-298
911.880	-528
911.980	126
912.080	-574
912.180	-92
912.280	-435
912.380	-754
912.480	-942
912.580	-709
912.679	-1178
912.779	-917
912.879	-171
912.979	-293
913.078	-121
913.178	-83
913.278	-32
913.377	194
913.477	-635
913.577	188
913.676	-489
913.776	-384
913.875	-265
913.975	-206
914.074	-382
914.174	-484
914.273	-995
914.373	205
914.472	142
914.572	-1051
914.671	-917
914.770	-607
914.870	-331
914.969	-1306
915.068	-1051
915.167	-328
915.267	-323
915.366	-899
915.465	-720
915.564	-622
915.663	375
915.763	-815
915.862	406
915.961	-1172
916.060	-730
916.159	-300
916.258	-1115
916.357	-1376
916.456	-264
916.555	-1120
916.654	-217
916.752	-851
916.851	-197
916.950	-1170
917.049	-527
917.148	-938
917.247	-293
917.345	-590
917.444	-642
917.543	-907
917.642	-731
917.740	-258
917.839	309
917.937	212
918.036	233
918.135	562
918.233	-474
918.332	49
918.430	-1214
918.529	-555
918.627	-1249
918.726	-848
918.824	-60
918.923	-1122
919.021	476
919.119	-1200
919.218	-907
919.316	-1196
919.414	-954
919.512	-438
919.611	-701
919.709	9
919.807	-778
919.905	-647
920.003	-661
920.102	-1564
920.200	-838
920.298	-1020
920.396	-955
920.494	-1013
920.592	-723
920.690	-98
920.788	-1009
920.886	-379
920.984	270
921.082	-1148
921.180	729
921.277	-585
921.375	158
921.473	-645
921.571	-637
921.669	-1294
921.766	-502
921.864	-208
921.962	-377
922.060	-415
922.157	-77
922.255	-21
922.352	-808
922.450	-464
922.548	-700
922.645	-930
922.743	-246
922.840	-722
922.938	323
923.035	-439
923.133	-885
923.230	-606
923.327	-405
923.425	-472
923.522	-1269
923.619	-15
923.717	-947
923.814	-529
923.911	-376
924.008	-342
924.106	-1160
924.203	-1574
924.300	-854
924.397	-1207
924.494	46
924.591	-816
924.688	-134
924.786	-675
924.883	-299
924.979	-599
925.077	-240
925.173	-552
925.270	164
925.367	-876
925.464	191
925.561	-1286
925.658	74
925.755	-123
925.852	-328
925.948	-1229
926.045	-70
926.142	-944
926.239	-1410
926.335	-1315
926.432	-1215
926.529	-618
926.625	-11
926.722	-933
926.818	-432
926.915	-698
927.011	-1106
927.108	-1538
927.204	-224
927.301	-1782
927.397	-598
927.494	-787
927.590	-340
927.687	-95
927.783	-449
927.879	-861
927.976	-1053
928.072	112
928.168	-186
928.264	71
928.361	-1954
928.457	-912
928.553	-852
928.649	-897
928.745	507
928.841	-699
928.937	-501
929.033	-906
929.129	-772
929.225	-1387
929.321	-783
929.417	-1071
929.513	-1159
929.609	418
929.705	-1187
929.801	-596
929.897	-751
929.993	-1378
930.089	-105
930.184	-430
930.280	-1086
930.376	-675
930.471	-991
930.567	-389
930.663	-270
930.758	-572
930.854	-782
930.950	-874
931.045	-475
931.141	-758
931.236	-132
931.332	-1099
931.427	-1390
931.523	-1710
931.618	91
931.714	-1116
931.809	-127
931.905	-1320
932.000	-1588
932.095	-856
932.191	-454
932.286	-802
932.381	-651
932.476	-1355
932.572	-836
932.667	-202
932.762	-406
932.857	-588
932.952	-1302
933.047	-213
933.142	-478
933.237	-1423
933.332	61
933.427	-1085
933.522	-69
933.617	-405
933.712	-407
933.807	-1633
933.902	-458
933.997	-1324
934.092	-689
934.187	-1044
934.282	-907
934.376	-993
934.471	-432
934.566	-1746
934.661	-517
934.755	-1292
934.850	-886
934.945	-29
935.039	-849
935.134	-544
935.228	-513
935.323	-474
935.417	-939
935.512	-318
935.606	-1329
935.701	-457
935.795	-633
935.890	-903
935.984	-970
936.079	-1810
936.173	-643
936.267	-1283
936.362	-1134
936.456	-803
936.550	-1139
936.644	-500
936.738	-1647
936.833	-317
936.927	-861
937.021	-243
937.115	-752
937.209	-1587
937.303	-39
937.397	-1266
937.491	-678
937.585	-632
937.679	-1140
937.773	-609
937.867	120
937.961	-1289
938.055	-1082
938.149	-620
938.243	-713
938.337	-946
938.430	-861
938.524	-887
938.618	-1177
938.712	-643
938.805	-611
938.899	-1083
938.993	-388
939.086	-649
939.180	-634
939.274	-729
939.367	-791
939.461	-1883
939.554	-412
939.648	-1374
939.741	-625
939.835	-288
939.928	-1457
940.022	-170
940.115	-1188
940.208	-853
940.302	-331
940.395	-1101
940.488	-1640
940.582	-597
940.675	-774
940.768	-1027
940.861	-1255
940.954	-389
941.048	-1192
941.141	-579
941.234	-474
941.327	-1348
941.420	-71
941.513	-1324
941.606	-876
941.699	-636
941.792	-1103
941.885	-873
941.978	-818
942.071	-756
942.164	-925
942.257	-799
942.349	-362
942.442	-1446
942.535	-796
942.628	-763
942.721	-362
942.813	-2926
942.906	149
942.999	-1154
943.091	-1222
943.184	-1661
943.277	-828
943.369	-495
943.462	-1157
943.554	-673
943.647	-1181
943.739	-1282
943.832	-524
943.924	-1768
944.017	-673
944.109	-2512
944.201	-1099
944.294	-414
944.386	507
944.478	-1288
944.571	-740
944.663	-444
944.755	117
944.847	-127
944.940	-1291
945.032	-2087
945.124	-869
945.216	-231
945.308	-719
945.400	-1402
945.492	-1089
945.584	-468
945.676	85
945.768	-1368
945.860	-578
945.952	-952
946.044	-962
946.136	-803
946.228	-318
946.320	-2096
946.412	-914
946.503	-1336
946.595	-317
946.687	-1638
946.779	-786
946.870	-812
946.962	-1734
947.054	-1015
947.145	-655
947.237	-919
947.329	-679
947.420	-1242
947.512	-485
947.603	-1300
947.695	-802
947.786	-1460
947.878	-1163
947.969	-344
948.061	-1057
948.152	-16
948.243	-857
948.335	-1517
948.426	-980
948.517	-1111
948.609	-1496
948.700	-1801
948.791	-723
948.882	-1390
948.973	-333
949.065	-878
949.156	-1326
949.247	-1452
949.338	-523
949.429	-756
949.520	-1543
949.611	-1646
949.702	-377
949.793	-1708
949.884	-942
949.975	-979
950.066	-1160
950.157	-1316
950.247	-948
950.338	-1631
950.429	-1029
950.520	-1179
950.611	-1290
950.701	-1134
950.792	-803
950.883	-905
950.973	-1003
951.064	-916
951.155	-691
951.245	-820
951.336	-1368
951.427	-2377
951.517	336
951.608	-812
951.698	-1796
951.788	-1530
951.879	-971
951.969	-903
952.060	-1249
952.150	-1237
952.240	-966
952.331	-2386
952.421	324
952.511	-1264
952.602	-594
952.692	-1374
952.782	-461
952.872	-1082
952.962	-1264
953.052	-844
953.143	-1649
953.233	-900
953.323	-645
953.413	-1383
953.503	-169
953.593	-925
953.683	-806
953.773	-1135
953.863	-468
953.953	-1064
954.042	-1404
954.132	-1223
954.222	-544
954.312	-2036
954.402	-1640
954.492	-1279
954.581	-1077
954.671	-2179
954.761	-2064
954.850	-217
954.940	-969
955.030	-1820
955.119	-2010
955.209	-781
955.298	-1840
955.388	-519
955.477	-464
955.567	-1797
955.656	-498
955.746	-185
955.835	-1174
955.925	-2069
956.014	-490
956.103	-2296
956.193	-1197
956.282	-1433
956.371	-326
956.461	-1588
956.550	-824
956.639	-502
956.728	-1430
956.817	-1251
956.906	-1115
956.995	-651
957.085	-1480
957.174	-733
957.263	-1007
957.352	-606
957.441	-1468
957.530	-1590
957.619	-230
957.708	-1128
957.796	-1390
957.885	-1140
957.974	-1190
958.063	-839
958.152	-1973
958.241	-882
958.329	-683
958.418	-1856
958.507	-1688
958.596	-5
958.684	-585
958.773	-496
958.861	-254
958.950	-1090
959.039	-1160
959.127	-649
959.216	169
959.304	-1515
959.393	-1120
959.481	-910
959.570	-1289
959.658	-1291
959.746	-1475
959.835	-1031
959.923	-1039
960.011	-1912
960.100	-12
960.188	-843
960.276	-879
960.365	-1344
960.453	-1127
960.541	-1469
960.629	-918
960.717	-1531
960.805	-1566
960.893	-1216
960.981	-1325
961.069	-354
961.158	-954
961.245	-588
961.333	-614
961.421	-1942
961.509	-389
961.597	-566
961.685	-1316
961.773	-1355
961.861	-1335
961.949	-1296
962.036	-1176
962.124	-13
962.212	-692
962.299	-1727
962.387	-1487
962.475	-1673
962.562	-1625
962.650	-1637
962.738	-964
962.825	-995
962.913	-1459
963.000	-1485
963.088	-1213
963.175	-824
963.263	-849
963.350	-1585
963.438	-1266
963.525	-1227
963.612	-189
963.700	-599
963.787	442
963.874	-1459
963.962	-1600
964.049	-609
964.136	-329
964.223	-1178
964.310	-161
964.398	-578
964.485	-1249
964.572	-1117
964.659	-416
964.746	-1127
964.833	-1567
964.920	-1528
965.007	-753
965.094	-1024
965.181	-1159
965.268	-271
965.355	-907
965.441	-1707
965.528	-2121
965.615	-660
965.702	-724
965.789	-1319
965.875	-998
965.962	-1744
966.049	-1661
966.136	-961
966.222	-1413
966.309	-740
966.395	-1736
966.482	-1245
966.569	-1019
966.655	-1053
966.742	-1703
966.828	-1045
966.915	-1533
967.001	-2080
967.087	-1430
967.174	-1045
967.260	-986
967.347	-1643
967.433	-619
967.519	-550
967.605	-1108
967.692	-1569
967.778	-991
967.864	-1369
967.950	-243
968.036	-1804
968.123	-1596
968.209	-1204
968.295	-1910
968.381	119
968.467	-1318
968.553	-1986
968.639	-671
968.725	-1217
968.811	-1475
968.897	-724
968.983	-1326
969.069	-2029
969.154	-1475
969.240	-850
969.326	-1221
969.412	-1063
969.497	-1566
969.583	-2329
969.669	-84
969.755	-928
969.840	-1219
969.926	-1314
970.012	-1284
970.097	-960
970.183	-1471
970.268	-1338
970.354	-1339
970.439	-2207
970.525	-71
970.610	-1876
970.696	-878
970.781	-1300
970.866	-1416
970.952	-495
971.037	-2112
971.122	-2383
971.208	-821
971.293	-753
971.378	-2605
971.463	-951
971.549	-976
971.634	-1587
971.719	-1947
971.804	-1367
971.889	-1191
971.974	-1148
972.059	-1880
972.144	-1327
972.229	-1624
972.314	-1825
972.399	-1200
972.484	-1452
972.569	-578
972.654	-2162
972.739	3
972.824	-1158
972.908	-1023
972.993	-1054
973.078	-1139
973.163	-1622
973.247	-1275
973.332	-1871
973.417	-456
973.501	-2505
973.586	-1537
973.671	-1734
973.755	-1667
973.840	-902
973.924	-1426
974.009	-1235
974.093	-2241
974.178	-368
974.262	-1212
974.346	-1009
974.431	-1920
974.515	-1169
974.600	-1274
974.684	-1239
974.768	-1980
974.852	-1182
974.937	-1502
975.021	-706
975.105	-1750
975.189	-1383
975.273	-543
975.358	-2155
975.442	-2009
975.526	-1589
975.610	-1617
975.694	-2090
975.778	-1529
975.862	-1145
975.946	-3400
976.030	723
976.114	-1784
976.198	-849
976.281	-1419
976.365	-698
976.449	-2236
976.533	-1358
976.617	-1062
976.700	-1009
976.784	-1682
976.868	-1571
976.951	-1609
977.035	-1374
977.119	-600
977.202	-1634
977.286	-917
977.369	-1699
977.453	-1199
977.536	-2030
977.620	-1717
977.703	-1857
977.787	-1955
977.870	-1499
977.953	-1288
978.037	-1968
978.120	-853
978.203	-1485
978.287	-1084
978.370	-1332
978.453	-1865
978.536	-1742
978.620	-533
978.703	-1984
978.786	-2389
978.869	-2131
978.952	-2460
979.035	-76
979.118	-1418
979.201	-1730
979.284	-450
979.367	-2228
979.450	-1205
979.533	-1641
979.616	-2150
979.699	-2011
979.782	-908
979.865	-2056
979.948	-1857
980.030	-1818
980.113	-1559
980.196	-2116
980.279	-1323
980.361	-1897
980.444	-2038
980.526	-1860
980.609	-1674
980.692	-2047
980.774	-1139
980.857	-1966
980.939	-1318
981.022	-2001
981.104	-1211
981.187	-1695
981.269	-782
981.352	-1510
981.434	-2851
981.516	-2355
981.599	-882
981.681	-1777
981.763	-1727
981.846	-1863
981.928	-750
982.010	-1566
982.092	-2158
982.174	-1413
982.256	-1903
982.339	-2036
982.421	-1886
982.503	-610
982.585	-2050
982.667	-1773
982.749	-2626
982.831	-1803
982.913	-1968
982.995	-1386
983.077	-1474
983.158	-916
983.240	-2971
983.322	-2142
983.404	-1183
983.486	-1857
983.568	-1311
983.649	-1728
983.731	-2254
983.813	-1444
983.894	-1350
983.976	-2432
984.058	-1760
984.139	-577
984.221	-2926
984.302	-868
984.384	-1587
984.465	-2114
984.547	-1811
984.628	-2436
984.710	-810
984.791	-2459
984.872	-1196
984.954	-1401
985.035	-1816
985.116	-2301
985.198	-1836
985.279	-1171
985.360	-1788
985.441	-1710
985.522	-1404
985.604	-2488
985.685	-3445
985.766	-997
985.847	-693
985.928	-2612
986.009	-2143
986.090	-1411
986.171	-1663
986.252	-2903
986.333	-1038
986.414	-1788
986.495	-2259
986.576	-2085
986.656	-1993
986.737	-1906
986.818	-1394
986.899	-1416
986.980	-1684
987.060	-1696
987.141	-2038
987.222	-1815
987.302	-1950
987.383	-1233
987.464	-1766
987.544	-1344
987.625	-1568
987.705	-1442
987.786	-2395
987.866	-2523
987.947	-2394
988.027	-2167
988.108	-2332
988.188	-1862
988.268	-1849
988.349	-2004
988.429	-1828
988.509	-814
988.589	-2260
988.670	-3542
988.750	-393
988.830	-2113
988.910	-1805
988.990	-2192
989.070	-1635
989.151	-1790
989.231	-1968
989.311	-905
989.391	-1888
989.471	-1531
989.551	-2254
989.631	-3268
989.711	-1323
989.791	-2439
989.870	-2470
989.950	-2009
990.030	-2401
990.110	-2067
990.190	-1629
990.269	-2324
990.349	-1847
990.429	-721
990.509	-1242
990.588	-2822
990.668	-1508
990.747	-1880
990.827	-1945
990.907	-1698
990.986	-1567
991.066	-1775
991.145	-1947
991.225	-2144
991.304	-2534
991.383	-1173
991.463	-2759
991.542	-1152
991.622	-2319
991.701	-3013
991.780	-1953
991.859	-1712
991.939	-1357
992.018	-1354
992.097	-1641
992.176	-1471
992.256	-1719
992.335	-2520
992.414	-1836
992.493	-2363
992.572	-2158
992.651	-1439
992.730	-2232
992.809	-1909
992.888	-2416
992.967	-1674
993.046	-900
993.125	-3095
993.203	-1486
993.282	-2295
993.361	-2449
993.440	-1695
993.519	-2934
993.597	-2174
993.676	-2005
993.755	-2120
993.834	-2162
993.912	-2513
993.991	-822
994.069	-2128
994.148	-2020
994.226	-2145
994.305	-2285
994.384	-2310
994.462	-1818
994.540	-2926
994.619	-1798
994.697	-2277
994.776	-2020
994.854	-1712
994.932	-3141
995.011	-2308
995.089	-1685
995.167	-2090
995.245	-2492
995.324	-2542
995.402	-649
995.480	-2745
995.558	-2015
995.636	-2235
995.714	-2467
995.792	-1695
995.870	-2134
995.948	-2166
996.026	-1338
996.104	-2097
996.182	-1562
996.260	-2532
996.338	-1907
996.416	-2736
996.494	-2171
996.572	-739
996.649	-1687
996.727	-2875
996.805	-1380
996.883	-2282
996.960	-2223
997.038	-1726
997.116	-1788
997.193	-1730
997.271	-1922
997.348	-2373
997.426	-1491
997.504	-3303
997.581	-2732
997.658	-1142
997.736	-2676
997.813	-2652
997.891	-1705
997.968	-2419
998.046	-1701
998.123	-1343
998.200	-2146
998.277	-2929
998.355	-1558
998.432	-2517
998.509	-1850
998.586	-2054
998.663	-1817
998.741	-2613
998.818	-1881
998.895	-2682
998.972	-1149
999.049	-2276
999.126	-2586
999.203	-1404
999.280	-1904
999.357	-2060
999.434	-2414
999.511	-1655
999.587	-1000
999.664	-2852
999.741	-2134
999.818	-1477
999.895	-2692
999.971	-1503
1000.048	-2464
1000.125	-1146
1000.202	-1296
1000.278	-1787
1000.355	-1313
1000.431	-2284
1000.508	-2562
1000.584	-2004
1000.661	-1761
1000.738	-2796
1000.814	-2195
1000.890	-1388
1000.967	-1577
1001.043	-2805
1001.120	-2501
1001.196	-1462
1001.272	-1621
1001.349	-2667
1001.425	-1754
1001.501	-2304
1001.577	-2131
1001.654	-1800
1001.730	-2474
1001.806	-1901
1001.882	-2922
1001.958	-1880
1002.034	-1644
1002.110	-2259
1002.186	-2930
1002.262	-2178
1002.338	-2504
1002.414	-2301
1002.490	-1824
1002.566	-2498
1002.642	-1566
1002.718	-1799
1002.794	-2004
1002.870	-2658
1002.945	-1929
1003.021	-1839
1003.097	-2467
1003.173	-1606
1003.248	-2197
1003.324	-1865
1003.400	-2033
1003.475	-2125
1003.551	-2341
1003.626	-1839
1003.702	-1910
1003.777	-2040
1003.853	-2209
1003.928	-2133
1004.004	-3026
1004.079	-2226
1004.155	-2091
1004.230	-3011
1004.305	-1248
1004.381	-1860
1004.456	-2355
1004.531	-2811
1004.607	-2393
1004.682	-2026
1004.757	-1476
1004.832	-1804
1004.907	-2493
1004.982	-2165
1005.057	-2212
1005.133	-2507
1005.208	-2001
1005.283	-1603
1005.358	-1712
1005.433	-2746
1005.508	-1413
1005.583	-3258
1005.657	-2273
1005.732	-1190
1005.807	-2263
1005.882	-2384
1005.957	-2467
1006.032	-1564
1006.106	-1491
1006.181	-2858
1006.256	-2006
1006.331	-2806
1006.405	-2608
1006.480	-3316
1006.554	-1956
1006.629	-2354
1006.704	-2111
1006.778	-2213
1006.853	-1299
1006.927	-1450
1007.002	-2516
1007.076	-2132
1007.150	-2451
1007.225	-2311
1007.299	-1930
1007.373	-3184
1007.448	-1550
1007.522	-2052
1007.596	-2200
1007.671	-2848
1007.745	-1352
1007.819	-2782
1007.893	-1843
1007.967	-2508
1008.041	-2959
1008.115	-1423
1008.190	-2243
1008.264	-1805
1008.338	-3156
1008.412	-1758
1008.486	-2428
1008.560	-1960
1008.633	-2596
1008.707	-1710
1008.781	-2060
1008.855	-2604
1008.929	-2683
1009.003	-2534
1009.076	-1722
1009.150	-1821
1009.224	-1637
1009.298	-1561
1009.371	-2297
1009.445	-1777
1009.519	-2170
1009.592	-3079
1009.666	-2068
1009.739	-1567
1009.813	-2504
1009.886	-1333
1009.960	-2656
1010.033	-1826
1010.107	-2122
1010.180	-3027
1010.253	-2367
1010.327	-2835
1010.400	-1871
1010.473	-2471
1010.547	-714
1010.620	-3141
1010.693	-2083
1010.766	-2283
1010.840	-1404
1010.913	-2630
1010.986	-1943
1011.059	-2217
1011.132	-1794
1011.205	-2105
1011.278	-1668
1011.351	-2572
1011.424	-2408
1011.497	-2870
1011.570	-2132
1011.643	-2493
1011.716	-2494
1011.789	-2172
1011.862	-2136
1011.934	-1850
1012.007	-3163
1012.080	-1485
1012.153	-1264
1012.225	-1757
1012.298	-1863
1012.371	-2718
1012.443	-1710
1012.516	-2756
1012.588	-1651
1012.661	-1942
1012.733	-2983
1012.806	-1755
1012.879	-2598
1012.951	-2799
1013.023	-2752
1013.096	-1623
1013.168	-2171
1013.241	-1556
1013.313	-1263
1013.385	-2717
1013.458	-2156
1013.530	-1423
1013.602	-2294
1013.674	-1948
1013.746	-2703
1013.819	-2725
1013.891	-641
1013.963	-3127
1014.035	-2578
1014.107	-2630
1014.179	-1860
1014.251	-3131
1014.323	-1892
1014.395	-2447
1014.467	-1723
1014.539	-2839
1014.611	-2268
1014.683	-1538
1014.754	-2203
1014.826	-2305
1014.898	-2323
1014.970	-3115
1015.042	-1957
1015.113	-1797
1015.185	-2114
1015.257	-2899
1015.328	-1333
1015.400	-2638
1015.471	-2194
1015.543	-2435
1015.615	-2606
1015.686	-2216
1015.757	-2730
1015.829	-1870
1015.901	-2477
1015.972	-2658
1016.043	-1851
1016.115	-2462
1016.186	-2178
1016.257	-2852
1016.328	-1915
1016.400	-2254
1016.471	-3492
1016.542	-2371
1016.613	-2245
1016.685	-2939
1016.756	-1548
1016.827	-2891
1016.898	-2205
1016.969	-1423
1017.040	-2492
1017.111	-1867
1017.182	-1827
1017.253	-1911
1017.324	-1162
1017.395	-2077
1017.466	-1872
1017.537	-2171
1017.608	-1932
1017.678	-2506
1017.749	-2505
1017.820	-2146
1017.891	-2654
1017.961	-2717
1018.032	-2025
1018.103	-2343
1018.173	-2342
1018.244	-2384
1018.315	-746
1018.385	-1765
1018.456	-2843
1018.526	-3164
1018.597	-2556
1018.667	-2351
1018.738	-3299
1018.808	-2458
1018.878	-2304
1018.949	-1885
1019.019	-2284
1019.089	-3010
1019.160	-1956
1019.230	-2245
1019.300	-1507
1019.371	-3033
1019.441	-1433
1019.511	-1915
1019.581	-1880
1019.651	-2540
1019.721	-2234
1019.791	-3220
1019.861	-1324
1019.931	-2330
1020.001	-3018
1020.071	-2359
1020.141	-2274
1020.211	-3141
1020.281	-2752
1020.351	-2551
1020.421	-1770
1020.491	-2233
1020.560	-2951
1020.630	-1783
1020.700	-2344
1020.770	-1990
1020.839	-1898
1020.909	-2746
1020.979	-1749
1021.048	-3001
1021.118	-1854
1021.187	-2820
1021.257	-2950
1021.326	-1611
1021.396	-1987
1021.465	-1817
1021.535	-2549
1021.604	-3100
1021.674	-2619
1021.743	-2134
1021.812	-2016
1021.882	-2000
1021.951	-1728
1022.020	-2334
1022.089	-1541
1022.159	-2422
1022.228	-1944
1022.297	-2828
1022.366	-892
1022.435	-2253
1022.504	-2392
1022.573	-3246
1022.642	-2513
1022.711	-2148
1022.781	-1876
1022.849	-2038
1022.918	-2368
1022.987	-2498
1023.056	-2363
1023.125	-2336
1023.194	-1929
1023.263	-2270
1023.331	-1841
1023.400	-2960
1023.469	-2151
1023.538	-2281
1023.606	-2818
1023.675	-2023
1023.744	-2137
1023.812	-2540
1023.881	-2195
1023.949	-2470
1024.018	-2449
1024.086	-3025
1024.155	-2415
1024.223	-3035
1024.292	-1973
1024.360	-2246
1024.429	-2425
1024.497	-3113
1024.565	-2688
1024.634	-2847
1024.702	-1894
1024.770	-2226
1024.838	-2562
1024.907	-1738
1024.975	-2184
1025.043	-2505
1025.111	-2157
1025.179	-2161
1025.247	-2705
1025.315	-2721
1025.383	-2539
1025.451	-3198
1025.519	-1744
1025.587	-2019
1025.655	-2326
1025.723	-2925
1025.791	-2349
1025.859	-1716
1025.927	-1951
1025.995	-2875
1026.062	-2999
1026.130	-2469
1026.198	-2688
1026.266	-3257
1026.333	-1334
1026.401	-1443
1026.469	-2405
1026.536	-2366
1026.604	-2202
1026.671	-2546
1026.739	-2051
1026.806	-2327
1026.874	-2567
1026.941	-2882
1027.009	-2002
1027.076	-2311
1027.144	-1133
1027.211	-2476
1027.278	-2291
1027.345	-2623
1027.413	-2453
1027.480	-2965
1027.547	-1916
1027.614	-2945
1027.682	-2060
1027.749	-2243
1027.816	-2146
1027.883	-2894
1027.950	-2389
1028.017	-2811
1028.084	-2026
1028.151	-2880
1028.218	-2120
1028.285	-2386
1028.352	-1440
1028.419	-2852
1028.486	-2768
1028.553	-2007
1028.619	-2178
1028.686	-3153
1028.753	-2531
1028.820	-2615
1028.886	-2210
1028.953	-2339
1029.020	-3372
1029.086	-2599
1029.153	-2052
1029.220	-2952
1029.286	-2156
1029.353	-2111
1029.419	-3055
1029.486	-2536
1029.552	-1981
1029.619	-3278
1029.685	-2872
1029.751	-2201
1029.818	-1463
1029.884	-2761
1029.951	-2231
1030.017	-2568
1030.083	-2655
1030.149	-2586
1030.216	-2761
1030.282	-2582
1030.348	-2550
1030.414	-2549
1030.480	-2228
1030.546	-3082
1030.612	-2236
1030.678	-3053
1030.744	-2038
1030.810	-2184
1030.876	-2244
1030.942	-2445
1031.008	-1985
1031.074	-3202
1031.140	-1513
1031.206	-2463
1031.272	-2212
1031.337	-2572
1031.403	-2557
1031.469	-2826
1031.534	-3049
1031.600	-1410
1031.666	-2622
1031.731	-3818
1031.797	-2411
1031.863	-3059
1031.928	-2661
1031.994	-2317
1032.059	-2910
1032.125	-2548
1032.190	-1661
1032.256	-3153
1032.321	-2916
1032.386	-2574
1032.452	-1556
1032.517	-2361
1032.582	-2915
1032.647	-1831
1032.713	-2841
1032.778	-2576
1032.843	-2659
1032.908	-3327
1032.974	-2006
1033.039	-2692
1033.104	-2539
1033.169	-3280
1033.234	-3164
1033.299	-1246
1033.364	-1990
1033.429	-2763
1033.494	-2202
1033.559	-2652
1033.624	-2349
1033.688	-1792
1033.753	-2793
1033.818	-2756
1033.883	-2428
1033.948	-2672
1034.013	-2932
1034.077	-3114
1034.142	-1499
1034.207	-2446
1034.271	-2527
1034.336	-2153
1034.400	-2849
1034.465	-2476
1034.530	-2257
1034.594	-3225
1034.658	-2699
1034.723	-2730
1034.787	-1937
1034.852	-1866
1034.916	-2293
1034.981	-1781
1035.045	-3019
1035.109	-2909
1035.173	-2028
1035.238	-2624
1035.302	-2205
1035.366	-3018
1035.430	-2667
1035.495	-2849
1035.559	-2446
1035.623	-3297
1035.687	-2190
1035.751	-2769
1035.815	-2750
1035.879	-2760
1035.943	-2429
1036.007	-2883
1036.071	-2642
1036.135	-2692
1036.198	-1717
1036.262	-3242
1036.326	-2140
1036.390	-2743
1036.454	-2540
1036.517	-1967
1036.581	-2544
1036.645	-2462
1036.709	-2269
1036.772	-2995
1036.836	-3022
1036.900	-1841
1036.963	-2743
1037.026	-3143
1037.090	-1792
1037.154	-3110
1037.217	-2128
1037.280	-3229
1037.344	-2143
1037.407	-2650
1037.471	-2171
1037.534	-2984
1037.597	-2719
1037.661	-3329
1037.724	-2269
1037.787	-2681
1037.850	-2473
1037.913	-4006
1037.977	-2062
1038.040	-2349
1038.103	-2509
1038.166	-3038
1038.229	-2365
1038.292	-2987
1038.355	-2575
1038.418	-3364
1038.481	-2626
1038.544	-3552
1038.607	-2456
1038.670	-2480
1038.732	-2168
1038.795	-2053
1038.858	-1875
1038.921	-2794
1038.984	-2104
1039.046	-3161
1039.109	-2642
1039.172	-2289
1039.234	-2893
1039.297	-3826
1039.360	-3136
1039.422	-2113
1039.485	-2270
1039.547	-3211
1039.610	-3229
1039.672	-3131
1039.734	-2650
1039.797	-3628
1039.859	-3038
1039.922	-2290
1039.984	-3243
1040.046	-2259
1040.109	-2137
1040.171	-2986
1040.233	-2886
1040.295	-3173
1040.358	-2928
1040.420	-2711
1040.482	-2749
1040.544	-2848
1040.606	-2449
1040.668	-2461
1040.730	-2344
1040.792	-2441
1040.854	-2733
1040.916	-3198
1040.978	-2611
1041.040	-1812
1041.102	-2646
1041.164	-2430
1041.225	-3048
1041.287	-3271
1041.349	-2002
1041.411	-2568
1041.472	-2796
1041.534	-3624
1041.596	-2830
1041.657	-2787
1041.719	-1605
1041.781	-2928
1041.842	-2473
1041.904	-2623
1041.965	-2451
1042.027	-2109
1042.088	-2871
1042.150	-3047
1042.211	-2131
1042.272	-2551
1042.334	-2595
1042.395	-2314
1042.456	-2925
1042.518	-2514
1042.579	-1771
1042.640	-3120
1042.701	-2335
1042.763	-2349
1042.824	-3098
1042.885	-2539
1042.946	-1399
1043.007	-2760
1043.068	-3142
1043.129	-3095
1043.190	-2195
1043.251	-1693
1043.312	-2174
1043.373	-2769
1043.434	-2909
1043.495	-3113
1043.556	-2487
1043.616	-2363
1043.677	-2765
1043.738	-2842
1043.799	-2389
1043.859	-2832
1043.920	-2726
1043.981	-2738
1044.041	-2584
1044.102	-2429
1044.162	-2157
1044.223	-2551
1044.284	-2587
1044.344	-2599
1044.405	-1978
1044.465	-2811
1044.525	-3276
1044.586	-2444
1044.646	-2944
1044.707	-2367
1044.767	-1809
1044.827	-2744
1044.887	-2371
1044.948	-2563
1045.008	-2305
1045.068	-2614
1045.128	-2439
1045.188	-3032
1045.249	-1327
1045.309	-3160
1045.369	-2771
1045.429	-2858
1045.489	-2318
1045.549	-3020
1045.609	-1507
1045.669	-2805
1045.729	-2102
1045.789	-2327
1045.848	-1602
1045.908	-2105
1045.968	-1884
1046.028	-2518
1046.088	-1964
1046.147	-2135
1046.207	-2117
1046.267	-2729
1046.326	-2058
1046.386	-1924
1046.446	-1613
1046.505	-1614
1046.565	-2226
1046.624	-1440
1046.684	-904
1046.743	-2122
1046.803	-857
1046.862	-1068
1046.922	0
