'Start Wavelength	183.907
'End Wavelength	1046.922
'Gate Delay	5.000
'Gate Width (ms)	1.050
'Laser Output Level	0.000
'X Position	0.000
'Y Position	0.000
'Z Position	0.000
'Grid Point Number	1.000
'Shot Number	100.000
183.907	717.000
183.977	259.000
184.047	298
184.116	238
184.186	485
184.256	-12
184.325	876
184.395	-98
184.465	405
184.534	1094
184.604	-665
184.674	935
184.743	20
184.813	344
184.883	796
184.952	38
185.022	613
185.092	179
185.161	50
185.231	228
185.301	328
185.370	678
185.440	-245
185.509	169
185.579	516
185.649	409
185.718	158
185.788	148
185.857	478
185.927	-59
185.996	465
186.066	574
186.136	203
186.205	698
186.275	446
186.344	625
186.414	139
186.483	-54
186.553	141
186.622	1927
186.692	772
186.761	-181
186.831	-477
186.900	360
186.970	973
187.039	783
187.109	572
187.178	398
187.248	-641
187.317	896
187.387	509
187.456	143
187.526	623
187.595	724
187.664	476
187.734	161
187.803	672
187.873	648
187.942	1217
188.012	478
188.081	86
188.150	-198
188.220	1150
188.289	680
188.358	326
188.428	582
188.497	-358
188.567	1404
188.636	-10
188.705	605
188.775	464
188.844	108
188.913	811
188.983	486
189.052	161
189.121	337
189.191	79
189.260	760
189.329	720
189.399	936
189.468	574
189.537	532
189.606	272
189.676	195
189.745	1270
189.814	964
189.883	206
189.953	888
190.022	522
190.091	1574
190.161	2076
190.230	1089
190.299	704
190.368	386
190.437	-112
190.507	1016
190.576	139
190.645	576
190.714	377
190.783	-123
190.853	345
190.922	227
190.991	264
191.060	898
191.129	-652
191.198	-7
191.268	310
191.337	-108
191.406	547
191.475	1178
191.544	-108
191.613	1016
191.682	52
191.752	649
191.821	68
191.890	-64
191.959	449
192.028	514
192.097	417
192.166	268
192.235	-293
192.304	416
192.373	419
192.442	240
192.511	179
192.580	689
192.650	-219
192.719	341
192.788	386
192.857	1004
192.926	-168
192.995	1276
193.064	562
193.133	627
193.202	1656
193.271	1913
193.340	1516
193.409	1460
193.478	1712
193.547	2436
193.615	2219
193.684	3011
193.753	885
193.822	1047
193.891	409
193.960	1067
194.029	1067
194.098	236
194.167	937
194.236	614
194.305	553
194.374	-127
194.443	167
194.512	1516
194.580	516
194.649	431
194.718	1104
194.787	1313
194.856	111
194.925	164
194.994	989
195.062	1096
195.131	609
195.200	1259
195.269	1647
195.338	1086
195.407	898
195.475	866
195.544	578
195.613	723
195.682	72
195.751	1557
195.819	1247
195.888	1034
195.957	1321
196.026	1441
196.094	253
196.163	1456
196.232	1652
196.301	153
196.369	636
196.438	498
196.507	574
196.576	691
196.644	749
196.713	1020
196.782	495
196.850	1147
196.919	819
196.988	905
197.056	196
197.125	787
197.194	600
197.262	613
197.331	-76
197.400	1108
197.468	598
197.537	-8
197.606	145
197.674	903
197.743	1757
197.812	874
197.880	2116
197.949	748
198.017	1913
198.086	1375
198.155	755
198.223	1234
198.292	2700
198.360	1386
198.429	661
198.497	960
198.566	1667
198.635	2096
198.703	995
198.772	1497
198.840	2989
198.909	2952
198.977	861
199.046	1772
199.114	893
199.183	991
199.251	971
199.320	589
199.388	453
199.457	471
199.525	511
199.594	951
199.662	625
199.731	661
199.799	1211
199.867	677
199.936	-25
200.004	972
200.073	655
200.141	765
200.210	777
200.278	922
200.346	1063
200.415	1045
200.483	1234
200.552	1425
200.620	817
200.688	1348
200.757	811
200.825	878
200.893	1074
200.962	1170
201.030	38
201.098	810
201.167	668
201.235	732
201.303	408
201.372	1122
201.440	572
201.508	1043
201.577	1230
201.645	1050
201.713	1053
201.781	307
201.850	1118
201.918	1296
201.986	492
202.055	1516
202.123	-4
202.191	924
202.259	18
202.327	541
202.396	558
202.464	997
202.532	684
202.600	2578
202.669	1678
202.737	-388
202.805	564
202.873	1036
202.941	886
203.009	1183
203.078	246
203.146	762
203.214	480
203.282	463
203.350	-208
203.418	1007
203.487	733
203.555	1190
203.623	648
203.691	984
203.759	1136
203.827	1527
203.895	1012
203.963	825
204.031	263
204.099	912
204.168	803
204.236	1264
204.304	802
204.372	992
204.440	846
204.508	143
204.576	904
204.644	566
204.712	233
204.780	1033
204.848	918
204.916	363
204.984	1022
205.052	1172
205.120	495
205.188	1311
205.256	722
205.324	981
205.392	374
205.460	1111
205.528	856
205.596	1662
205.664	344
205.732	61
205.799	3388
205.867	5217
205.935	1234
206.003	1775
206.071	644
206.139	1142
206.207	1074
206.275	555
206.343	770
206.411	1150
206.478	1259
206.546	414
206.614	776
206.682	1143
206.750	540
206.818	1562
206.885	1739
206.953	223
207.021	2429
207.089	1492
207.157	227
207.225	1073
207.292	586
207.360	1813
207.428	433
207.496	935
207.563	1767
207.631	762
207.699	655
207.767	1679
207.834	904
207.902	1278
207.970	1692
208.038	2218
208.105	756
208.173	1134
208.241	1450
208.309	2332
208.376	2008
208.444	2881
208.512	2255
208.579	405
208.647	2462
208.715	1676
208.782	1116
208.850	1604
208.918	588
208.985	1673
209.053	1674
209.120	1699
209.188	932
209.256	982
209.323	974
209.391	1449
209.459	2711
209.526	1986
209.594	996
209.661	1502
209.729	1404
209.796	1706
209.864	1102
209.932	1145
209.999	2637
210.067	1997
210.134	1743
210.202	1347
210.269	2531
210.337	1906
210.404	1552
210.472	1667
210.539	1390
210.607	1925
210.674	1367
210.742	2272
210.809	1231
210.877	1663
210.944	2465
211.012	970
211.079	2833
211.146	1529
211.214	786
211.281	1712
211.349	2206
211.416	2151
211.484	2631
211.551	2171
211.618	1530
211.686	1156
211.753	640
211.821	2263
211.888	1675
211.955	2180
212.023	1554
212.090	1577
212.157	1332
212.225	1536
212.292	3644
212.359	5528
212.427	14249
212.494	6159
212.561	3092
212.629	2462
212.696	1818
212.763	2157
212.831	1525
212.898	2929
212.965	1691
213.032	1805
213.100	2625
213.167	1517
213.234	2993
213.301	1385
213.369	2401
213.436	2054
213.503	1987
213.570	1788
213.638	1968
213.705	1390
213.772	891
213.839	1740
213.906	2785
213.973	2387
214.041	1352
214.108	1811
214.175	1735
214.242	1235
214.309	1619
214.376	1999
214.444	1884
214.511	2708
214.578	1634
214.645	2188
214.712	2184
214.779	2236
214.846	1440
214.913	2861
214.980	2426
215.048	3395
215.115	4080
215.182	3057
215.249	2927
215.316	1634
215.383	2353
215.450	2184
215.517	854
215.584	2896
215.651	778
215.718	2487
215.785	2380
215.852	1818
215.919	2935
215.986	2913
216.053	1895
216.120	580
216.187	1810
216.254	2600
216.321	1966
216.388	2587
216.455	2206
216.522	2533
216.589	3237
216.656	4235
216.722	4688
216.789	4370
216.856	3810
216.923	3567
216.990	2716
217.057	3215
217.124	3928
217.191	2845
217.258	4108
217.324	5924
217.391	6664
217.458	4865
217.525	2983
217.592	2855
217.659	1691
217.725	3635
217.792	3928
217.859	3865
217.926	2194
217.993	2135
218.059	2276
218.126	1251
218.193	1531
218.260	1629
218.327	1155
218.393	1925
218.460	1154
218.527	1373
218.594	1443
218.660	3571
218.727	4123
218.794	1620
218.860	1747
218.927	1615
218.994	1395
219.061	333
219.127	1314
219.194	2902
219.261	2179
219.327	908
219.394	1491
219.461	101
219.527	1081
219.594	2437
219.661	1816
219.727	515
219.794	1218
219.860	1534
219.927	2821
219.994	3222
220.060	4912
220.127	3725
220.193	2528
220.260	1959
220.326	4682
220.393	6962
220.460	8929
220.526	6440
220.593	2717
220.659	3853
220.726	3520
220.792	8514
220.859	7419
220.925	11852
220.992	16533
221.058	14158
221.125	12207
221.191	8364
221.258	4031
221.324	3448
221.391	2868
221.457	2338
221.524	2180
221.590	3698
221.657	8020
221.723	6995
221.789	5685
221.856	5702
221.922	2866
221.989	3046
222.055	1643
222.121	1078
222.188	2136
222.254	1885
222.321	1630
222.387	1226
222.453	1205
222.520	871
222.586	631
222.652	1789
222.719	345
222.785	2809
222.851	1542
222.918	1139
222.984	1526
223.050	1212
223.116	266
223.183	1911
223.249	1109
223.315	676
223.382	1559
223.448	773
223.514	167
223.580	1468
223.647	122
223.713	496
223.779	1248
223.845	1114
223.911	1208
223.978	183
224.044	951
224.110	-44
224.176	1532
224.242	964
224.309	-631
224.375	1790
224.441	1065
224.507	526
224.573	451
224.639	1333
224.705	-261
224.772	910
224.838	72
224.904	1026
224.970	1361
225.036	683
225.102	765
225.168	1355
225.234	622
225.300	1354
225.366	1650
225.432	1125
225.499	1625
225.565	1626
225.631	749
225.697	893
225.763	2043
225.829	2564
225.895	2039
225.961	4275
226.027	3545
226.093	3532
226.159	3995
226.225	4823
226.291	13749
226.357	22519
226.423	11887
226.489	6293
226.554	4511
226.620	3934
226.686	4615
226.752	7059
226.818	11175
226.884	26645
226.950	25663
227.016	10536
227.082	5260
227.148	5222
227.214	4979
227.279	3925
227.345	2194
227.411	3352
227.477	2809
227.543	5625
227.609	4756
227.674	4054
227.740	2589
227.806	2520
227.872	1170
227.938	1866
228.003	3370
228.069	1995
228.135	714
228.201	1688
228.267	1487
228.332	2032
228.398	2252
228.464	2541
228.530	425
228.595	1519
228.661	669
228.727	2593
228.792	3436
228.858	2305
228.924	454
228.990	3449
229.055	1506
229.121	3635
229.187	1274
229.252	1858
229.318	1088
229.384	1739
229.449	2706
229.515	385
229.581	298
229.646	2332
229.712	1742
229.777	4148
229.843	4528
229.909	3832
229.974	3549
230.040	3237
230.105	2390
230.171	2448
230.236	3317
230.302	5498
230.368	4987
230.433	1699
230.499	2641
230.564	2363
230.630	1367
230.695	862
230.761	2259
230.826	277
230.892	4156
230.957	2593
231.023	771
231.088	1232
231.154	1559
231.219	2736
231.284	2626
231.350	4022
231.415	1453
231.481	1383
231.546	1132
231.612	1319
231.677	880
231.742	-10
231.808	2601
231.873	1242
231.939	-605
232.004	3618
232.069	4256
232.135	785
232.200	580
232.265	2406
232.331	604
232.396	430
232.461	754
232.527	870
232.592	1002
232.657	1197
232.723	3018
232.788	3413
232.853	1685
232.918	1815
232.984	1206
233.049	698
233.114	2827
233.179	2960
233.245	4106
233.310	6334
233.375	1651
233.440	1497
233.506	502
233.571	1932
233.636	1640
233.701	1150
233.766	3289
233.832	4720
233.897	1290
233.962	1548
234.027	4070
234.092	3319
234.157	1692
234.222	1541
234.288	3580
234.353	10759
234.418	10211
234.483	7255
234.548	3532
234.613	2772
234.678	2958
234.743	2463
234.808	12093
234.873	7119
234.938	3280
235.004	2615
235.069	2713
235.134	1958
235.199	1831
235.264	2108
235.329	1028
235.394	2757
235.459	3878
235.524	1841
235.589	2246
235.654	1211
235.719	941
235.784	2807
235.849	2038
235.913	6351
235.978	6977
236.043	7971
236.108	2889
236.173	2889
236.238	3539
236.303	2311
236.368	1775
236.433	4694
236.498	7076
236.563	5366
236.627	9534
236.692	33945
236.757	29538
236.822	12068
236.887	8450
236.952	7401
237.017	5183
237.081	6707
237.146	6792
237.211	15331
237.276	32015
237.341	55500
237.405	28658
237.470	11749
237.535	9088
237.600	5314
237.664	4462
237.729	3282
237.794	4080
237.859	11113
237.923	7975
237.988	3935
238.053	6008
238.118	5363
238.182	14140
238.247	14210
238.312	6327
238.376	5355
238.441	3083
238.506	3491
238.570	965
238.635	3014
238.700	1912
238.764	2304
238.829	6001
238.893	8812
238.958	4090
239.023	4536
239.087	1849
239.152	2776
239.216	2422
239.281	2359
239.346	2301
239.410	3139
239.475	2763
239.539	12890
239.604	10831
239.668	4080
239.733	2070
239.797	3573
239.862	8275
239.926	12496
239.991	4828
240.055	2721
240.120	1481
240.184	2387
240.249	1515
240.313	1328
240.378	2496
240.442	7401
240.507	14423
240.571	4954
240.635	5718
240.700	8832
240.764	3573
240.829	2509
240.893	318
240.957	2487
241.022	7688
241.086	15035
241.151	6670
241.215	2016
241.279	3991
241.344	7696
241.408	4291
241.472	2942
241.537	2923
241.601	3433
241.665	950
241.730	2213
241.794	3371
241.858	2426
241.922	3393
241.987	2938
242.051	1703
242.115	1601
242.179	2703
242.244	1771
242.308	2764
242.372	2820
242.436	3079
242.501	2965
242.565	1085
242.629	1332
242.693	2814
242.757	1488
242.822	1181
242.886	2917
242.950	3017
243.014	1732
243.078	2954
243.142	4378
243.206	1662
243.271	2956
243.335	2954
243.399	4245
243.463	15331
243.527	46136
243.591	15517
243.655	6342
243.719	3835
243.783	5219
243.847	6616
243.911	9107
243.975	10693
244.040	7987
244.104	4771
244.168	2723
244.232	5487
244.296	8103
244.360	8257
244.424	4263
244.488	3455
244.552	4107
244.615	1314
244.679	3200
244.743	3198
244.807	4061
244.871	2715
244.935	2954
244.999	1208
245.063	2997
245.127	3673
245.191	5924
245.255	5306
245.319	5264
245.383	3072
245.446	3803
245.510	2424
245.574	2850
245.638	3130
245.702	2228
245.766	8718
245.829	6014
245.893	3598
245.957	2956
246.021	4163
246.085	3489
246.149	4257
246.212	11381
246.276	17073
246.340	7412
246.404	5827
246.467	5540
246.531	8105
246.595	6530
246.659	5691
246.722	3283
246.786	6912
246.850	5689
246.913	8486
246.977	2904
247.041	3865
247.104	4616
247.168	3632
247.232	11202
247.295	21796
247.359	12364
247.423	4555
247.486	10143
247.550	7475
247.614	4946
247.677	7792
247.741	4595
247.804	3330
247.868	4875
247.932	8891
247.995	22393
248.059	8465
248.122	3728
248.186	5892
248.249	9532
248.313	32141
248.376	35870
248.440	23674
248.503	8830
248.567	8194
248.630	10459
248.694	15238
248.757	18834
248.821	35647
248.884	23139
248.948	18669
249.011	29169
249.075	41409
249.138	37130
249.202	15482
249.265	9317
249.328	13118
249.392	8629
249.455	6814
249.519	5617
249.582	7255
249.645	11005
249.709	9011
249.772	6070
249.835	4750
249.899	6379
249.962	5238
250.025	4221
250.089	12940
250.152	19612
250.215	10320
250.279	6557
250.342	6691
250.405	6610
250.468	5980
250.532	7589
250.595	12129
250.658	39324
250.721	71142
250.785	26995
250.848	15029
250.911	7595
250.974	8310
251.038	9893
251.101	21750
251.164	11833
251.227	11659
251.290	11098
251.354	14466
251.417	57079
251.480	60363
251.543	37268
251.606	103907
251.669	84367
251.732	31147
251.795	31048
251.859	31655
251.922	67836
251.985	42169
252.048	15012
252.111	11593
252.174	10174
252.237	20525
252.300	43177
252.363	45421
252.426	88882
252.489	39827
252.552	19951
252.615	12934
252.678	13894
252.741	30237
252.804	40210
252.867	88819
252.930	56348
252.993	30448
253.056	18790
253.119	13025
253.182	10615
253.245	16926
253.308	14059
253.371	13155
253.434	12613
253.497	10907
253.559	21261
253.622	14617
253.685	18800
253.748	21599
253.811	9931
253.874	11790
253.937	11458
254.000	8796
254.062	14165
254.125	22530
254.188	18966
254.251	17499
254.314	8993
254.376	15562
254.439	19545
254.502	16307
254.565	14263
254.628	26558
254.690	16738
254.753	10222
254.816	8159
254.878	8612
254.941	15618
255.004	16818
255.067	7395
255.129	7536
255.192	4636
255.255	3868
255.317	5759
255.380	4489
255.443	3223
255.505	2630
255.568	2786
255.631	2800
255.693	4803
255.756	2454
255.819	3838
255.881	2070
255.944	2795
256.006	2739
256.069	2497
256.132	2873
256.194	4471
256.257	13690
256.319	10208
256.382	9345
256.444	5197
256.507	4170
256.569	3120
256.632	3353
256.694	7105
256.757	17847
256.819	54845
256.882	22275
256.944	9547
257.007	7965
257.069	8153
257.132	5582
257.194	4534
257.257	3213
257.319	3407
257.381	4197
257.444	13551
257.506	59670
257.569	69506
257.631	29735
257.693	18401
257.756	8512
257.818	7575
257.880	4746
257.943	5387
258.005	3328
258.067	3753
258.130	3515
258.192	4516
258.254	11390
258.317	6742
258.379	5134
258.441	11040
258.503	12961
258.566	15255
258.628	21970
258.690	5021
258.753	5449
258.815	11372
258.877	5097
258.939	3487
259.001	2824
259.064	3317
259.126	4234
259.188	7174
259.250	4409
259.312	4443
259.375	9549
259.437	9005
259.499	3556
259.561	3064
259.623	4113
259.685	3049
259.747	4378
259.809	12642
259.872	28465
259.934	39005
259.996	36352
260.058	9818
260.120	4534
260.182	3296
260.244	3048
260.306	3288
260.368	3174
260.430	2510
260.492	5471
260.554	9522
260.616	7440
260.678	19507
260.740	31551
260.802	7782
260.864	6281
260.926	5127
260.988	5444
261.050	3919
261.112	6582
261.174	23587
261.236	23912
261.298	7949
261.359	11932
261.421	20573
261.483	5909
261.545	5106
261.607	2318
261.669	3642
261.731	8204
261.793	21016
261.854	9445
261.916	6412
261.978	3466
262.040	4280
262.102	3415
262.164	7366
262.225	6356
262.287	3774
262.349	10448
262.411	9670
262.472	4879
262.534	7639
262.596	19381
262.658	6681
262.719	2543
262.781	6269
262.843	17302
262.904	8332
262.966	5921
263.028	6197
263.090	29602
263.151	78734
263.213	26023
263.275	13538
263.336	6214
263.398	4309
263.459	3385
263.521	3366
263.583	11018
263.644	8087
263.706	3456
263.767	2014
263.829	2675
263.891	2003
263.952	1447
264.014	678
264.075	3188
264.137	5854
264.198	5557
264.260	1517
264.321	1592
264.383	6437
264.444	12324
264.506	3573
264.567	3052
264.629	3872
264.690	5914
264.752	5130
264.813	2795
264.875	1876
264.936	3017
264.998	1680
265.059	2220
265.120	2220
265.182	5082
265.243	28035
265.305	30355
265.366	7267
265.427	3923
265.489	4965
265.550	1737
265.611	2783
265.673	2762
265.734	1850
265.795	1875
265.857	1873
265.918	2301
265.979	7506
266.040	44875
266.102	40116
266.163	10083
266.224	8342
266.286	5549
266.347	3241
266.408	3810
266.469	3601
266.530	3070
266.592	2157
266.653	6155
266.714	12395
266.775	4116
266.836	3292
266.898	2158
266.959	3954
267.020	2583
267.081	3133
267.142	2840
267.203	2439
267.264	1529
267.326	3281
267.387	2174
267.448	1673
267.509	2351
267.570	2515
267.631	2191
267.692	978
267.753	1458
267.814	2120
267.875	5603
267.936	15255
267.997	5282
268.058	4957
268.119	3813
268.180	3225
268.241	2423
268.302	2564
268.363	2189
268.424	2711
268.485	3116
268.546	1940
268.607	1112
268.668	1717
268.729	1545
268.790	2048
268.851	1820
268.912	7943
268.972	11892
269.033	5387
269.094	2561
269.155	2045
269.216	2103
269.277	3509
269.338	1842
269.398	2530
269.459	3692
269.520	5311
269.581	6856
269.642	8555
269.702	5446
269.763	3274
269.824	2212
269.885	4213
269.945	7289
270.006	3723
270.067	1809
270.128	1394
270.188	1613
270.249	1714
270.310	730
270.370	2847
270.431	2082
270.492	2347
270.553	2978
270.613	7622
270.674	14781
270.734	6681
270.795	2989
270.856	5191
270.916	4642
270.977	2413
271.038	4215
271.098	3948
271.159	6811
271.219	7203
271.280	2291
271.340	2429
271.401	3698
271.462	11019
271.522	6396
271.583	3675
271.643	3590
271.704	2876
271.764	4122
271.825	10067
271.885	32233
271.946	46398
272.006	16050
272.066	18827
272.127	35063
272.187	12298
272.248	6853
272.308	6334
272.369	22910
272.429	14336
272.489	10674
272.550	11386
272.610	11753
272.671	9920
272.731	7323
272.791	13026
272.852	7941
272.912	7379
272.972	3275
273.033	4580
273.093	6429
273.153	6805
273.214	3149
273.274	4722
273.334	14639
273.394	36190
273.455	15385
273.515	14260
273.575	31368
273.635	14389
273.696	17122
273.756	34029
273.816	14880
273.876	8738
273.936	15807
273.997	32052
274.057	7541
274.117	5905
274.177	9847
274.237	40822
274.297	38669
274.358	27933
274.418	27998
274.478	23210
274.538	8921
274.598	7189
274.658	25654
274.718	35935
274.778	13125
274.838	7977
274.898	13406
274.958	46664
275.018	35548
275.078	24525
275.138	11087
275.198	5984
275.258	4616
275.318	6064
275.378	11695
275.438	12568
275.498	9245
275.558	18835
275.618	42188
275.678	27802
275.738	15872
275.798	11997
275.858	5568
275.918	4307
275.978	4760
276.038	5590
276.098	4476
276.157	8211
276.217	27479
276.277	12937
276.337	8805
276.397	5199
276.457	5795
276.517	4168
276.576	3293
276.636	3357
276.696	5685
276.756	15130
276.815	13195
276.875	5714
276.935	6344
276.995	5867
277.055	3427
277.114	4307
277.174	6076
277.234	22353
277.293	10353
277.353	5462
277.413	3513
277.472	4343
277.532	4303
277.592	6429
277.651	14904
277.711	33612
277.771	11152
277.830	38339
277.890	34054
277.950	19812
278.009	58101
278.069	24577
278.128	21714
278.188	34059
278.248	14656
278.307	32640
278.367	23613
278.426	8323
278.486	5535
278.545	4760
278.605	3026
278.664	4544
278.724	4690
278.783	11784
278.843	36157
278.902	11446
278.962	6137
279.021	8115
279.081	7685
279.140	7177
279.199	6678
279.259	5732
279.318	6418
279.378	8743
279.437	14526
279.496	49604
279.556	137483
279.615	123884
279.675	34114
279.734	19743
279.793	26281
279.853	38567
279.912	15773
279.971	8521
280.031	7550
280.090	13612
280.149	25871
280.208	21152
280.268	89553
280.327	108812
280.386	27659
280.445	20636
280.505	20639
280.564	9591
280.623	7929
280.682	11263
280.742	20348
280.801	7122
280.860	4084
280.919	4010
280.978	3812
281.037	3886
281.097	2965
281.156	4201
281.215	3616
281.274	5230
281.333	20977
281.392	20513
281.451	5134
281.510	4130
281.569	3591
281.628	3649
281.688	2863
281.747	4281
281.806	3695
281.865	3052
281.924	2525
281.983	2890
282.042	2093
282.101	2153
282.160	2643
282.219	2732
282.278	3288
282.337	13576
282.396	10889
282.454	4529
282.513	5322
282.572	21279
282.631	14376
282.690	4703
282.749	3318
282.808	5543
282.867	4620
282.926	4481
282.985	2521
283.043	2108
283.102	2794
283.161	3841
283.220	9144
283.279	25079
283.338	7873
283.396	4252
283.455	4021
283.514	4669
283.573	7095
283.631	6435
283.690	4183
283.749	4123
283.808	9686
283.866	13034
283.925	4249
283.984	4273
284.043	6269
284.101	6575
284.160	4435
284.219	4753
284.277	5268
284.336	8914
284.395	30103
284.453	27364
284.512	9474
284.570	12989
284.629	10932
284.688	9842
284.746	9982
284.805	11588
284.863	15213
284.922	18320
284.981	20966
285.039	29772
285.098	50343
285.156	110715
285.215	178792
285.273	175655
285.332	128293
285.390	70286
285.449	43950
285.507	29480
285.566	21283
285.624	15813
285.683	12656
285.741	10028
285.799	8926
285.858	8832
285.916	7848
285.975	5414
286.033	4869
286.091	4672
286.150	4517
286.208	4616
286.267	5254
286.325	5479
286.383	8399
286.442	7947
286.500	3496
286.558	4526
286.616	3592
286.675	5316
286.733	5547
286.791	5041
286.850	5233
286.908	6795
286.966	12442
287.024	5365
287.083	2939
287.141	3056
287.199	2616
287.257	6222
287.315	4657
287.374	4648
287.432	13059
287.490	9837
287.548	4708
287.606	3508
287.664	3505
287.723	5737
287.781	7503
287.839	3893
287.897	4687
287.955	6098
288.013	8711
288.071	21287
288.129	79859
288.187	231172
288.245	110449
288.303	33330
288.361	17900
288.419	14948
288.477	10363
288.535	6983
288.593	5637
288.651	4894
288.709	3005
288.767	3784
288.825	3470
288.883	2889
288.941	2372
288.999	2231
289.057	2517
289.115	2652
289.173	2306
289.231	2239
289.289	2234
289.346	2226
289.404	3915
289.462	7231
289.520	7430
289.578	3247
289.636	2266
289.694	1739
289.751	2235
289.809	1659
289.867	2209
289.925	3611
289.983	4568
290.040	2855
290.098	1242
290.156	3626
290.214	4294
290.271	2585
290.329	2250
290.387	1482
290.444	1711
290.502	1674
290.560	808
290.617	1420
290.675	1866
290.733	1397
290.790	3334
290.848	1628
290.906	2441
290.963	2567
291.021	1876
291.078	2171
291.136	1986
291.194	7958
291.251	19785
291.309	7134
291.366	2751
291.424	2988
291.481	1689
291.539	1715
291.596	2422
291.654	1138
291.711	1482
291.769	2854
291.826	7842
291.884	5209
291.941	2060
291.999	2183
292.056	2336
292.114	3568
292.171	2182
292.228	2939
292.286	3362
292.343	6986
292.401	9019
292.458	4564
292.515	3120
292.573	3996
292.630	4383
292.687	4753
292.745	2771
292.802	3284
292.859	8614
292.917	24531
292.974	16545
293.031	4934
293.089	2882
293.146	2613
293.203	2462
293.260	2081
293.318	2433
293.375	3172
293.432	2021
293.489	1587
293.546	2032
293.604	4214
293.661	13796
293.718	36146
293.775	20700
293.832	10109
293.889	7927
293.947	6519
294.004	4939
294.061	5369
294.118	10265
294.175	20502
294.232	17029
294.289	7680
294.346	3989
294.403	4120
294.460	4414
294.517	3195
294.574	2830
294.631	2728
294.688	3728
294.745	10126
294.802	37066
294.859	34797
294.916	13279
294.973	7578
295.030	7962
295.087	7131
295.144	4155
295.201	4137
295.258	3642
295.315	5144
295.372	16074
295.429	33009
295.486	14846
295.542	7717
295.599	10447
295.656	17579
295.713	16236
295.770	30270
295.827	12864
295.883	6246
295.940	4993
295.997	9950
296.054	10576
296.111	5021
296.167	3425
296.224	3160
296.281	2255
296.338	2666
296.394	2641
296.451	4721
296.508	12531
296.564	26055
296.621	17305
296.678	31101
296.734	49412
296.791	19327
296.848	9686
296.904	10731
296.961	24649
297.018	36439
297.074	26701
297.131	10070
297.187	7255
297.244	12366
297.301	31784
297.357	63258
297.414	24165
297.470	9766
297.527	5794
297.583	5169
297.640	4883
297.696	4322
297.753	2615
297.809	2662
297.866	2278
297.922	2916
297.979	2521
298.035	3910
298.092	7151
298.148	19877
298.204	21432
298.261	10777
298.317	14514
298.374	39959
298.430	26884
298.486	12795
298.543	8692
298.599	7211
298.656	7995
298.712	14516
298.768	35082
298.824	26272
298.881	9005
298.937	5320
298.993	4406
299.050	6149
299.106	5804
299.162	4043
299.218	4905
299.275	3848
299.331	4695
299.387	10276
299.443	35360
299.500	41616
299.556	16683
299.612	7317
299.668	7513
299.724	7157
299.780	8905
299.837	6605
299.893	9498
299.949	32424
300.005	41719
300.061	31275
300.117	49275
300.173	28276
300.229	12924
300.285	13566
300.341	18556
300.397	9129
300.453	5246
300.510	4212
300.566	4900
300.622	6237
300.678	14628
300.734	33661
300.790	32557
300.845	40121
300.901	25503
300.957	32980
301.013	30292
301.069	12444
301.125	8079
301.181	8743
301.237	6446
301.293	4715
301.349	3753
301.405	4021
301.461	3113
301.516	2669
301.572	3512
301.628	10781
301.684	10430
301.740	13424
301.796	23715
301.851	16677
301.907	27718
301.963	29363
302.019	39906
302.074	101835
302.130	106908
302.186	49673
302.242	20485
302.297	14243
302.353	13169
302.409	24519
302.464	22904
302.520	18520
302.576	38376
302.631	49387
302.687	30624
302.743	13904
302.798	7509
302.854	6830
302.910	6391
302.965	7488
303.021	14012
303.076	14315
303.132	17176
303.187	21632
303.243	12223
303.299	6423
303.354	4047
303.410	3923
303.465	4438
303.521	4137
303.576	3958
303.632	6284
303.687	10885
303.743	31493
303.798	30851
303.853	12669
303.909	6452
303.964	6782
304.020	10300
304.075	16318
304.130	14897
304.186	26125
304.241	28406
304.297	22120
304.352	10778
304.358	10252
304.407	5983
304.449	6158
304.463	6224
304.518	6478
304.539	6066
304.573	5406
304.629	5430
304.630	5505
304.684	9204
304.720	18637
304.739	23341
304.794	39350
304.811	33925
304.850	20905
304.902	8885
304.905	8115
304.960	6630
304.992	6213
305.015	5907
305.071	4831
305.083	4664
305.126	4020
305.173	3684
305.181	3660
305.236	2873
305.264	3286
305.292	3607
305.347	4462
305.354	4439
305.402	4546
305.445	5083
305.457	5207
305.512	7294
305.535	7803
305.567	8413
305.622	7284
305.626	7522
305.678	13863
305.716	28944
305.733	34204
305.788	44202
305.807	38193
305.843	28064
305.897	32371
305.898	32390
305.953	35181
305.988	23903
306.008	17698
306.063	9605
306.078	8514
306.118	6255
306.168	4660
306.173	4515
306.228	4029
306.259	3396
306.283	2944
306.338	3208
306.349	3223
306.393	3510
306.440	4289
306.448	4390
306.503	4773
306.530	4644
306.558	5203
306.613	11614
306.620	12529
306.668	20363
306.711	32246
306.723	33850
306.778	30800
306.801	23690
306.833	15658
306.888	7503
306.892	7291
306.943	5506
306.982	3843
306.997	3299
307.052	3557
307.072	3408
307.107	3453
307.162	4145
307.163	4164
307.217	6505
307.253	7898
307.272	7965
307.327	8478
307.343	7878
307.381	7063
307.434	7370
307.436	7590
307.491	14605
307.524	21742
307.546	24191
307.600	30280
307.614	27548
307.655	17218
307.704	9189
307.710	8797
307.765	7842
307.795	9373
307.819	10858
307.874	16579
307.885	16537
307.929	13832
307.975	11460
307.984	11834
308.038	18262
308.065	23555
308.093	42047
308.148	89350
308.156	100234
308.202	156340
308.246	197153
308.257	193517
308.312	106164
308.336	73525
308.366	54721
308.421	35492
308.426	33683
308.475	21163
308.517	14468
308.530	13149
308.585	10675
308.607	10068
308.639	10003
308.694	9994
308.697	10090
308.748	14677
308.787	20175
308.803	20366
308.857	16553
308.877	14563
308.912	12898
308.967	13065
308.967	13095
309.021	19443
309.058	25534
309.076	32670
309.130	59836
309.148	70987
309.185	131984
309.238	231764
309.239	232365
309.293	255808
309.328	236541
309.348	204847
309.402	97460
309.418	70942
309.457	47821
309.508	28865
309.511	28333
309.566	25825
309.598	26030
309.620	29567
309.674	42411
309.688	46061
309.729	44492
309.778	35348
309.783	34490
309.837	23773
309.868	19244
309.892	22380
309.946	33284
309.959	37335
310.001	49758
310.049	60875
310.055	59042
310.109	34805
310.139	20373
310.163	15035
310.218	7845
310.229	6835
310.272	5665
310.319	4913
310.326	4721
310.381	3663
310.409	3322
310.435	3357
310.489	3125
310.499	3148
310.543	3296
310.589	3501
310.598	3458
310.652	3379
310.679	3086
310.706	2657
310.760	2174
310.769	2110
310.814	2313
310.859	2531
310.868	2474
310.923	2089
310.948	1971
310.977	2269
311.031	2789
311.038	2884
311.085	2672
311.128	2249
311.139	2287
311.193	2760
311.218	2857
311.247	2559
311.301	2134
311.308	2089
311.356	1933
311.398	1713
311.410	1712
311.464	1837
311.488	1899
311.518	2275
311.572	2904
311.578	2995
311.626	4306
311.668	5442
311.680	5269
311.734	4289
311.758	3877
311.788	3387
311.842	2533
311.847	2456
311.896	3744
311.937	4859
311.950	4703
312.004	4026
312.027	3731
312.058	3387
312.112	2791
312.117	2740
312.165	2461
312.207	2244
312.297	2982
312.386	2561
312.476	3703
312.566	7336
312.656	3449
312.745	1039
312.835	2637
312.925	2284
313.015	2429
313.104	2417
313.194	2751
313.284	2275
313.374	3611
313.463	3002
313.553	2825
313.643	1946
313.732	1911
313.822	1782
313.912	2469
314.001	2589
314.091	2817
314.180	3232
314.270	4472
314.360	4540
314.449	3871
314.539	1688
314.628	2524
314.718	2470
314.808	3185
314.897	2149
314.987	3072
315.076	3490
315.166	4653
315.255	4132
315.345	4022
315.434	3733
315.524	3952
315.613	4705
315.703	7185
315.792	11891
315.881	38869
315.971	12370
316.060	9765
316.150	10277
316.239	9795
316.328	3701
316.418	2735
316.507	3300
316.597	4550
316.686	3603
316.775	5269
316.865	9459
316.954	2924
317.043	2465
317.133	3162
317.222	1582
317.311	2426
317.400	1288
317.490	5102
317.579	5663
317.668	4706
317.757	7055
317.847	19660
317.936	70743
318.025	25326
318.114	13748
318.203	7417
318.293	3930
318.382	5474
318.471	7975
318.560	8245
318.649	18162
318.738	4229
318.828	4019
318.917	5197
319.006	5646
319.095	12395
319.184	27286
319.273	20487
319.362	13628
319.451	3926
319.540	4037
319.629	11534
319.718	18565
319.807	6885
319.896	10523
319.985	37391
320.074	15132
320.163	3784
320.252	5446
320.341	3602
320.430	3410
320.519	8497
320.608	3846
320.697	3020
320.786	3158
320.875	6447
320.964	8475
321.053	12640
321.142	18673
321.230	20801
321.319	13763
321.408	31826
321.497	12202
321.586	13320
321.675	11531
321.764	11384
321.852	7841
321.941	18508
322.030	11495
322.119	11531
322.207	34295
322.296	17316
322.385	8756
322.474	13547
322.562	42902
322.651	19254
322.740	14521
322.829	17549
322.917	15091
323.006	11628
323.095	9192
323.183	6380
323.272	8743
323.361	17535
323.449	48989
323.538	15813
323.626	31721
323.715	17960
323.804	8205
323.892	28199
323.981	17425
324.069	5284
324.158	13323
324.246	13995
324.335	6345
324.424	12164
324.512	4534
324.601	8314
324.689	25522
324.778	48553
324.866	13877
324.954	3581
325.043	3303
325.131	7211
325.220	10981
325.308	11965
325.397	8981
325.485	5994
325.574	1808
325.662	1803
325.750	2418
325.839	2796
325.927	2317
326.015	3473
326.104	4434
326.192	6970
326.280	1651
326.369	2219
326.457	4735
326.545	10247
326.634	3114
326.722	1881
326.810	1853
326.898	2213
326.987	2696
327.075	8082
327.163	8700
327.251	5482
327.340	17440
327.428	25865
327.516	2647
327.604	1788
327.692	2540
327.781	3064
327.869	4458
327.957	4147
328.045	3936
328.133	3027
328.221	2494
328.309	2105
328.397	2391
328.485	4130
328.574	6129
328.662	23180
328.750	9612
328.838	3763
328.926	1811
329.014	2435
329.102	3159
329.190	7618
329.278	6146
329.366	1589
329.454	939
329.542	1368
329.630	233
329.718	2163
329.806	1590
329.893	2645
329.981	2046
330.069	3951
330.157	14871
330.245	44997
330.333	21190
330.421	4956
330.509	6560
330.597	27095
330.684	14260
330.772	3914
330.860	2617
330.948	4565
331.036	2348
331.123	1177
331.211	649
331.299	2084
331.387	3935
331.475	7660
331.562	2074
331.650	1686
331.738	1722
331.825	2342
331.913	409
332.001	1897
332.089	1552
332.176	4275
332.264	12899
332.352	9449
332.439	3001
332.527	1883
332.614	912
332.702	2628
332.790	2180
332.877	6611
332.965	12130
333.052	4390
333.140	4174
333.228	11564
333.315	2992
333.403	2327
333.490	6624
333.578	7353
333.665	15258
333.753	7080
333.840	1775
333.928	3903
334.015	8432
334.103	11882
334.190	37286
334.278	9395
334.365	4738
334.452	5304
334.540	1741
334.627	2781
334.715	4779
334.802	11483
334.889	53330
334.977	57072
335.064	9537
335.151	3190
335.239	2652
335.326	4581
335.413	17038
335.501	20833
335.588	3585
335.675	2030
335.762	2650
335.850	4391
335.937	5152
336.024	15021
336.111	55813
336.199	25199
336.286	5776
336.373	3092
336.460	1496
336.547	2093
336.635	2641
336.722	2908
336.809	1147
336.896	4157
336.983	10424
337.070	24928
337.157	36332
337.245	32080
337.332	21690
337.419	2937
337.506	1480
337.593	2344
337.680	5655
337.767	16856
337.854	5906
337.941	6971
338.028	10000
338.115	3013
338.202	4377
338.289	9433
338.376	33327
338.463	10141
338.550	9097
338.637	11230
338.724	5008
338.811	9112
338.898	1924
338.984	1581
339.071	1071
339.158	5632
339.245	12600
339.332	6697
339.419	6620
339.506	6688
339.593	1030
339.679	3000
339.766	1058
339.853	3956
339.940	8842
340.027	3037
340.113	2744
340.200	4907
340.287	2598
340.374	3890
340.460	7744
340.547	2975
340.634	7373
340.720	27999
340.807	14940
340.894	2499
340.980	1897
341.067	2658
341.154	2883
341.240	5928
341.327	11870
341.414	2744
341.500	421
341.587	2366
341.674	2776
341.760	7412
341.847	9790
341.933	2385
342.020	176
342.106	1185
342.193	2461
342.279	6718
342.366	3345
342.452	8621
342.539	4353
342.625	12153
342.712	29721
342.798	11586
342.885	3982
342.971	1312
343.058	1478
343.144	1879
343.230	1772
343.317	1857
343.403	477
343.490	1478
343.576	1002
343.662	2509
343.749	2346
343.835	5809
343.921	9554
344.008	57671
344.094	123974
344.180	25220
344.267	9412
344.353	34524
344.439	32353
344.525	13096
344.612	3614
344.698	3351
344.784	2541
344.870	1845
344.957	1922
345.043	4661
345.129	2726
345.215	8107
345.301	3774
345.387	3592
345.474	89
345.560	1096
345.646	728
345.732	1773
345.818	2301
345.904	1357
345.990	3133
346.076	2518
346.162	2869
346.249	2456
346.335	1911
346.421	3316
346.507	13992
346.593	50746
346.679	10343
346.765	2777
346.851	1971
346.937	1686
347.023	2657
347.108	3591
347.194	2219
347.280	1424
347.366	3534
347.452	14878
347.538	62088
347.624	43436
347.710	32667
347.796	4365
347.882	2108
347.967	1699
348.053	2214
348.139	2393
348.225	1793
348.311	1231
348.397	2188
348.482	3681
348.568	2101
348.654	1559
348.740	3233
348.825	2519
348.911	6718
348.997	28380
349.083	53007
349.168	7347
349.254	1889
349.340	1451
349.425	1524
349.511	4616
349.597	4105
349.682	10577
349.768	35328
349.854	15304
349.939	2567
350.025	1817
350.110	1450
350.196	1859
350.282	645
350.367	1782
350.453	2072
350.538	4185
350.624	3776
350.709	2944
350.795	489
350.880	1975
350.966	2762
351.051	3959
351.137	1285
351.222	2848
351.308	9689
351.393	29875
351.479	4838
351.564	939
351.649	1844
351.735	1645
351.820	656
351.906	1899
351.991	3696
352.076	19682
352.162	27944
352.247	4576
352.332	2589
352.418	5212
352.503	7744
352.588	42302
352.673	32186
352.759	7029
352.844	2290
352.929	4062
353.014	4076
353.100	3062
353.185	4128
353.270	9794
353.355	10234
353.441	2560
353.526	2285
353.611	8947
353.696	9227
353.781	7051
353.866	1181
353.952	3496
354.037	8209
354.122	21374
354.207	18995
354.292	6286
354.377	2172
354.462	2217
354.547	3528
354.632	2787
354.717	2932
354.802	3982
354.887	2005
354.972	1064
355.057	2304
355.142	1656
355.227	2738
355.312	5730
355.397	13509
355.482	34615
355.567	14489
355.652	11956
355.737	12362
355.822	42489
355.907	31086
355.991	5259
356.076	2017
356.161	2503
356.246	1510
356.331	3306
356.416	9136
356.501	70221
356.585	67721
356.670	7506
356.755	5366
356.840	9154
356.924	44058
357.009	161287
357.094	56038
357.179	11480
357.263	7283
357.348	7229
357.433	5069
357.517	7109
357.602	4031
357.687	3672
357.771	3406
357.856	4611
357.941	6026
358.025	35561
358.110	149695
358.195	64027
358.279	8529
358.364	7435
358.448	28285
358.533	78270
358.617	52507
358.702	53753
358.787	18410
358.871	10301
358.956	7344
359.040	1746
359.125	1584
359.209	2155
359.294	1839
359.378	2614
359.462	6536
359.547	3765
359.631	1753
359.716	764
359.800	1632
359.885	3783
359.969	1644
360.053	2649
360.138	2258
360.222	5468
360.306	9484
360.391	6015
360.475	7872
360.559	19432
360.644	26684
360.728	19896
360.812	37677
360.896	104484
360.981	35291
361.065	16229
361.149	3779
361.233	4784
361.318	2957
361.402	3778
361.486	3633
361.570	2130
361.654	4691
361.739	14008
361.823	67410
361.907	101133
361.991	14795
362.075	9466
362.159	18615
362.243	13017
362.327	10162
362.411	14990
362.495	6855
362.580	3724
362.664	2059
362.748	1474
362.832	3033
362.916	4544
363.000	22979
363.084	84067
363.168	118670
363.252	23899
363.336	7065
363.420	10381
363.503	24823
363.587	25489
363.671	5506
363.755	3626
363.839	8605
363.923	3282
364.007	9050
364.091	9284
364.175	8608
364.258	40061
364.342	30840
364.426	51106
364.510	25535
364.594	12093
364.677	18053
364.761	91743
364.845	59951
364.929	18628
365.013	14046
365.096	11644
365.180	12212
365.264	11951
365.347	39978
365.431	15070
365.515	3251
365.598	3201
365.682	3272
365.766	1524
365.849	2964
365.933	3897
366.017	4668
366.100	939
366.184	190
366.267	2632
366.351	1214
366.435	1693
366.518	1123
366.602	1588
366.685	2446
366.769	3173
366.852	3869
366.936	8627
367.019	5754
367.103	1463
367.186	3366
367.270	2374
367.353	362
367.436	2177
367.520	1390
367.603	3263
367.687	4465
367.770	11141
367.853	7422
367.937	27005
368.020	40897
368.104	8204
368.187	8643
368.270	11397
368.353	9495
368.437	11402
368.520	21139
368.603	16310
368.687	28801
368.770	54561
368.853	10807
368.936	10106
369.020	6565
369.103	3180
369.186	353
369.269	1603
369.352	7414
369.436	9951
369.519	4886
369.602	783
369.685	3321
369.768	3264
369.851	2760
369.934	1658
370.018	2638
370.101	9006
370.184	6579
370.267	3017
370.350	5840
370.433	11465
370.516	44415
370.599	58498
370.682	15171
370.765	29419
370.848	36178
370.931	69607
371.014	21423
371.097	3408
371.180	3070
371.263	2336
371.346	495
371.429	2089
371.511	1520
371.594	5488
371.677	7095
371.760	6679
371.843	9338
371.926	52118
372.009	113293
372.091	33335
372.174	25142
372.257	63114
372.340	20866
372.423	10394
372.505	9096
372.588	5506
372.671	19860
372.754	69760
372.836	30268
372.919	11782
373.002	19107
373.085	7521
373.167	9491
373.250	28983
373.332	64886
373.415	84551
373.498	168268
373.580	56651
373.663	84546
373.746	105837
373.828	21162
373.911	8263
373.993	7340
374.076	19849
374.159	16411
374.241	17110
374.324	57490
374.406	35080
374.489	50366
374.571	139446
374.654	52632
374.736	27536
374.819	86515
374.901	125863
374.983	121809
375.066	19006
375.148	5857
375.231	18034
375.313	31043
375.395	11715
375.478	3813
375.560	2987
375.643	5085
375.725	26629
375.807	114621
375.890	74067
375.972	21820
376.054	13850
376.136	17097
376.219	8687
376.301	32152
376.383	99596
376.465	34374
376.548	21114
376.630	26595
376.712	84975
376.794	33273
376.877	4157
376.959	1458
377.041	2863
377.123	2501
377.205	4042
377.287	747
377.369	1778
377.452	1576
377.534	2278
377.616	1264
377.698	1868
377.780	685
377.862	2787
377.944	2890
378.026	279
378.108	892
378.190	1263
378.272	1825
378.354	1052
378.436	189
378.518	2231
378.600	10565
378.682	13692
378.764	39883
378.846	29088
378.928	6466
379.010	9952
379.091	5056
379.173	2729
379.255	1446
379.337	4565
379.419	18634
379.501	56180
379.583	19143
379.664	5239
379.746	12510
379.828	39004
379.910	52541
379.991	45189
380.073	6272
380.155	3138
380.237	2238
380.318	1346
380.400	1565
380.482	7633
380.564	10706
380.645	10145
380.727	8504
380.809	6331
380.890	3252
380.972	2273
381.053	2652
381.135	4409
381.217	12335
381.298	39478
381.380	16518
381.461	15317
381.543	83410
381.624	96011
381.706	14908
381.787	5691
381.869	7842
381.951	35177
382.032	134329
382.113	77972
382.195	12133
382.276	9461
382.358	22046
382.439	70894
382.521	81089
382.602	126249
382.684	51619
382.765	100337
382.846	92873
382.928	128593
383.009	63898
383.090	42812
383.172	177951
383.253	273882
383.334	90322
383.416	110547
383.497	50367
383.578	19287
383.659	35713
383.741	149649
383.822	407082
383.903	193734
383.984	74670
384.066	133698
384.147	75982
384.228	14695
384.309	10658
384.390	7669
384.471	4339
384.553	6672
384.634	8306
384.715	9692
384.796	4033
384.877	6821
384.958	35920
385.039	41386
385.120	12260
385.201	5454
385.282	5319
385.363	5151
385.444	4634
385.525	11372
385.606	52951
385.687	43245
385.768	7413
385.849	10366
385.930	58254
386.011	96665
386.092	21360
386.173	4715
386.254	2632
386.335	4482
386.416	3951
386.496	22179
386.577	36521
386.658	9967
386.739	3926
386.820	4845
386.901	2763
386.981	3464
387.062	2765
387.143	7943
387.224	38402
387.304	32413
387.385	9898
387.466	3301
387.547	5185
387.627	3503
387.708	14867
387.789	71490
387.869	81380
387.950	19987
388.031	1529
388.111	844
388.192	4788
388.273	7317
388.353	3631
388.434	4684
388.514	13445
388.595	65126
388.676	80738
388.756	35098
388.837	35488
388.917	19670
388.998	2230
389.078	3834
389.159	3217
389.239	1701
389.320	6332
389.400	3649
389.480	13180
389.561	40029
389.641	18007
389.722	6190
389.802	8483
389.883	16874
389.963	49255
390.043	25604
390.124	4651
390.204	11242
390.284	41562
390.365	23645
390.445	20110
390.525	81477
390.605	74388
390.686	20462
390.766	5780
390.846	4534
390.927	1135
391.007	1597
391.087	2950
391.167	2250
391.247	135
391.328	4465
391.408	4342
391.488	3484
391.568	394
391.648	4361
391.728	6429
391.808	7699
391.888	7013
391.969	21453
392.049	33910
392.129	11640
392.209	16242
392.289	46455
392.369	20595
392.449	9184
392.529	5843
392.609	9076
392.689	12889
392.769	46859
392.849	36372
392.929	23697
393.009	58036
393.089	45799
393.169	39488
393.248	138877
393.328	575141
393.408	597793
393.488	142897
393.568	37193
393.648	17560
393.728	11952
393.807	7437
393.887	8965
393.967	6837
394.047	8323
394.127	10359
394.206	18858
394.286	72668
394.366	329853
394.446	333527
394.525	70248
394.605	15760
394.685	11746
394.764	14999
394.844	21511
394.924	16891
395.003	8741
395.083	6852
395.163	6203
395.242	5346
395.322	5770
395.402	3095
395.481	6779
395.561	10948
395.640	30719
395.720	27587
395.799	29850
395.879	24524
395.958	26051
396.038	106329
396.117	431500
396.197	442899
396.276	112166
396.356	30595
396.435	18807
396.515	15191
396.594	20379
396.673	38129
396.753	154544
396.832	524997
396.912	367744
396.991	77959
397.070	21136
397.150	9876
397.229	8143
397.308	8990
397.388	15644
397.467	7120
397.546	3794
397.625	697
397.705	5040
397.784	5345
397.863	2462
397.942	756
398.022	2317
398.101	6265
398.180	19568
398.259	8581
398.338	4108
398.417	2356
398.497	1551
398.576	2206
398.655	385
398.734	1177
398.813	1603
398.892	6144
398.971	22116
399.050	8056
399.129	622
399.208	679
399.287	1684
399.366	-817
399.445	670
399.524	173
399.603	309
399.682	3558
399.761	11500
399.840	26747
399.919	18036
399.998	1986
400.077	485
400.156	-488
400.235	2920
400.313	524
400.392	2191
400.471	20018
400.550	32359
400.629	5797
400.708	2163
400.786	347
400.865	2530
400.944	3109
401.023	3766
401.102	243
401.180	321
401.259	539
401.338	614
401.416	3082
401.495	803
401.574	666
401.652	-406
401.731	2106
401.810	460
401.888	444
401.967	-586
402.046	53
402.124	2413
402.203	1536
402.281	1025
402.360	262
402.438	5169
402.517	1608
402.596	531
402.674	2
402.753	153
402.831	599
402.910	2092
402.988	5987
403.066	23943
403.145	11745
403.223	7808
403.302	17140
403.380	12760
403.459	11245
403.537	3032
403.615	926
403.694	-588
403.772	747
403.850	-569
403.929	-586
404.007	-462
404.085	2437
404.164	1957
404.242	115
404.320	2065
404.398	5071
404.477	19529
404.555	106702
404.633	84604
404.711	9808
404.789	1648
404.868	483
404.946	673
405.024	-523
405.102	-265
405.180	-203
405.258	-692
405.336	226
405.415	427
405.493	1351
405.571	2195
405.649	-1182
405.727	-1073
405.805	1754
405.883	1541
405.961	1007
406.039	560
406.117	-732
406.195	4158
406.273	22507
406.351	89795
406.429	46125
406.507	4034
406.585	1197
406.663	1815
406.740	2799
406.818	1884
406.896	162
406.974	2273
407.052	5385
407.130	52948
407.208	68841
407.285	12347
407.363	503
407.441	1798
407.519	465
407.596	2705
407.674	9316
407.752	39032
407.830	28169
407.907	4499
407.985	597
408.063	1543
408.141	-201
408.218	1841
408.296	-1096
408.373	1350
408.451	1699
408.529	2089
408.606	-289
408.684	-226
408.762	-555
408.839	-596
408.917	-616
408.994	-730
409.072	-827
409.149	-303
409.227	776
409.304	966
409.382	776
409.459	2025
409.537	3418
409.614	3069
409.692	339
409.769	1626
409.846	3364
409.924	4402
410.001	319
410.079	1109
410.156	1666
410.233	1357
410.311	225
410.388	-237
410.465	-744
410.543	-481
410.620	-344
410.697	1107
410.775	1417
410.852	-691
410.929	832
411.006	2163
411.083	-1125
411.161	339
411.238	520
411.315	721
411.392	-166
411.469	752
411.547	-725
411.624	-1213
411.701	-935
411.778	1011
411.855	4362
411.932	1480
412.009	-500
412.086	229
412.163	623
412.240	350
412.317	137
412.394	-77
412.471	-588
412.548	-121
412.625	-619
412.702	1282
412.779	1610
412.856	1075
412.933	-1423
413.010	-418
413.087	1681
413.164	17008
413.241	24756
413.318	4033
413.395	2375
413.471	3328
413.548	537
413.625	1113
413.702	369
413.779	21
413.855	-489
413.932	-720
414.009	-1556
414.086	-104
414.162	-422
414.239	2564
414.316	17812
414.393	42662
414.469	12343
414.546	332
414.623	-723
414.699	130
414.776	194
414.853	577
414.929	306
415.006	280
415.082	-225
415.159	-68
415.236	62
415.312	278
415.389	3267
415.465	5000
415.542	1254
415.618	395
415.695	2255
415.771	1553
415.848	374
415.924	672
416.000	-180
416.077	1214
416.153	-1465
416.230	-998
416.306	-479
416.383	-333
416.459	-632
416.535	-1000
416.612	-850
416.688	-356
416.764	-898
416.841	-546
416.917	-638
416.993	303
417.069	169
417.146	598
417.222	2614
417.298	1282
417.374	-801
417.451	1071
417.527	1107
417.603	2183
417.679	631
417.755	464
417.831	-1141
417.908	-486
417.984	-695
418.060	-780
418.136	3708
418.212	5713
418.288	367
418.364	268
418.440	-620
418.516	2358
418.592	1102
418.668	6063
418.744	11357
418.820	8074
418.896	423
418.972	-539
419.048	459
419.124	5553
419.200	2225
419.276	0
419.352	-1446
419.428	-27
419.504	418
419.579	2187
419.655	757
419.731	1025
419.807	8230
419.883	14718
419.959	9067
420.034	1938
420.110	5551
420.186	26441
420.262	17972
420.337	1921
420.413	943
420.489	462
420.565	-230
420.640	-126
420.716	479
420.792	-486
420.867	988
420.943	-293
421.019	2269
421.094	1710
421.170	184
421.245	799
421.321	-92
421.397	847
421.472	5281
421.548	19845
421.623	11292
421.699	2150
421.774	2103
421.850	1392
421.925	4194
422.001	3730
422.076	1814
422.152	2884
422.227	5605
422.302	6231
422.378	8679
422.453	17532
422.529	48678
422.604	171414
422.679	304633
422.755	178266
422.830	50355
422.905	18558
422.981	8780
423.056	5631
423.131	3854
423.207	3095
423.282	2773
423.357	7689
423.432	4014
423.508	4628
423.583	12508
423.658	8523
423.733	1540
423.808	2474
423.883	3413
423.959	2509
424.034	1203
424.109	2245
424.184	-195
424.259	219
424.334	-317
424.409	-118
424.484	-197
424.559	1487
424.634	-118
424.709	2016
424.784	2264
424.859	1351
424.934	3440
425.009	18499
425.084	30961
425.159	9913
425.234	345
425.309	-377
425.384	-362
425.459	-450
425.534	-428
425.609	79
425.683	-839
425.758	-114
425.833	-244
425.908	2384
425.983	10194
426.058	32353
426.132	11572
426.207	204
426.282	1002
426.357	-155
426.431	-141
426.506	-223
426.581	-866
426.655	273
426.730	216
426.805	-585
426.879	-128
426.954	1322
427.029	3957
427.103	31747
427.178	78303
427.253	31309
427.327	2739
427.402	-78
427.476	809
427.551	-331
427.625	278
427.700	489
427.774	-1852
427.849	384
427.923	-1545
427.998	-99
428.072	-1721
428.147	3307
428.221	19235
428.296	57946
428.370	26961
428.444	2011
428.519	1403
428.593	2510
428.667	1904
428.742	3133
428.816	4663
428.890	29410
428.965	46484
429.039	10753
429.113	4246
429.188	934
429.262	-238
429.336	3384
429.410	13327
429.485	7746
429.559	2742
429.633	1731
429.707	-227
429.781	4388
429.855	31102
429.930	51915
430.004	18884
430.078	18680
430.152	23893
430.226	78071
430.300	77881
430.374	10128
430.448	1755
430.522	6908
430.596	18955
430.670	18114
430.744	74604
430.818	108054
430.892	20869
430.966	3582
431.040	839
431.114	-476
431.188	-696
431.262	-550
431.336	-1061
431.410	1414
431.484	6045
431.557	6078
431.631	-510
431.705	830
431.779	8778
431.853	49293
431.927	31985
432.000	3743
432.074	2
432.148	571
432.222	-363
432.295	-45
432.369	-592
432.443	2909
432.516	29651
432.590	79368
432.664	27083
432.737	2655
432.811	-600
432.885	-569
432.958	-685
433.032	-1394
433.106	-889
433.179	-109
433.253	-1482
433.326	-689
433.400	-1514
433.473	-1131
433.547	-1419
433.620	-277
433.694	1457
433.767	2608
433.841	-1230
433.914	-819
433.988	-1651
434.061	-1356
434.134	-924
434.208	-962
434.281	-1492
434.355	-1210
434.428	-634
434.501	-988
434.575	-742
434.648	-792
434.721	-1820
434.795	-444
434.868	-1498
434.941	-1148
435.014	-731
435.088	-769
435.161	128
435.234	1857
435.307	2426
435.381	887
435.454	-417
435.527	1620
435.600	775
435.673	412
435.746	-591
435.819	-101
435.892	-1282
435.966	-270
436.039	-196
436.112	-650
436.185	-2250
436.258	-1794
436.331	-2756
436.404	-478
436.477	-1316
436.550	-86
436.623	-787
436.696	-697
436.769	-226
436.842	-408
436.915	-597
436.987	83
437.060	-914
437.133	-1036
437.206	-1806
437.279	-331
437.352	-1091
437.425	-544
437.498	-204
437.570	3405
437.643	2889
437.716	290
437.789	-1258
437.861	-650
437.934	-206
438.007	158
438.080	-1120
438.152	318
438.225	4545
438.298	43773
438.370	118734
438.443	44631
438.516	3868
438.588	1153
438.661	-724
438.734	-109
438.806	361
438.879	1003
438.951	-753
439.024	332
439.096	-301
439.169	-198
439.241	-1587
439.314	-840
439.386	-1047
439.459	411
439.531	130
439.604	-18
439.676	-1036
439.749	-580
439.821	-1497
439.893	-515
439.966	-660
440.038	132
440.110	-269
440.183	-135
440.255	-1215
440.327	1689
440.400	14784
440.472	72377
440.544	49596
440.617	5003
440.689	1106
440.761	991
440.833	1295
440.905	1359
440.978	-1899
441.050	-1102
441.122	-1292
441.194	-1279
441.266	-487
441.338	-554
441.411	2227
441.483	22087
441.555	35980
441.627	6901
441.699	714
441.771	-111
441.843	-731
441.915	-778
441.987	-1051
442.059	-330
442.131	-1079
442.203	-451
442.275	461
442.347	1051
442.419	3064
442.491	19493
442.563	52242
442.635	21571
442.706	6967
442.778	8134
442.850	839
442.922	-182
442.994	-682
443.066	1070
443.137	1062
443.209	698
443.281	523
443.353	4499
443.425	24916
443.496	103668
443.568	96500
443.640	31733
443.711	5151
443.783	1212
443.855	-1033
443.926	-492
443.998	-547
444.070	892
444.141	-519
444.213	2375
444.285	4406
444.356	2342
444.428	-326
444.499	17
444.571	-768
444.642	-1
444.714	110
444.785	2598
444.857	2193
444.928	2581
445.000	1590
445.071	2301
445.143	2177
445.214	1885
445.285	3421
445.357	14062
445.428	66064
445.500	167149
445.571	94181
445.642	45207
445.714	13149
445.785	7876
445.856	2388
445.928	4621
445.999	1743
446.070	645
446.141	766
446.213	3209
446.284	411
446.355	240
446.426	-1008
446.497	-313
446.569	584
446.640	2892
446.711	4388
446.782	589
446.853	304
446.924	797
446.995	449
447.066	822
447.138	335
447.209	-67
447.280	-1558
447.351	-861
447.422	-497
447.493	-334
447.564	755
447.635	3697
447.706	935
447.777	-840
447.847	-656
447.918	-1712
447.989	-15
448.060	174
448.131	1838
448.202	3270
448.273	3861
448.344	803
448.414	-388
448.485	269
448.556	-1192
448.627	-344
448.698	-764
448.768	-1304
448.839	-1092
448.910	46
448.981	742
449.051	966
449.122	-758
449.193	-238
449.263	-1121
449.334	-315
449.405	663
449.475	5867
449.546	3925
449.616	1116
449.687	200
449.758	3
449.828	-1017
449.899	-1105
449.969	-1256
450.040	-788
450.110	-637
450.181	-14
450.251	-1259
450.322	-738
450.392	-1394
450.463	-498
450.533	-1506
450.604	-562
450.674	-1522
450.744	-576
450.815	-1193
450.885	-685
450.955	-243
451.026	-926
451.096	-676
451.166	-69
451.237	-33
451.307	3290
451.377	1395
451.447	-733
451.518	-847
451.588	-1159
451.658	-244
451.728	842
451.799	2879
451.869	4999
451.939	86
452.009	-895
452.079	-1046
452.149	178
452.219	-448
452.289	4252
452.360	3855
452.430	763
452.500	-191
452.570	1119
452.640	1669
452.710	6230
452.780	8905
452.850	10884
452.920	14174
452.990	5952
453.060	905
453.129	2756
453.199	3213
453.269	6623
453.339	17199
453.409	27827
453.479	21150
453.549	32578
453.619	33227
453.688	15806
453.758	947
453.828	468
453.898	-869
453.968	-419
454.037	-471
454.087	-575
454.107	-629
454.168	-431
454.177	-417
454.247	-1025
454.249	-991
454.316	-546
454.330	-461
454.386	-167
454.411	91
454.456	329
454.492	2187
454.525	3838
454.574	1445
454.595	406
454.655	-246
454.665	-365
454.734	258
454.736	319
454.804	1854
454.817	2384
454.873	4271
454.898	5076
454.943	6469
454.979	4152
455.013	2066
455.060	951
455.082	469
455.141	101
455.152	19
455.221	3416
455.222	3483
455.291	6436
455.303	6446
455.360	6142
455.384	7775
455.430	10397
455.465	8591
455.499	6889
455.546	5432
455.569	4644
455.627	4253
455.638	4192
455.707	903
455.708	914
455.777	549
455.789	617
455.846	785
455.869	698
455.916	390
455.950	34
455.985	-241
456.031	-148
456.054	-123
456.112	350
456.124	440
456.193	789
456.193	775
456.262	86
456.274	324
456.332	1521
456.355	1478
456.401	1201
456.436	860
456.470	522
456.516	231
456.540	43
456.597	153
456.609	182
456.678	194
456.678	180
456.747	47
456.759	-33
456.817	-143
456.840	-74
456.886	-199
456.920	-209
456.955	-57
457.001	512
457.024	687
457.082	316
457.093	262
457.162	1604
457.163	1620
457.232	1513
457.243	1525
457.301	1668
457.324	1249
457.370	315
457.405	398
457.439	711
457.485	491
457.508	265
457.566	1353
457.577	1572
457.646	1669
457.647	1682
457.715	2904
457.727	3142
457.784	5095
457.808	7024
457.853	9293
457.889	10684
457.922	10299
457.969	6123
457.991	6018
458.050	8077
458.060	8445
458.129	15481
458.130	15685
458.198	15745
458.211	14185
458.267	7984
458.292	5133
458.336	2320
458.372	2297
458.405	3939
458.453	6623
458.474	8507
458.533	16083
458.543	16702
458.611	26553
458.614	26691
458.680	16101
458.694	12362
458.749	5255
458.775	4040
458.818	2829
458.855	2156
458.887	1598
458.936	1262
458.955	1174
459.016	1446
459.024	1521
459.093	2473
459.097	2477
459.162	2095
459.177	2178
459.230	2659
459.257	3093
459.299	3085
459.338	2953
459.368	3129
459.418	2811
459.437	2617
459.499	2185
459.505	2133
459.574	1869
459.579	1890
459.643	2287
459.659	2176
459.711	1776
459.740	2010
459.780	2373
459.820	2209
459.849	2088
459.900	2764
459.917	2861
459.981	2419
459.986	2403
460.054	2575
460.061	2601
460.123	3116
460.141	3271
460.191	4923
460.222	5837
460.260	6032
460.302	7313
460.328	6958
460.382	4330
460.397	4090
460.462	3620
460.465	3692
460.534	5641
460.543	5908
460.602	17257
460.623	21588
460.671	33882
460.703	45483
460.739	42152
460.783	34116
460.808	28397
460.864	6863
460.876	5232
460.944	2284
460.945	2262
461.013	3221
461.024	3347
461.081	3643
461.104	3928
461.150	3805
461.184	3699
461.218	3676
461.264	3033
461.286	2949
461.345	2921
461.355	2806
461.423	2576
461.425	2548
461.491	2222
461.505	2494
461.559	3747
461.585	3770
461.628	5044
461.665	6884
461.696	7809
461.745	9800
461.764	9101
461.825	5052
461.832	5011
461.901	3461
461.905	3491
461.969	3288
461.985	3130
462.037	3319
462.065	3515
462.105	3170
462.145	2632
462.173	3197
462.225	4576
462.241	4921
462.305	6380
462.310	6291
462.378	5398
462.385	5125
462.446	4366
462.465	4234
462.514	3950
462.545	4062
462.582	3767
462.625	3241
462.650	3056
462.705	2452
462.718	2553
462.785	3466
462.786	3463
462.854	2902
462.865	2831
462.922	4221
462.945	4860
462.990	4026
463.025	3157
463.058	2977
463.104	2762
463.126	2696
463.184	2795
463.194	2995
463.262	3829
463.264	3882
463.330	4515
463.344	4520
463.398	4318
463.424	4202
463.466	3242
463.504	2632
463.533	3426
463.583	4492
463.601	4474
463.663	4309
463.669	4428
463.737	5934
463.743	6092
463.805	7219
463.823	7486
463.873	8530
463.903	9100
463.940	8957
463.982	9153
464.008	8258
464.062	5663
464.076	5341
464.142	3242
464.144	3243
464.211	3816
464.221	3920
464.279	3711
464.301	3575
464.347	4332
464.381	5028
464.414	4978
464.461	4782
464.482	4908
464.540	5283
464.550	5230
464.617	4561
464.620	4538
464.685	7185
464.699	7736
464.753	9057
464.779	9898
464.820	10607
464.859	10979
464.888	9789
464.938	7478
464.956	7725
465.018	8785
465.023	8729
465.091	7902
465.098	7784
465.158	7733
465.177	7812
465.226	7568
465.257	7175
465.293	8153
465.336	9477
465.361	9900
465.416	10787
465.428	10988
465.495	12187
465.496	12208
465.563	12403
465.575	12408
465.631	14053
465.654	14908
465.698	11397
465.734	8141
465.765	8076
465.813	7795
465.833	7525
465.893	7183
465.900	7243
465.968	7287
465.972	7302
466.035	6861
466.052	6681
466.102	7944
466.131	8628
466.170	7777
466.210	6840
466.237	7488
466.290	8837
466.304	8775
466.369	8273
466.372	8292
466.439	8443
466.449	8447
466.506	9297
466.528	9610
466.573	11187
466.607	12289
466.641	15245
466.687	19357
466.708	21110
466.766	26009
466.775	24765
466.842	15023
466.845	14532
466.909	12054
466.925	11471
466.977	10785
467.004	10428
467.044	11072
467.083	11698
467.111	12659
467.163	14409
467.178	15095
467.242	17817
467.245	17701
467.312	14600
467.321	14163
467.379	13532
467.400	13262
467.446	13489
467.480	13611
467.559	12748
467.638	11270
467.717	12086
467.796	14760
467.875	16014
467.955	12381
468.034	14470
468.113	19429
468.192	26675
468.271	12810
468.350	12312
468.429	13210
468.508	13381
468.588	11350
468.667	11419
468.746	12687
468.825	12362
468.904	10281
468.983	10881
469.062	12734
469.141	15247
469.220	9625
469.299	9835
469.378	11099
469.456	16111
469.535	13592
469.614	12220
469.693	10689
469.772	13388
469.851	13359
469.930	13974
470.009	12760
470.088	12557
470.166	16269
470.245	26391
470.324	31614
470.403	19001
470.482	14488
470.560	12232
470.639	13492
470.718	16604
470.797	12042
470.875	12128
470.954	15224
471.033	15881
471.111	9102
471.190	9066
471.269	8495
471.347	8989
471.426	9416
471.505	10770
471.583	11417
471.662	12539
471.740	9468
471.819	10478
471.898	9811
471.976	10365
472.055	9315
472.133	10164
472.212	11861
472.290	9856
472.369	8997
472.447	8566
472.526	7976
472.604	10932
472.683	9670
472.761	10677
472.839	9286
472.918	10058
472.996	8032
473.075	9205
473.153	9420
473.231	8981
473.310	9226
473.388	10023
473.466	9728
473.545	12799
473.623	18546
473.701	18433
473.780	9831
473.858	9293
473.936	11428
474.014	10129
474.093	9517
474.171	11119
474.249	12928
474.327	9617
474.405	8056
474.484	8267
474.562	8288
474.640	8812
474.718	8047
474.796	9009
474.874	7566
474.952	7889
475.030	7143
475.108	7861
475.187	8691
475.265	9095
475.343	10801
475.421	13077
475.499	8068
475.577	8629
475.655	7777
475.733	12364
475.811	16336
475.889	15327
475.966	11581
476.044	7598
476.122	8533
476.200	10721
476.278	8385
476.356	7948
476.434	6522
476.512	8683
476.590	9964
476.667	10024
476.745	6944
476.823	9145
476.901	6814
476.979	7280
477.056	7122
477.134	8520
477.212	9151
477.290	8438
477.367	6058
477.445	6354
477.523	6601
477.601	6294
477.678	5309
477.756	6966
477.834	7034
477.911	6488
477.989	6705
478.066	5827
478.144	6759
478.222	8150
478.299	10424
478.377	11288
478.454	6415
478.532	6921
478.609	7586
478.687	8580
478.764	6727
478.842	8050
478.919	8409
478.997	9244
479.074	5020
479.152	6091
479.229	7027
479.307	6624
479.384	4177
479.461	5631
479.539	4164
479.616	6229
479.694	5359
479.771	6417
479.848	5533
479.926	5451
480.003	7623
480.080	6367
480.157	5529
480.235	5489
480.312	5968
480.389	5623
480.467	6934
480.544	8630
480.621	5331
480.698	5397
480.775	5988
480.853	6088
480.930	5401
481.007	5226
481.084	5446
481.161	8156
481.238	6288
481.315	5228
481.392	4910
481.470	6645
481.547	5566
481.624	5996
481.701	4464
481.778	4756
481.855	5366
481.932	6890
482.009	9035
482.086	6916
482.163	4923
482.240	7996
482.317	13516
482.393	10549
482.470	5010
482.547	5095
482.624	4068
482.701	5678
482.778	4482
482.855	3763
482.932	3968
483.009	4052
483.085	5300
483.162	5615
483.239	6576
483.316	5156
483.393	4601
483.469	4984
483.546	4950
483.623	6212
483.699	4307
483.776	5714
483.853	5761
483.930	7687
484.006	13324
484.083	23846
484.160	27560
484.236	49501
484.313	37443
484.389	26550
484.466	23587
484.543	22795
484.619	22084
484.696	23282
484.772	22247
484.849	22763
484.925	20146
485.002	20746
485.078	21492
485.155	20436
485.231	18636
485.308	18509
485.384	17493
485.461	21572
485.537	22823
485.614	26266
485.690	19410
485.766	18375
485.843	20259
485.919	32063
485.995	34167
486.072	17564
486.148	16140
486.224	16304
486.301	16926
486.377	18127
486.453	16546
486.530	19593
486.606	26768
486.682	29889
486.758	27995
486.835	27060
486.911	25518
486.987	34193
487.063	58163
487.139	88698
487.215	57358
487.292	26557
487.368	19322
487.444	20506
487.520	22693
487.596	23215
487.672	33184
487.748	75123
487.824	107025
487.900	36573
487.976	18846
488.052	17653
488.128	18868
488.204	18447
488.280	17717
488.356	18099
488.432	23228
488.508	29738
488.584	20429
488.660	18488
488.736	18747
488.812	21600
488.888	27323
488.964	36108
489.039	83258
489.115	131652
489.191	70906
489.267	18335
489.343	16472
489.418	13964
489.494	14038
489.570	12545
489.646	15217
489.722	14372
489.797	13009
489.873	16159
489.949	22022
490.024	21295
490.100	12989
490.176	13691
490.251	18560
490.327	27694
490.403	13349
490.478	13771
490.554	11029
490.629	11959
490.705	10444
490.781	13273
490.856	11794
490.932	15485
491.007	14914
491.083	14724
491.158	11187
491.234	13619
491.309	17017
491.385	18156
491.460	11260
491.536	12814
491.611	13328
491.686	15950
491.762	23168
491.837	53581
491.913	82177
491.988	115511
492.063	153562
492.139	27317
492.214	13479
492.289	10616
492.365	10301
492.440	12904
492.515	9679
492.590	10517
492.666	8337
492.741	11944
492.816	12876
492.891	10035
492.967	10405
493.042	9055
493.117	8525
493.192	8945
493.267	12084
493.342	25550
493.418	29760
493.493	11993
493.568	7125
493.643	8735
493.718	10007
493.793	15248
493.868	22534
493.943	16194
494.018	10456
494.093	8001
494.168	7591
494.243	8242
494.318	7635
494.393	7269
494.468	7517
494.543	8636
494.618	9965
494.693	8761
494.768	7244
494.842	8636
494.917	7433
494.992	9043
495.067	7649
495.142	7369
495.217	9983
495.292	9857
495.366	11418
495.441	14041
495.516	18469
495.591	26825
495.665	108806
495.740	276281
495.815	96797
495.890	13112
495.964	6866
496.039	10518
496.114	8113
496.188	10199
496.263	10258
496.338	6896
496.412	7318
496.487	10423
496.561	13120
496.636	14309
496.710	8249
496.785	11156
496.860	9896
496.934	9110
497.009	9527
497.083	8432
497.158	8484
497.232	10069
497.307	11935
497.381	11162
497.455	9968
497.530	12078
497.604	10529
497.679	10955
497.753	14819
497.827	21655
497.902	20624
497.976	22055
498.050	34657
498.125	122917
498.199	136550
498.273	43635
498.348	33952
498.422	25868
498.496	24763
498.570	20765
498.645	11911
498.719	10100
498.793	11290
498.867	15802
498.941	17781
499.016	44140
499.090	121149
499.164	50001
499.238	9545
499.312	9359
499.386	14519
499.460	11336
499.534	8723
499.609	10366
499.683	11454
499.757	10317
499.831	17957
499.905	74468
499.979	73565
500.053	15006
500.127	19568
500.201	22399
500.275	10381
500.349	9501
500.422	9805
500.496	19787
500.570	48247
500.644	62116
500.718	80283
500.792	23758
500.866	7771
500.940	8602
501.013	8042
501.087	8943
501.161	22342
501.235	23891
501.309	23042
501.382	61016
501.456	61857
501.530	17962
501.603	19144
501.677	11171
501.751	5112
501.825	9062
501.898	9901
501.972	23295
502.046	16592
502.119	7556
502.193	15474
502.266	27905
502.340	14216
502.413	11471
502.487	21989
502.561	14207
502.634	7488
502.708	9714
502.781	6860
502.855	6341
502.928	3211
503.002	4338
503.075	2932
503.149	4478
503.222	4134
503.295	4706
503.369	6342
503.442	6518
503.516	16720
503.589	42289
503.662	28002
503.736	10437
503.809	21109
503.882	19273
503.956	26360
504.029	30597
504.102	43156
504.175	58249
504.249	16337
504.322	7777
504.395	6361
504.468	5201
504.542	3937
504.615	3782
504.688	4837
504.761	3713
504.834	6810
504.907	11242
504.980	22020
505.053	8636
505.127	10668
505.200	13689
505.273	4710
505.346	4325
505.419	2806
505.492	4431
505.565	2777
505.638	3792
505.711	2495
505.784	3369
505.857	2140
505.930	4529
506.003	2240
506.076	5634
506.149	3124
506.221	3583
506.294	5912
506.367	9598
506.440	33608
506.513	24061
506.586	6117
506.659	4736
506.731	5118
506.804	7235
506.877	12014
506.950	6511
507.022	4229
507.095	3111
507.168	6858
507.241	6918
507.313	3116
507.386	6004
507.459	12520
507.531	5998
507.604	3553
507.677	4576
507.749	2053
507.822	8015
507.894	19232
507.967	23394
508.040	10491
508.112	9601
508.185	7011
508.257	7356
508.330	15721
508.402	6882
508.475	5376
508.547	6935
508.620	5958
508.692	7837
508.765	6897
508.837	5505
508.909	5763
508.982	6320
509.054	8296
509.127	7340
509.199	5057
509.271	4786
509.344	4477
509.416	6006
509.488	5478
509.560	5797
509.633	6412
509.705	9269
509.777	7253
509.849	13915
509.922	7120
509.994	5345
510.066	6624
510.138	7436
510.210	18422
510.283	15565
510.355	12384
510.427	11047
510.499	8964
510.571	10157
510.643	9039
510.715	19511
510.787	15059
510.859	10842
510.931	10707
511.003	17395
511.076	15432
511.148	7402
511.219	5958
511.291	9973
511.363	9680
511.435	7615
511.507	6487
511.579	7590
511.651	7911
511.723	6668
511.795	6751
511.867	6641
511.939	7204
512.010	9911
512.082	10589
512.154	7707
512.226	7968
512.298	15005
512.369	22404
512.441	16701
512.513	17538
512.585	11458
512.656	11624
512.728	12845
512.800	9565
512.871	9699
512.943	8894
513.015	8537
513.086	10394
513.158	10542
513.230	11040
513.301	18525
513.373	23315
513.444	11666
513.516	9024
513.588	10418
513.659	11654
513.731	16195
513.802	11693
513.874	29364
513.945	53733
514.016	14923
514.088	9571
514.159	9458
514.231	15331
514.302	21243
514.374	13871
514.445	9811
514.516	15257
514.588	11044
514.659	10167
514.730	12676
514.802	14955
514.873	11859
514.944	12415
515.016	11514
515.087	12665
515.158	11997
515.229	14738
515.301	10233
515.372	14453
515.443	9194
515.514	8506
515.585	8020
515.656	9723
515.728	9205
515.799	7982
515.870	9842
515.941	8911
516.012	9566
516.083	15328
516.154	17049
516.225	25018
516.296	22801
516.367	19039
516.438	23842
516.509	30565
516.580	41563
516.651	123150
516.722	478440
516.793	184684
516.864	37796
516.935	35052
517.006	41820
517.077	54445
517.148	127415
517.219	486397
517.289	702121
517.360	105180
517.431	32477
517.502	14846
517.573	15316
517.643	13996
517.714	15654
517.785	17148
517.856	18699
517.926	24326
517.997	29694
518.068	40138
518.138	55020
518.209	78682
518.280	289635
518.350	1112521
518.421	374400
518.492	44416
518.562	22270
518.633	17743
518.703	14799
518.774	25321
518.845	58502
518.915	58781
518.986	21814
519.056	18337
519.127	38982
519.197	50073
519.268	59064
519.338	29834
519.408	13835
519.479	25280
519.549	17092
519.620	10619
519.690	7972
519.760	7966
519.831	9463
519.901	8965
519.971	7484
520.042	5783
520.112	7393
520.182	11315
520.253	15565
520.323	7053
520.393	7793
520.463	9898
520.534	3621
520.604	8245
520.674	8681
520.744	6163
520.814	10467
520.885	14014
520.955	13786
521.025	41860
521.095	19322
521.165	7504
521.235	6554
521.305	5144
521.375	7204
521.445	8271
521.515	13758
521.585	15414
521.655	13910
521.725	11965
521.795	9536
521.865	4210
521.935	8686
522.005	6127
522.075	5522
522.145	5906
522.215	6071
522.285	8322
522.355	10500
522.424	15021
522.494	14171
522.564	13697
522.634	36826
522.704	123168
522.774	39814
522.843	9178
522.913	8808
522.983	12761
523.053	8878
523.122	9684
523.192	15027
523.262	65099
523.331	57666
523.401	9888
523.471	6055
523.540	6805
523.610	4286
523.680	4056
523.749	4576
523.819	4428
523.888	4318
523.958	3932
524.027	4943
524.097	4397
524.166	5167
524.236	6165
524.305	7521
524.375	4062
524.444	3364
524.514	5763
524.583	4030
524.653	3492
524.722	6250
524.791	3625
524.861	6396
524.930	2897
524.999	5656
525.069	8957
525.138	5412
525.207	4749
525.277	5011
525.346	5634
525.415	5058
525.484	5078
525.554	4529
525.623	5911
525.692	5867
525.761	5896
525.830	7062
525.900	7719
525.969	12511
526.038	18350
526.107	33766
526.176	109756
526.245	91009
526.314	33363
526.383	57992
526.452	76263
526.522	131075
526.591	142371
526.660	63719
526.729	30853
526.797	33520
526.867	66150
526.935	320063
527.004	400931
527.073	197377
527.142	18775
527.211	9565
527.280	10211
527.349	11779
527.418	3774
527.487	5827
527.555	3414
527.624	3501
527.693	1777
527.762	5081
527.831	2935
527.899	4330
527.968	3442
528.037	3606
528.106	7163
528.174	16976
528.243	8728
528.312	14395
528.380	22481
528.449	5370
528.518	3833
528.586	2563
528.655	3276
528.723	2746
528.792	3002
528.861	2930
528.929	1055
528.998	3642
529.066	2087
529.135	3377
529.203	1192
529.272	2037
529.340	2530
529.409	4935
529.477	2155
529.545	2141
529.614	5159
529.682	2560
529.751	3592
529.819	6396
529.887	3407
529.956	3418
530.024	3508
530.092	2144
530.161	5284
530.229	12545
530.297	4163
530.365	4266
530.434	1963
530.502	2060
530.570	2503
530.638	1626
530.707	3780
530.775	5438
530.843	2159
530.911	2663
530.979	2956
531.047	2707
531.115	2858
531.183	2593
531.252	3215
531.320	2873
531.388	2203
531.456	3252
531.524	452
531.592	3819
531.660	4044
531.728	2521
531.796	1959
531.864	3416
531.932	3430
532.000	3391
532.067	3063
532.135	5571
532.203	5970
532.271	5981
532.339	14147
532.407	49651
532.475	24760
532.542	11622
532.610	11955
532.678	17231
532.746	83028
532.814	224621
532.881	47448
532.949	8091
533.017	5129
533.084	4418
533.152	2982
533.220	4141
533.287	5128
533.355	4024
533.423	3441
533.490	2900
533.558	2863
533.625	4067
533.693	3733
533.761	5568
533.828	4504
533.896	4023
533.963	13265
534.031	15851
534.098	24860
534.166	8499
534.233	2636
534.300	4754
534.368	3399
534.435	3521
534.503	3628
534.570	4782
534.637	3289
534.705	5410
534.772	5424
534.840	9568
534.907	46274
534.974	64156
535.041	8237
535.109	5464
535.176	3575
535.243	4115
535.310	4193
535.378	3288
535.445	2919
535.512	3669
535.579	3341
535.646	2528
535.714	3101
535.781	5456
535.848	5212
535.915	5657
535.982	3480
536.049	3575
536.116	5268
536.183	4252
536.250	4282
536.317	4785
536.384	6648
536.451	13216
536.518	13869
536.585	6298
536.652	10047
536.719	18456
536.786	13021
536.853	10613
536.920	16086
536.987	28536
537.053	25025
537.120	111545
537.187	89698
537.254	8257
537.321	5242
537.388	6534
537.454	2514
537.521	4017
537.588	2915
537.654	6048
537.721	6389
537.788	6677
537.855	4646
537.921	5540
537.988	5596
538.055	6514
538.121	4021
538.188	6367
538.254	12087
538.321	30050
538.388	15666
538.454	6257
538.521	5670
538.587	4349
538.654	3658
538.720	5156
538.787	4949
538.853	4976
538.920	6029
538.986	5967
539.053	5059
539.119	6428
539.185	5754
539.252	9764
539.318	14910
539.385	10935
539.451	7563
539.517	9518
539.583	10569
539.650	27487
539.716	79997
539.782	20063
539.849	6949
539.915	7274
539.981	6648
540.047	9271
540.114	7597
540.180	9020
540.246	6974
540.312	12436
540.378	27745
540.444	28770
540.510	28693
540.576	93009
540.643	24227
540.709	5973
540.775	5590
540.841	5649
540.907	6909
540.973	10402
541.039	13340
541.105	16220
541.171	6749
541.237	5180
541.303	7356
541.369	9289
541.435	12543
541.500	25200
541.566	13275
541.632	5354
541.698	4247
541.764	5749
541.830	4179
541.896	4498
541.961	5579
542.027	5596
542.093	5797
542.159	6870
542.224	7333
542.290	12388
542.356	22472
542.421	30930
542.487	10637
542.553	7605
542.618	7213
542.684	7514
542.750	7250
542.815	10208
542.881	16365
542.947	78694
543.012	53874
543.078	7557
543.143	5189
543.209	7374
543.274	6949
543.340	9717
543.405	26968
543.471	45791
543.536	8585
543.602	6071
543.667	4217
543.732	6471
543.798	4162
543.863	6493
543.928	4391
543.994	4227
544.059	4077
544.124	5651
544.190	5031
544.255	6709
544.320	6925
544.386	6836
544.451	12922
544.516	15864
544.581	13299
544.646	47246
544.712	74306
544.777	11864
544.842	6812
544.907	6602
544.972	6454
545.037	7293
545.102	6704
545.168	6804
545.233	8061
545.298	8244
545.363	9210
545.428	12379
545.493	25622
545.558	64128
545.623	20274
545.688	6818
545.753	5714
545.818	5843
545.883	6297
545.947	6189
546.012	6707
546.077	6296
546.142	7574
546.207	8195
546.272	12156
546.337	12804
546.401	8710
546.466	8199
546.531	6736
546.596	9112
546.661	9610
546.725	8442
546.790	5946
546.855	8666
546.919	7502
546.984	9386
547.049	9485
547.113	10450
547.178	9734
547.243	12667
547.307	14451
547.372	16729
547.436	15406
547.501	14239
547.565	16161
547.630	19776
547.695	17620
547.759	15776
547.823	15063
547.888	14779
547.952	15694
548.017	15442
548.081	18003
548.146	17930
548.210	17036
548.274	17260
548.339	16158
548.403	16112
548.468	14175
548.532	13304
548.596	14592
548.660	13982
548.725	17587
548.789	18277
548.853	17913
548.917	17248
548.982	16534
549.046	16052
549.110	12123
549.174	13545
549.238	14805
549.303	16309
549.367	17906
549.431	15487
549.495	15114
549.559	14942
549.623	16956
549.687	21689
549.751	27198
549.815	24156
549.879	22561
549.943	20564
550.007	22132
550.071	22673
550.135	25637
550.199	21155
550.263	18497
550.327	18545
550.391	19231
550.455	20091
550.519	20665
550.582	23413
550.646	30571
550.710	31246
550.774	24105
550.838	24462
550.901	24063
550.965	26466
551.029	26155
551.093	28927
551.156	31872
551.220	41990
551.284	50596
551.347	35296
551.411	33316
551.475	32898
551.538	25785
551.602	24519
551.666	22224
551.729	20634
551.793	21018
551.856	19538
551.920	19980
551.983	19596
552.047	18268
552.110	19475
552.174	19240
552.237	20791
552.301	19211
552.364	18597
552.428	17257
552.491	18456
552.554	20580
552.618	19205
552.681	21021
552.745	22028
552.808	35684
552.871	45538
552.934	25547
552.998	19275
553.061	18762
553.124	18161
553.187	17349
553.251	18546
553.314	18058
553.377	18420
553.440	19444
553.503	26173
553.567	33764
553.630	20617
553.693	18938
553.756	18971
553.819	18292
553.882	17103
553.945	17503
554.008	18132
554.071	16999
554.134	18442
554.197	16135
554.260	16961
554.323	18267
554.386	17835
554.449	18078
554.512	17722
554.575	16826
554.638	17402
554.701	15845
554.764	16943
554.827	14914
554.889	14649
554.952	14754
555.015	14029
555.078	13671
555.141	15623
555.203	14245
555.266	13879
555.329	14492
555.391	14614
555.454	14552
555.517	15187
555.580	13015
555.642	12810
555.705	12319
555.768	13094
555.830	12681
555.893	12405
555.955	11739
556.018	10666
556.080	10953
556.143	12067
556.206	10738
556.268	12270
556.330	12667
556.393	12045
556.455	11006
556.518	13511
556.580	13486
556.643	10572
556.705	10577
556.767	9519
556.830	10501
556.892	13657
556.955	21729
557.017	15348
557.079	10608
557.142	11115
557.204	12473
557.266	28912
557.328	20675
557.391	9273
557.453	8626
557.515	9554
557.577	12540
557.639	13163
557.701	8646
557.764	8761
557.826	8786
557.888	10174
557.950	10221
558.012	11796
558.074	13252
558.136	30285
558.198	76577
558.260	27952
558.322	12332
558.384	14259
558.446	15829
558.508	19664
558.570	25373
558.632	42690
558.694	60674
558.756	52598
558.818	157080
558.880	416559
558.942	122685
559.003	85015
559.065	42804
559.127	19567
559.189	18087
559.251	19966
559.312	27288
559.374	67766
559.436	251648
559.498	122898
559.559	21449
559.621	18526
559.683	20723
559.744	31808
559.806	106767
559.868	170048
559.929	30738
559.991	18553
560.052	25520
560.114	75055
560.176	47554
560.237	42359
560.299	73521
560.360	16587
560.422	6431
560.483	7088
560.545	5922
560.606	7042
560.667	6083
560.729	5019
560.790	4778
560.852	6892
560.913	5367
560.974	5782
561.036	6235
561.097	5911
561.158	5301
561.220	7147
561.281	6370
561.342	6988
561.403	8624
561.465	13067
561.526	36977
561.587	47695
561.648	8822
561.709	6903
561.771	6412
561.832	5905
561.893	5599
561.954	5941
562.015	5497
562.076	5705
562.137	4984
562.198	5893
562.259	5348
562.320	6016
562.381	7287
562.442	11734
562.503	7035
562.564	5844
562.625	5017
562.686	5989
562.747	4693
562.808	5363
562.869	4271
562.930	6043
562.991	4887
563.051	5466
563.112	4567
563.173	4661
563.234	4766
563.294	5883
563.355	5452
563.416	7012
563.477	4501
563.537	4816
563.598	5363
563.659	5494
563.720	5842
563.780	7110
563.841	6571
563.901	5927
563.962	4827
564.023	5342
564.083	5199
564.144	6226
564.204	4942
564.265	5456
564.325	5580
564.386	8381
564.446	7426
564.507	5130
564.567	4386
564.628	5624
564.688	5029
564.749	5248
564.809	5582
564.869	6566
564.930	5827
564.990	5395
565.050	4386
565.111	6265
565.171	5651
565.231	4381
565.292	6263
565.352	4935
565.412	4850
565.472	6621
565.532	6234
565.593	5751
565.653	4246
565.713	5285
565.773	5396
565.833	9556
565.893	11765
565.953	6346
566.013	5685
566.074	4850
566.134	6218
566.194	9259
566.254	10417
566.314	8101
566.374	5872
566.434	6840
566.494	4974
566.554	6361
566.614	6006
566.673	6114
566.733	5881
566.793	6050
566.853	5871
566.913	6795
566.973	6013
567.033	6521
567.092	6005
567.152	6602
567.212	6962
567.272	6806
567.331	6367
567.391	6115
567.451	6592
567.511	8316
567.570	6985
567.630	7915
567.690	6897
567.749	6669
567.809	7527
567.868	9493
567.928	9148
567.988	10326
568.047	11654
568.107	13190
568.166	19223
568.226	34870
568.285	49927
568.345	37370
568.404	25596
568.464	21533
568.523	18461
568.582	20759
568.642	22393
568.701	28855
568.761	47058
568.820	86083
568.879	73926
568.939	43327
568.998	28011
569.057	20280
569.116	14942
569.176	13030
569.235	9473
569.294	9233
569.353	8577
569.413	7204
569.472	6581
569.531	7362
569.590	5385
569.649	7253
569.708	4394
569.767	6734
569.827	6399
569.886	5479
569.945	4564
570.004	5752
570.063	5517
570.122	6962
570.181	6983
570.240	5459
570.299	5758
570.358	5456
570.417	5167
570.475	5917
570.534	6111
570.593	6335
570.652	6413
570.711	6011
570.770	4922
570.829	7141
570.887	6027
570.946	8480
571.005	5872
571.064	5429
571.122	6026
571.181	6409
571.240	4692
571.299	4661
571.357	5262
571.416	5542
571.475	4555
571.533	5436
571.592	4698
571.650	4339
571.709	3656
571.768	4971
571.826	4551
571.885	5744
571.943	4070
572.002	3366
572.060	3733
572.119	4760
572.177	3350
572.236	4686
572.294	2997
572.352	5016
572.411	4670
572.469	4745
572.528	3401
572.586	4475
572.644	3761
572.703	4778
572.761	3944
572.819	4498
572.877	3988
572.936	3884
572.994	3834
573.052	4011
573.110	3188
573.169	5434
573.227	3557
573.285	4439
573.343	3645
573.401	4172
573.459	3792
573.517	4291
573.576	3913
573.634	3782
573.692	4230
573.750	3416
573.808	3573
573.866	4475
573.924	4300
573.982	4559
574.040	3909
574.098	3895
574.155	3622
574.213	3924
574.271	3016
574.329	3521
574.387	2852
574.445	3770
574.503	3590
574.560	2861
574.618	3065
574.676	3955
574.734	3343
574.792	4076
574.849	3647
574.907	3816
574.965	2095
575.022	3327
575.080	3571
575.138	4257
575.195	4300
575.253	4162
575.311	5150
575.368	4057
575.426	3321
575.483	4271
575.541	3515
575.598	3229
575.656	3064
575.713	3998
575.771	3423
575.828	4281
575.886	2703
575.943	4711
576.001	3484
576.058	3459
576.115	3706
576.173	4011
576.230	4991
576.287	7732
576.345	5163
576.402	4336
576.459	3785
576.517	3931
576.574	4625
576.631	3559
576.688	3769
576.746	3221
576.803	4142
576.860	4140
576.917	3601
576.974	3581
577.031	2726
577.089	3433
577.146	2851
577.203	2758
577.260	4067
577.317	3760
577.374	4055
577.431	4331
577.488	4042
577.545	3164
577.602	3566
577.659	3733
577.716	4075
577.773	4124
577.830	2977
577.886	4082
577.943	3354
578.000	3986
578.057	2719
578.114	3157
578.171	4138
578.227	3871
578.284	3502
578.341	3438
578.398	2708
578.454	3520
578.511	3870
578.568	3873
578.625	3283
578.681	3334
578.738	3562
578.794	3779
578.851	4561
578.908	4357
578.964	3593
579.021	5510
579.077	4590
579.134	4383
579.190	3810
579.247	4343
579.303	2963
579.360	3679
579.416	3134
579.473	3546
579.529	3523
579.586	3352
579.642	3745
579.698	4082
579.755	3412
579.811	4203
579.867	3663
579.924	3812
579.980	2625
580.036	4568
580.093	3211
580.149	4437
580.205	4182
580.261	4497
580.317	3335
580.374	3762
580.430	5016
580.486	4721
580.542	4222
580.598	4051
580.619	3893
580.654	3622
580.692	4178
580.710	4459
580.765	3852
580.767	3836
580.823	4068
580.838	4076
580.879	4095
580.911	3814
580.935	3618
580.984	3475
580.991	3464
581.047	4194
581.057	4151
581.103	3974
581.130	3964
581.159	3928
581.203	3534
581.215	3437
581.270	4248
581.276	4130
581.326	3066
581.349	3141
581.382	3218
581.422	3465
581.438	3567
581.494	5014
581.494	4997
581.550	3538
581.567	3988
581.606	4926
581.640	4163
581.661	3715
581.713	5207
581.717	5329
581.773	4328
581.786	4423
581.829	4711
581.859	4142
581.885	3703
581.932	4381
581.940	4506
581.996	4210
582.004	4303
582.052	4714
582.077	4302
582.107	3841
582.150	3976
582.163	4047
582.219	3814
582.223	3861
582.274	4314
582.296	4102
582.330	3824
582.368	4300
582.386	4516
582.441	3946
582.441	3946
582.497	4264
582.514	4199
582.552	4203
582.587	4567
582.608	4744
582.659	3880
582.663	3805
582.719	4174
582.732	3977
582.774	3524
582.805	3823
582.830	4001
582.877	3937
582.885	3926
582.941	4501
582.950	4353
582.996	3709
583.023	3935
583.052	4177
583.095	3776
583.107	3678
583.162	4705
583.168	4737
583.218	4902
583.240	4741
583.273	4501
583.313	4459
583.328	4515
583.384	5296
583.385	5286
583.439	4619
583.458	4551
583.494	4553
583.531	4298
583.549	4155
583.603	4618
583.605	4637
583.660	4355
583.676	4493
583.715	4816
583.748	4849
583.770	4804
583.820	4492
583.825	4457
583.881	4664
583.893	4532
583.936	4189
583.965	3910
583.991	3728
584.038	4523
584.046	4640
584.101	4280
584.110	4423
584.156	5108
584.183	4675
584.211	4224
584.255	5061
584.266	5278
584.321	4375
584.328	4440
584.376	4873
584.400	4806
584.431	4877
584.472	4702
584.486	4605
584.541	4939
584.545	4968
584.596	5326
584.617	5133
584.651	5062
584.689	5251
584.706	5143
584.761	5500
584.762	5496
584.816	5556
584.834	5536
584.871	5490
584.906	5949
584.926	6096
584.978	5338
584.980	5328
585.035	6847
585.051	6984
585.090	7238
585.123	7860
585.145	8244
585.195	7554
585.200	7495
585.254	8692
585.267	8816
585.309	9486
585.340	10426
585.364	11135
585.412	11983
585.419	12106
585.473	13069
585.484	13465
585.528	15940
585.556	18581
585.583	25084
585.628	39904
585.637	45419
585.692	95022
585.700	103811
585.747	131628
585.772	109919
585.801	66190
585.845	21949
585.856	17322
585.910	11794
585.917	11169
585.965	9631
585.989	9458
586.019	9307
586.061	8249
586.074	7994
586.128	8684
586.133	8679
586.183	9069
586.205	9518
586.237	9970
586.277	9460
586.292	9186
586.346	8917
586.349	8916
586.401	8944
586.421	9044
586.455	9525
586.493	9393
586.509	9515
586.564	10857
586.565	10896
586.618	13122
586.637	13761
586.672	13561
586.709	12164
586.727	11704
586.781	11277
586.781	11279
586.835	10023
586.853	10189
586.889	10549
586.925	10036
586.944	9991
586.996	11417
586.998	11439
587.052	10564
587.068	10559
587.106	11187
587.140	11433
587.161	11421
587.212	12103
587.215	12152
587.269	12047
587.284	12264
587.323	12756
587.356	12813
587.377	13057
587.427	14185
587.431	14249
587.485	14563
587.499	14715
587.539	15443
587.571	15833
587.593	16008
587.643	17060
587.648	17174
587.702	17637
587.715	17956
587.755	19314
587.786	19533
587.810	19776
587.858	21418
587.864	21640
587.917	24013
587.930	24467
587.971	26759
588.001	28326
588.025	29409
588.073	32231
588.079	32706
588.133	36663
588.145	37635
588.187	41853
588.217	45141
588.241	48562
588.288	55930
588.295	57025
588.348	66149
588.360	68350
588.402	78345
588.431	85571
588.456	92142
588.503	106864
588.510	109689
588.564	133886
588.575	139384
588.617	164980
588.646	184102
588.671	209547
588.718	265775
588.725	281086
588.778	411358
588.789	442532
588.832	659358
588.861	824608
588.886	985072
588.932	1273698
588.939	1279506
588.993	1202842
589.004	1192634
589.047	1043914
589.075	888825
589.100	719370
589.147	427530
589.154	408533
589.207	296962
589.218	277071
589.261	254496
589.290	244034
589.314	254704
589.361	284345
589.368	299060
589.421	433620
589.433	466820
589.475	711841
589.504	898867
589.528	1007733
589.576	1158637
589.582	1135917
589.635	873349
589.647	803905
589.689	503809
589.718	311436
589.742	250420
589.790	150989
589.795	145966
589.849	106209
589.861	97841
589.902	82187
589.932	71292
589.955	65881
590.004	55065
590.009	54336
590.062	46607
590.075	44836
590.115	41389
590.146	38981
590.168	37719
590.218	34651
590.222	34443
590.275	31373
590.289	30633
590.328	29313
590.360	28005
590.381	27392
590.431	26369
590.435	26275
590.488	23852
590.503	23242
590.541	22751
590.574	22258
590.594	21975
590.645	21346
590.647	21321
590.700	19785
590.716	19337
590.753	18891
590.787	18522
590.806	18415
590.859	18356
590.859	18371
590.912	17828
590.930	17775
590.965	17815
591.001	17644
591.018	17531
591.071	17216
591.072	17191
591.124	16320
591.143	16010
591.177	15979
591.214	15905
591.230	16130
591.283	16868
591.285	16874
591.336	16808
591.356	16858
591.389	17027
591.427	16830
591.442	16371
591.495	14827
591.498	14694
591.547	14830
591.569	14927
591.600	14961
591.640	14781
591.653	14753
591.706	14711
591.711	14694
591.759	14281
591.782	13969
591.811	14114
591.853	14355
591.864	14337
591.917	14128
591.924	14083
591.969	13942
591.995	13837
592.022	14008
592.066	14246
592.075	14356
592.127	14958
592.137	15036
592.180	13854
592.208	13093
592.233	13243
592.279	13439
592.285	13465
592.338	13623
592.350	13643
592.390	13382
592.421	13175
592.443	13149
592.491	13040
592.495	13082
592.548	13532
592.562	13638
592.600	13473
592.633	13331
592.653	13494
592.704	13824
592.705	13891
592.775	13251
592.846	14029
592.916	13974
592.987	15189
593.058	13769
593.128	13269
593.199	13488
593.270	12731
593.341	12174
593.411	13683
593.482	13697
593.553	13262
593.623	13075
593.694	13571
593.764	14113
593.835	13407
593.906	13551
593.976	13353
594.047	12887
594.117	14538
594.188	13618
594.258	13795
594.329	13690
594.399	13980
594.470	13294
594.540	14928
594.611	13991
594.681	14123
594.751	13846
594.822	15386
594.892	14796
594.963	15177
595.033	15447
595.103	15510
595.174	15615
595.244	18336
595.314	18498
595.384	16212
595.455	16885
595.525	17164
595.595	17179
595.665	17737
595.736	16498
595.806	17200
595.876	15943
595.946	17262
596.016	18294
596.087	17706
596.157	17642
596.227	17991
596.297	19315
596.367	20207
596.437	20268
596.507	22593
596.577	22656
596.647	21224
596.717	21581
596.787	21567
596.857	21413
596.927	22245
596.997	23378
597.067	22936
597.137	22328
597.207	22630
597.277	21849
597.347	21781
597.417	21203
597.487	22860
597.557	22509
597.626	22631
597.696	22973
597.766	23141
597.836	23288
597.906	20805
597.975	20450
598.045	19574
598.115	21074
598.185	22246
598.254	25671
598.324	27735
598.394	27806
598.464	27236
598.533	25658
598.603	24453
598.672	25142
598.742	24922
598.812	23670
598.881	24663
598.951	23332
599.020	24215
599.090	25437
599.159	27276
599.229	23804
599.299	23872
599.368	25380
599.437	24816
599.507	21864
599.576	21980
599.646	21202
599.715	21452
599.785	20366
599.854	20915
599.924	20813
599.993	20147
600.062	19400
600.132	20365
600.201	22079
600.270	27286
600.340	26890
600.409	26115
600.478	25977
600.547	26541
600.617	23933
600.686	18382
600.755	18282
600.824	18883
600.894	17267
600.963	16634
601.032	16363
601.101	16378
601.170	15561
601.239	15044
601.308	15143
601.378	15303
601.447	14734
601.516	15775
601.585	14756
601.654	15474
601.723	16069
601.792	16080
601.861	16314
601.930	19148
601.999	18286
602.068	17655
602.137	17389
602.206	18253
602.275	17936
602.343	20100
602.412	20000
602.481	17726
602.550	17291
602.619	18125
602.688	20034
602.756	18949
602.825	18734
602.894	18564
602.963	18981
603.032	19648
603.100	19272
603.169	19494
603.238	19191
603.307	19654
603.375	20165
603.444	20575
603.513	20327
603.581	21301
603.650	20884
603.719	20493
603.787	21056
603.856	22753
603.924	22368
603.993	23420
604.061	24084
604.130	25423
604.198	25731
604.267	26304
604.335	26392
604.404	26714
604.472	26499
604.541	26376
604.609	27561
604.678	27709
604.746	27442
604.815	29004
604.883	28616
604.951	28786
605.020	29234
605.088	29938
605.156	30660
605.225	30330
605.293	30702
605.361	31093
605.429	31672
605.498	32236
605.566	34866
605.634	34663
605.702	36674
605.771	35702
605.839	36638
605.907	36097
605.975	34818
606.043	33030
606.111	33476
606.180	33664
606.248	33601
606.316	33033
606.384	32876
606.452	36218
606.520	40325
606.588	36784
606.656	35597
606.724	34656
606.792	32613
606.860	29599
606.928	26235
606.996	26080
607.064	24478
607.132	25577
607.200	27145
607.267	27718
607.335	29094
607.403	28847
607.471	28763
607.539	28724
607.607	28684
607.674	24442
607.742	24824
607.810	26015
607.878	25849
607.946	26281
608.013	26607
608.081	27084
608.149	26154
608.216	28681
608.284	28810
608.352	28828
608.419	26964
608.487	29593
608.555	27334
608.622	28762
608.690	30068
608.757	33540
608.825	34606
608.893	34058
608.960	31472
609.028	30612
609.095	31000
609.163	29125
609.230	26127
609.298	25421
609.365	24828
609.432	28479
609.500	30415
609.567	35097
609.635	40522
609.702	41622
609.769	40225
609.837	31304
609.904	26232
609.971	27583
610.039	34215
610.106	49700
610.173	104096
610.241	250354
610.308	121517
610.375	44078
610.442	30027
610.509	28282
610.577	28875
610.644	28199
610.711	28886
610.778	30495
610.845	30834
610.912	32830
610.980	35087
611.047	35535
611.114	33776
611.181	32221
611.248	31203
611.315	35628
611.382	33119
611.449	36564
611.516	37826
611.583	35822
611.650	36702
611.717	36537
611.784	38844
611.851	41082
611.918	44192
611.984	56709
612.051	93564
612.118	220942
612.185	577573
612.252	284864
612.319	61824
612.386	50324
612.452	45391
612.519	43105
612.586	42107
612.653	42916
612.719	43859
612.786	40798
612.853	37379
612.919	37343
612.986	37733
613.053	36113
613.120	31417
613.186	31463
613.253	33781
613.319	33460
613.386	32956
613.453	34537
613.519	34569
613.586	38780
613.652	44807
613.719	41622
613.785	38141
613.852	33485
613.918	32590
613.985	35085
614.051	37486
614.118	42967
614.184	39847
614.250	34141
614.317	34790
614.383	33696
614.449	33216
614.516	33732
614.582	33697
614.648	33172
614.715	33103
614.781	32469
614.847	32054
614.914	32288
614.980	30378
615.046	31256
615.112	32283
615.179	31917
615.245	33964
615.311	36564
615.377	45311
615.443	43240
615.509	35692
615.575	36201
615.642	34513
615.708	37693
615.774	40034
615.840	43393
615.906	50940
615.972	73894
616.038	136000
616.104	298696
616.170	738956
616.236	522130
616.302	95939
616.368	68973
616.434	45254
616.500	43796
616.565	49572
616.631	62457
616.697	46993
616.763	52043
616.829	85707
616.895	161598
616.961	135605
617.026	49260
617.092	35444
617.158	34101
617.224	32542
617.289	29808
617.355	27818
617.421	27838
617.487	28110
617.552	27262
617.618	26573
617.684	25794
617.749	28756
617.815	24947
617.880	25139
617.946	25185
618.012	25286
618.077	25991
618.143	25614
618.208	25831
618.274	26975
618.339	26371
618.405	20933
618.470	22839
618.536	21067
618.601	23604
618.667	19789
618.732	20466
618.798	19006
618.863	20048
618.928	18289
618.994	20086
619.059	22308
619.124	29110
619.190	20763
619.255	18854
619.320	19522
619.386	18455
619.451	17342
619.516	17794
619.581	18536
619.647	19515
619.712	18285
619.777	17999
619.842	17799
619.907	18672
619.972	18233
620.038	19231
620.103	17295
620.168	16627
620.233	18623
620.298	17601
620.363	18606
620.428	19272
620.493	19155
620.558	19925
620.623	19342
620.688	20482
620.753	19413
620.818	20260
620.883	19497
620.948	19850
621.013	20290
621.078	19361
621.143	18432
621.207	21737
621.272	20115
621.337	19915
621.402	19415
621.467	20656
621.532	19022
621.596	19134
621.661	17569
621.726	18558
621.791	18002
621.855	18695
621.920	19849
621.985	19095
622.049	20265
622.114	20029
622.179	18733
622.243	19386
622.308	20380
622.373	22049
622.437	20367
622.502	20146
622.566	18987
622.631	17363
622.695	20795
622.760	19621
622.824	20561
622.889	20819
622.953	22142
623.018	31763
623.082	29146
623.147	21592
623.211	22025
623.276	21102
623.340	18276
623.404	19211
623.469	18579
623.533	20370
623.597	18397
623.662	17993
623.726	17212
623.790	16354
623.854	14632
623.919	16180
623.983	16197
624.047	16716
624.111	16888
624.176	17032
624.240	17135
624.304	18388
624.368	16878
624.432	17354
624.496	18036
624.560	20924
624.625	21417
624.689	19616
624.753	19439
624.817	18120
624.881	17184
624.945	15924
625.009	16029
625.073	16374
625.137	17701
625.201	22861
625.265	21340
625.329	17386
625.393	18282
625.456	17350
625.520	18517
625.584	19455
625.648	18778
625.712	22602
625.776	28149
625.839	30059
625.903	17295
625.967	14356
626.031	19142
626.095	23516
626.158	17408
626.222	12117
626.286	12445
626.349	11087
626.413	10280
626.477	12952
626.540	11170
626.604	11150
626.668	11751
626.731	10201
626.795	10782
626.858	11370
626.922	10492
626.986	11717
627.049	9807
627.113	11489
627.176	10755
627.240	10637
627.303	10652
627.366	10797
627.430	10448
627.493	10861
627.557	8891
627.620	12245
627.684	10936
627.747	11725
627.810	8592
627.874	9921
627.937	8234
628.000	11440
628.064	9170
628.127	8075
628.190	8989
628.253	9509
628.317	8026
628.380	8011
628.443	7012
628.506	6873
628.569	7537
628.632	6198
628.696	6808
628.759	6962
628.822	6318
628.885	6649
628.948	6171
629.011	7689
629.074	6152
629.137	6120
629.200	6054
629.263	6815
629.326	5774
629.389	5782
629.452	5960
629.515	6399
629.578	5202
629.641	6905
629.704	6744
629.767	6394
629.830	5766
629.892	6799
629.955	5591
630.018	7716
630.081	6486
630.144	10473
630.207	5423
630.269	7521
630.332	5694
630.395	5767
630.458	5454
630.520	4245
630.583	5780
630.646	5649
630.708	4915
630.771	5266
630.834	6280
630.896	5689
630.959	6249
631.021	4533
631.084	5276
631.146	6938
631.209	6126
631.272	5501
631.334	5820
631.397	5764
631.459	5758
631.522	6946
631.584	6102
631.646	7625
631.709	8694
631.771	10256
631.834	7234
631.896	6511
631.958	5226
632.021	6243
632.083	4239
632.145	5716
632.208	5000
632.270	7248
632.332	4714
632.395	5021
632.457	4634
632.519	5365
632.581	6292
632.643	4245
632.706	4983
632.768	4656
632.830	5598
632.892	5374
632.954	5007
633.016	5595
633.078	6037
633.141	4726
633.203	4696
633.265	5043
633.327	4865
633.389	4827
633.451	6449
633.513	6958
633.575	6682
633.637	7759
633.698	6253
633.760	6463
633.822	6163
633.884	5975
633.946	6190
634.008	5719
634.070	6127
634.132	6156
634.193	7414
634.255	7849
634.317	6668
634.379	9171
634.441	7526
634.502	6271
634.564	6306
634.626	5350
634.687	6242
634.749	4937
634.811	4751
634.873	4283
634.934	4844
634.996	6732
635.057	4162
635.119	3829
635.181	4801
635.242	5876
635.304	3672
635.365	6632
635.427	4485
635.488	4312
635.550	4198
635.611	5636
635.673	3621
635.734	6541
635.796	5318
635.857	8199
635.918	6248
635.980	8920
636.041	7876
636.102	9061
636.164	9122
636.225	10163
636.286	6188
636.348	6507
636.409	5178
636.470	4947
636.531	5746
636.593	4428
636.654	5086
636.715	5115
636.776	4080
636.838	3012
636.899	4413
636.960	4223
637.021	3404
637.082	3437
637.143	4279
637.204	3680
637.265	3208
637.326	4404
637.387	3042
637.448	3003
637.509	4043
637.570	3933
637.631	4320
637.692	2691
637.753	2354
637.814	3257
637.875	3004
637.936	4450
637.997	2926
638.058	3539
638.119	4677
638.179	3822
638.240	2697
638.301	3569
638.362	1801
638.423	2948
638.483	4059
638.544	2278
638.605	3370
638.666	2147
638.726	3411
638.787	3839
638.848	2654
638.908	3159
638.969	2828
639.030	2644
639.090	1790
639.151	3189
639.211	4664
639.272	5574
639.332	10830
639.393	5765
639.453	3266
639.514	3374
639.574	2539
639.635	2682
639.695	2742
639.756	2387
639.816	3171
639.877	4481
639.937	10215
639.997	11776
640.058	2634
640.118	1595
640.178	3268
640.239	3156
640.299	2206
640.359	2808
640.420	2908
640.480	3153
640.540	3955
640.600	3906
640.661	3740
640.721	3507
640.781	6205
640.841	3300
640.901	3457
640.961	2984
641.021	3651
641.082	4322
641.142	6086
641.202	4667
641.262	1211
641.322	3741
641.382	1334
641.442	2494
641.502	2057
641.562	3294
641.622	1772
641.682	3368
641.742	2923
641.802	3601
641.861	3626
641.921	1950
641.981	4414
642.041	3738
642.101	5466
642.161	2252
642.221	1761
642.280	2325
642.340	2050
642.400	1327
642.460	3589
642.519	1910
642.579	1652
642.639	3969
642.698	-462
642.758	4767
642.818	2175
642.877	1908
642.937	2371
642.997	4393
643.056	6712
643.116	2245
643.175	3401
643.235	2967
643.294	2700
643.354	2804
643.414	3275
643.473	6386
643.532	5834
643.592	10879
643.651	20731
643.711	41320
643.770	87415
643.830	231620
643.889	456486
643.948	79130
644.008	12175
644.067	7457
644.126	4235
644.186	4282
644.245	3911
644.304	2328
644.363	5293
644.423	1588
644.482	2453
644.541	3349
644.600	1506
644.659	4127
644.719	4121
644.778	9262
644.837	16937
644.896	41782
644.955	94828
645.014	22890
645.073	5713
645.132	3041
645.191	2793
645.250	1911
645.309	3254
645.368	2817
645.427	5468
645.486	8813
645.545	16355
645.604	3925
645.663	3288
645.722	2089
645.781	3254
645.840	4658
645.898	5883
645.957	10200
646.016	17499
646.075	37782
646.134	78055
646.192	229491
646.251	296409
646.310	31303
646.369	8272
646.427	6519
646.486	2890
646.545	4096
646.603	2852
646.662	2996
646.721	2810
646.779	2365
646.838	829
646.896	4685
646.955	6490
647.014	9774
647.072	20670
647.131	59132
647.189	21767
647.248	2854
647.306	3326
647.365	1821
647.423	352
647.481	4292
647.540	112
647.598	1728
647.657	2030
647.715	1900
647.773	864
647.832	2342
647.890	-274
647.948	796
648.007	2003
648.065	627
648.123	1304
648.181	2919
648.240	1634
648.298	661
648.356	652
648.414	1686
648.472	1046
648.531	1268
648.589	635
648.647	1478
648.705	-83
648.763	1764
648.821	1022
648.879	1108
648.937	1615
648.995	2778
649.053	3833
649.111	7638
649.169	14481
649.227	27076
649.285	63104
649.343	182899
649.401	69089
649.459	18888
649.516	9800
649.574	3845
649.632	7200
649.690	7210
649.748	4850
649.806	6188
649.863	13796
649.921	42496
649.979	20700
650.037	3059
650.094	57
650.152	2333
650.210	516
650.268	1758
650.325	1162
650.383	1753
650.440	490
650.498	1193
650.556	777
650.613	118
650.671	1296
650.728	260
650.786	1056
650.843	2268
650.901	-119
650.958	938
651.016	554
651.073	242
651.131	217
651.188	-392
651.246	731
651.303	795
651.360	516
651.418	691
651.475	352
651.532	131
651.590	1012
651.647	-241
651.704	1179
651.762	881
651.819	741
651.876	66
651.933	456
651.990	1637
652.048	-1639
652.105	140
652.162	754
652.219	-704
652.276	961
652.333	627
652.390	-870
652.448	908
652.505	566
652.562	-98
652.619	445
652.676	1422
652.733	1066
652.790	557
652.847	-818
652.904	311
652.961	-499
653.017	-289
653.074	539
653.131	697
653.188	-504
653.245	104
653.302	198
653.359	-512
653.415	670
653.472	-95
653.529	744
653.586	-9
653.642	273
653.699	757
653.756	-152
653.813	-682
653.869	482
653.926	-232
653.983	-1081
654.039	572
654.096	171
654.152	957
654.209	-797
654.266	447
654.322	-191
654.379	1132
654.435	730
654.492	321
654.548	1260
654.605	1966
654.661	1249
654.717	941
654.774	271
654.830	337
654.887	413
654.943	375
655.000	772
655.056	375
655.112	-18
655.168	-774
655.225	-182
655.281	1192
655.337	516
655.394	470
655.450	180
655.506	538
655.562	461
655.618	1507
655.675	-1090
655.731	566
655.787	-485
655.843	474
655.899	-1075
655.955	-323
656.011	-242
656.067	-122
656.123	511
656.179	412
656.235	1638
656.291	-344
656.347	1084
656.403	-382
656.459	-32
656.515	-274
656.571	-331
656.627	466
656.683	-87
656.739	-80
656.795	84
656.850	219
656.906	1161
656.962	685
657.018	-267
657.074	-20
657.129	50
657.185	1438
657.241	3531
657.297	1249
657.352	-377
657.408	996
657.464	409
657.519	423
657.575	-771
657.630	-336
657.686	-557
657.742	-1404
657.797	-936
657.853	-636
657.908	592
657.964	-63
658.019	-79
658.075	-256
658.130	42
658.186	-959
658.241	295
658.297	-61
658.352	-736
658.407	27
658.463	-1070
658.518	133
658.573	-672
658.629	-671
658.684	-565
658.739	1274
658.795	-866
658.850	-683
658.905	-753
658.960	-575
659.016	-903
659.071	61
659.126	323
659.181	479
659.236	2684
659.291	3698
659.346	864
659.401	876
659.457	684
659.512	-95
659.567	552
659.622	-376
659.677	-1156
659.732	-947
659.787	-62
659.842	-617
659.897	155
659.952	362
660.007	-702
660.061	438
660.116	-620
660.171	-687
660.226	157
660.281	1640
660.336	-1133
660.391	414
660.445	-1504
660.500	-171
660.555	-524
660.610	-1000
660.664	-203
660.719	-19
660.774	223
660.828	-194
660.883	314
660.938	331
660.992	-1341
661.047	29
661.101	-217
661.156	-26
661.211	-1246
661.265	-541
661.320	-837
661.374	-405
661.429	-656
661.483	66
661.538	-1429
661.592	-197
661.647	-557
661.701	-286
661.755	-259
661.810	456
661.864	-1187
661.919	-797
661.973	-790
662.027	-11
662.081	-1284
662.136	-106
662.190	-432
662.244	-59
662.299	-713
662.353	-123
662.407	-950
662.461	-142
662.515	-252
662.569	53
662.624	-606
662.678	-385
662.732	-305
662.786	-161
662.840	232
662.894	377
662.948	-727
663.002	279
663.056	-772
663.110	-1378
663.164	-1187
663.218	-66
663.272	-458
663.326	24
663.380	-734
663.434	-95
663.488	-918
663.542	-627
663.595	-352
663.649	-531
663.703	-186
663.757	-593
663.811	-1239
663.864	441
663.918	-547
663.972	-387
664.026	-362
664.079	-1682
664.133	149
664.187	-829
664.240	-1190
664.294	-603
664.348	-627
664.401	410
664.455	-261
664.508	-647
664.562	-1175
664.615	-177
664.669	-1393
664.722	73
664.776	-1120
664.829	-377
664.883	-810
664.936	-479
664.990	-269
665.043	359
665.097	-887
665.150	-116
665.203	-556
665.257	-1237
665.310	-109
665.363	63
665.417	-231
665.470	382
665.523	-133
665.576	-42
665.630	-655
665.683	56
665.736	200
665.789	-290
665.842	-651
665.895	172
665.949	-304
666.002	-646
666.055	-420
666.108	661
666.161	-1265
666.214	275
666.267	397
666.320	-137
666.373	248
666.426	0
666.479	-1218
666.532	-135
666.585	-1029
666.638	261
666.691	-385
666.744	483
666.796	-818
666.849	-83
666.902	-641
666.955	-231
667.008	-604
667.060	-64
667.113	-875
667.166	-111
667.219	-665
667.271	-111
667.324	-1062
667.377	-95
667.430	-181
667.482	-222
667.535	-942
667.587	145
667.640	238
667.693	287
667.745	1940
667.798	2367
667.850	-347
667.903	-28
667.955	-850
668.008	-186
668.060	-331
668.113	-765
668.165	-1084
668.218	31
668.270	29
668.322	-675
668.375	-592
668.427	194
668.479	-754
668.532	-398
668.584	107
668.636	260
668.689	-70
668.741	-634
668.793	-771
668.845	-73
668.898	-788
668.950	275
669.002	-341
669.054	-610
669.106	-110
669.158	-83
669.211	-398
669.263	69
669.315	479
669.367	8
669.419	-801
669.471	1037
669.523	1424
669.575	3315
669.627	428
669.679	-576
669.731	288
669.783	452
669.835	807
669.886	337
669.938	-518
669.990	221
670.042	-659
670.094	-132
670.146	-913
670.197	116
670.249	164
670.301	1554
670.353	1825
670.404	2703
670.456	3665
670.508	9566
670.560	16801
670.611	31000
670.663	59543
670.715	157132
670.766	222586
670.818	45232
670.869	6190
670.921	4112
670.972	2012
671.024	1369
671.075	1213
671.127	486
671.178	-297
671.230	712
671.281	113
671.333	5
671.384	-83
671.436	657
671.487	650
671.538	2431
671.590	3100
671.641	5809
671.692	12857
671.744	26709
671.795	11882
671.846	3315
671.897	1075
671.949	429
672.000	19
672.051	376
672.102	-77
672.153	-1023
672.204	-834
672.256	-862
672.307	-203
672.358	-239
672.409	-1166
672.460	78
672.511	-698
672.562	-636
672.613	-1366
672.664	-538
672.715	-336
672.766	-1441
672.817	-833
672.868	-863
672.919	-470
672.970	-1192
673.021	-501
673.071	-9
673.122	-1163
673.173	-799
673.224	-567
673.275	-856
673.326	-1041
673.376	-693
673.427	-745
673.478	-455
673.528	-569
673.579	-521
673.630	-1130
673.680	-106
673.731	-1221
673.782	-320
673.832	-735
673.883	-683
673.934	-1512
673.984	-333
674.035	-832
674.085	-287
674.136	-289
674.186	-1223
674.237	-1036
674.287	-930
674.338	-659
674.388	-523
674.438	-975
674.489	-510
674.539	-1130
674.589	-994
674.640	-547
674.690	80
674.740	-1512
674.791	-795
674.841	-1009
674.891	-646
674.942	-752
674.992	-468
675.042	-1353
675.092	-1236
675.142	-1038
675.193	-723
675.243	-811
675.293	-193
675.343	-1038
675.393	-445
675.443	-707
675.493	-1117
675.543	-946
675.593	-55
675.643	-1048
675.693	-415
675.743	-632
675.793	-784
675.843	-1327
675.893	16
675.943	-336
675.993	-946
676.043	-1416
676.093	-103
676.142	-1366
676.192	-1298
676.242	-767
676.292	-1448
676.341	-1648
676.391	-1073
676.441	-1516
676.491	-836
676.540	-1155
676.590	-751
676.640	-1068
676.689	-404
676.739	-456
676.789	-943
676.838	-1572
676.888	-102
676.937	-1479
676.987	-1098
677.037	-1887
677.086	-1265
677.136	-931
677.185	-1287
677.235	-909
677.284	-446
677.333	-1827
677.383	-1896
677.432	-1455
677.482	-986
677.531	-879
677.580	-814
677.630	-1617
677.679	-973
677.728	-1179
677.778	-1105
677.827	-1486
677.876	-1079
677.925	-1461
677.975	-1394
678.024	-1371
678.073	-628
678.122	-1618
678.171	-990
678.220	-1352
678.269	-1056
678.319	-979
678.368	-585
678.417	-753
678.466	-765
678.515	-864
678.564	-683
678.613	-1312
678.662	-1459
678.711	-858
678.760	-476
678.809	-1274
678.857	-1102
678.906	-1368
678.955	-722
679.004	-709
679.053	-1968
679.102	-685
679.151	-1119
679.199	-1141
679.248	-1265
679.297	-1539
679.346	-510
679.394	-1784
679.443	-463
679.492	-876
679.540	-1656
679.589	-1450
679.638	-1086
679.686	-740
679.735	-1017
679.784	-1386
679.832	-898
679.881	-1350
679.929	-612
679.978	-1003
680.026	-1476
680.075	-952
680.123	-1012
680.172	-1202
680.220	-858
680.268	-934
680.317	-1210
680.365	-1881
680.414	-1627
680.462	-1784
680.510	-168
680.559	-1597
680.607	-342
680.655	-1572
680.703	-1224
680.752	-2103
680.800	-813
680.848	-1213
680.896	-1552
680.945	-1692
680.993	-1196
681.041	-1758
681.089	-742
681.137	-1743
681.185	-1409
681.233	-1199
681.258	-1235
681.281	-1280
681.329	-884
681.377	-1161
681.380	-1165
681.425	-1510
681.473	-785
681.502	-837
681.521	-900
681.569	-1035
681.617	-1643
681.624	-1537
681.665	-932
681.713	-608
681.745	-753
681.761	-840
681.809	-282
681.857	-217
681.867	-330
681.904	-777
681.952	-327
681.989	-973
682.000	-1183
682.048	-1617
682.096	-878
682.111	-997
682.143	-1308
682.191	-1388
682.233	-177
682.239	-8
682.286	-481
682.334	-461
682.354	-417
682.382	-383
682.430	-506
682.476	-857
682.477	-875
682.525	-274
682.572	-577
682.598	-682
682.620	-795
682.667	-926
682.715	-823
682.720	-764
682.763	-334
682.810	-341
682.841	-497
682.857	-606
682.905	-3
682.952	79
682.963	-175
683.000	-1136
683.047	-418
683.085	564
683.095	822
683.142	-579
683.190	-405
683.206	-546
683.237	-808
683.284	146
683.328	-771
683.332	-859
683.379	-116
683.426	-388
683.449	-506
683.473	-634
683.521	-228
683.568	657
683.571	598
683.615	-343
683.662	12
683.693	-145
683.709	-249
683.757	-657
683.804	-88
683.814	-54
683.851	91
683.898	75
683.936	324
683.945	383
683.992	741
684.039	311
684.057	389
684.086	444
684.133	1146
684.179	846
684.180	823
684.227	1027
684.274	1144
684.300	1326
684.321	1459
684.368	609
684.415	853
684.422	779
684.462	242
684.509	-204
684.543	253
684.556	462
684.603	299
684.649	847
684.665	927
684.696	1003
684.743	819
684.786	452
684.790	415
684.837	433
684.883	1228
684.908	1002
684.930	788
684.977	1016
685.023	992
685.029	992
685.070	949
685.117	1220
685.150	1280
685.164	1295
685.210	1226
685.257	1225
685.272	1302
685.303	1497
685.350	1208
685.393	1510
685.396	1536
685.443	2142
685.490	2362
685.514	2196
685.536	1857
685.583	1645
685.629	1827
685.636	1706
685.675	1123
685.722	1772
685.757	1737
685.768	1729
685.815	2000
685.861	2115
685.878	1986
685.908	1693
685.954	880
686.000	1283
686.000	1288
686.047	1146
686.093	1565
686.121	1644
686.139	1665
686.185	1670
686.232	845
686.242	1079
686.278	1807
686.324	1468
686.363	967
686.370	902
686.416	1275
686.463	2027
686.484	1752
686.509	1434
686.555	1353
686.601	926
686.606	990
686.647	1469
686.693	832
686.727	1439
686.739	1681
686.785	1306
686.831	1418
686.848	1412
686.877	1282
686.923	1687
686.969	835
686.969	832
687.015	1266
687.061	1798
687.090	1773
687.107	1649
687.153	2656
687.199	2509
687.211	2240
687.245	1575
687.291	1829
687.332	1902
687.336	1913
687.382	2194
687.428	1990
687.453	2466
687.474	2745
687.520	2392
687.565	1839
687.574	1864
687.611	2206
687.657	2360
687.695	2371
687.702	2370
687.748	2911
687.794	2906
687.816	2847
687.839	2614
687.885	2258
687.931	2193
687.937	2135
687.976	2023
688.022	2481
688.058	2550
688.067	2543
688.113	2739
688.158	1669
688.179	1987
688.204	2527
688.249	2566
688.295	2836
688.300	2827
688.340	2567
688.386	2618
688.421	2550
688.431	2557
688.477	2945
688.522	2680
688.542	2813
688.567	2970
688.613	2249
688.658	2691
688.663	2699
688.703	2782
688.749	2730
688.784	2459
688.794	2371
688.839	3070
688.884	2133
688.905	2282
688.930	2496
688.975	2531
689.020	2398
689.026	2370
689.065	2267
689.110	2719
689.146	2301
689.155	2184
689.201	2461
689.246	2746
689.267	2678
689.291	2617
689.336	2423
689.381	3016
689.388	2930
689.426	2453
689.471	2258
689.509	2379
689.516	2446
689.561	2290
689.606	2465
689.630	2631
689.651	2711
689.696	2416
689.741	2423
689.750	2499
689.785	2962
689.830	3192
689.871	3220
689.875	3195
689.920	3072
689.965	2653
689.992	2830
690.010	3132
690.054	2925
690.099	3035
690.112	3222
690.144	3347
690.189	3097
690.233	2612
690.233	2619
690.278	3189
690.323	3352
690.354	3482
690.367	3427
690.412	3104
690.457	3073
690.474	3108
690.501	3260
690.546	3109
690.590	3246
690.595	3229
690.635	3232
690.680	3115
690.716	2888
690.724	2825
690.769	3154
690.813	3354
690.836	3141
690.857	3094
690.902	3640
690.946	3791
690.957	3912
690.991	4396
691.035	4528
691.077	5023
691.080	5037
691.124	4664
691.168	4556
691.198	4454
691.213	4344
691.257	3893
691.301	3254
691.318	3250
691.346	3580
691.390	3805
691.434	3924
691.439	3917
691.478	3887
691.522	3942
691.559	3983
691.567	3988
691.611	4227
691.655	4030
691.680	3937
691.699	3871
691.743	4012
691.787	4367
691.800	4293
691.831	4153
691.875	4046
691.919	3703
691.921	3695
691.964	3925
692.008	3864
692.041	4065
692.052	4109
692.096	3790
692.139	4073
692.162	4060
692.183	4039
692.227	4033
692.271	3689
692.282	3694
692.315	3869
692.359	3891
692.402	3942
692.403	3954
692.447	4199
692.490	4112
692.523	4010
692.534	3959
692.578	4041
692.622	3847
692.643	3865
692.666	3952
692.709	4154
692.753	3958
692.763	3960
692.797	3967
692.840	3974
692.884	4133
692.884	4147
692.928	4003
692.971	4112
693.004	4031
693.015	4031
693.059	3810
693.102	4049
693.124	4028
693.146	4097
693.189	4364
693.233	4318
693.245	4398
693.276	4539
693.320	4485
693.363	4450
693.365	4432
693.407	4421
693.450	4565
693.485	4526
693.493	4542
693.537	4980
693.580	4693
693.605	4861
693.624	4951
693.667	4832
693.710	4972
693.725	4984
693.753	5629
693.797	6283
693.840	7458
693.845	7530
693.883	6934
693.926	6334
693.966	5700
693.970	5661
694.013	5447
694.056	5169
694.086	4500
694.099	4380
694.142	4568
694.185	4757
694.206	4779
694.229	4945
694.272	5361
694.315	5557
694.326	5578
694.358	5779
694.401	6240
694.444	6569
694.446	6568
694.487	6254
694.530	5750
694.566	5667
694.573	5667
694.616	5122
694.659	4741
694.686	4570
694.702	4687
694.745	4803
694.787	4863
694.806	5026
694.830	5038
694.873	4519
694.916	4297
694.926	4190
694.959	4387
695.002	4964
695.044	5327
695.046	5323
695.087	5380
695.130	5452
695.166	5495
695.172	5499
695.215	5259
695.258	5376
695.286	5205
695.301	5139
695.343	5291
695.386	5260
695.406	5099
695.428	4974
695.471	4938
695.514	4941
695.526	4873
695.556	4939
695.599	5271
695.641	5286
695.646	5316
695.684	5567
695.726	5435
695.766	5462
695.769	5450
695.811	5041
695.854	4546
695.886	4084
695.896	4136
695.938	4493
695.981	4535
696.005	4835
696.023	5079
696.065	5305
696.108	5663
696.125	5753
696.150	5553
696.192	5216
696.235	4888
696.245	4787
696.277	4945
696.319	5150
696.361	5285
696.365	5278
696.404	5370
696.446	5577
696.485	5715
696.488	5747
696.530	5914
696.572	5980
696.604	6080
696.614	6053
696.656	5759
696.698	5546
696.724	5446
696.740	5498
696.783	5478
696.825	5488
696.844	5463
696.867	5513
696.909	5604
696.951	5630
696.964	5641
696.992	5653
697.034	5627
697.076	5580
697.083	5556
697.118	5625
697.160	5649
697.202	5726
697.203	5708
697.244	5680
697.286	5682
697.323	5664
697.327	5697
697.369	5849
697.411	5973
697.442	6028
697.453	6041
697.494	6021
697.536	5997
697.562	5955
697.578	6077
697.620	6438
697.661	6684
697.682	6786
697.703	6870
697.744	7086
697.786	7267
697.801	7281
697.828	7412
697.869	7664
697.911	7805
697.921	7858
697.952	7459
697.994	6740
698.035	6049
698.040	5952
698.077	5839
698.118	5629
698.160	5419
698.160	5399
698.201	5643
698.243	5794
698.279	5966
698.284	5982
698.325	5935
698.367	5880
698.399	5793
698.408	5822
698.449	5905
698.491	5980
698.518	6004
698.532	6029
698.573	6026
698.614	6069
698.638	6039
698.656	5997
698.697	5904
698.738	5788
698.757	5723
698.779	5908
698.820	6198
698.862	6505
698.877	6598
698.903	6747
698.944	6949
698.985	7147
698.996	7183
699.026	7015
699.067	6749
699.116	6413
699.235	5785
699.354	5303
699.474	6320
699.593	6776
699.713	6145
699.832	7043
699.951	7737
700.070	7045
700.190	5572
700.309	6517
700.428	6707
700.547	6283
700.667	6142
700.786	6991
700.905	5023
701.024	6022
701.143	5795
701.262	6707
701.381	6142
701.500	6274
701.619	8922
701.738	6152
701.857	5690
701.976	5856
702.095	5651
702.214	7818
702.333	8674
702.452	7360
702.571	6191
702.690	6767
702.809	5829
702.928	5199
703.047	5310
703.165	6452
703.284	5169
703.403	5423
703.522	6294
703.640	6493
703.759	7966
703.878	7609
703.997	5744
704.115	6216
704.234	5101
704.353	5491
704.471	5342
704.590	5273
704.708	5211
704.827	5477
704.946	4662
705.064	4998
705.183	6259
705.301	6162
705.420	6567
705.538	6279
705.656	5605
705.775	6036
705.893	6870
706.012	7716
706.130	5194
706.249	5677
706.367	5841
706.485	5808
706.604	5185
706.722	7233
706.840	8216
706.958	8984
707.077	6312
707.195	5311
707.313	5666
707.431	5022
707.549	5047
707.668	5372
707.786	5564
707.904	5907
708.022	4531
708.140	4705
708.258	5465
708.376	6094
708.494	5079
708.612	6208
708.730	7894
708.848	7010
708.966	6661
709.084	7155
709.202	6400
709.320	6367
709.438	6128
709.556	5780
709.674	6267
709.791	6344
709.909	5056
710.027	5333
710.145	6086
710.263	6737
710.380	6662
710.498	6169
710.616	6355
710.733	5514
710.851	5770
710.969	5126
711.086	6104
711.204	5672
711.322	5612
711.439	5712
711.557	5023
711.674	5400
711.792	5116
711.909	4875
712.027	5163
712.144	5275
712.262	4940
712.379	4921
712.497	6546
712.614	6159
712.732	6272
712.849	5748
712.966	7209
713.084	9350
713.201	7034
713.318	5589
713.436	5527
713.553	5056
713.670	5608
713.787	6189
713.905	5898
714.022	6049
714.139	6517
714.256	8131
714.373	11164
714.490	17705
714.608	50209
714.725	216008
714.842	170097
714.959	11459
715.076	6665
715.193	5464
715.310	6239
715.427	6059
715.544	5054
715.661	5747
715.778	5074
715.895	5773
716.011	5755
716.128	5481
716.245	5605
716.362	8639
716.479	7910
716.596	5144
716.713	5048
716.829	5800
716.946	6569
717.063	4491
717.180	3798
717.296	4635
717.413	5510
717.530	4707
717.646	4265
717.763	5212
717.880	4456
717.996	5129
718.113	5446
718.229	4581
718.346	4483
718.462	5248
718.579	8326
718.695	19060
718.812	8164
718.928	5877
719.045	4011
719.161	4612
719.277	4557
719.394	4621
719.510	4559
719.626	3948
719.743	4602
719.859	7459
719.975	13701
720.092	54738
720.208	106568
720.324	11509
720.440	5751
720.557	7169
720.673	13580
720.789	10706
720.905	13056
721.021	5001
721.137	4177
721.253	3614
721.369	3690
721.486	4520
721.602	5459
721.718	3975
721.834	3478
721.950	4257
722.066	4227
722.181	3214
722.297	4679
722.413	3765
722.529	4165
722.645	3401
722.761	2893
722.877	2571
722.993	3925
723.108	3792
723.224	3179
723.340	3430
723.456	3303
723.571	3204
723.687	3357
723.803	3561
723.918	3629
724.034	3392
724.150	2829
724.265	3396
724.381	5546
724.497	6897
724.612	2722
724.728	2739
724.843	3386
724.959	3895
725.074	4817
725.190	4867
725.305	2760
725.421	3349
725.536	2960
725.651	2904
725.767	2664
725.882	3604
725.997	2513
726.113	2464
726.228	2841
726.343	2987
726.459	2519
726.574	2918
726.689	1798
726.804	2742
726.920	2040
727.035	1991
727.150	2864
727.265	2958
727.380	3431
727.495	3622
727.610	2466
727.725	1930
727.841	2247
727.956	3467
728.071	3015
728.186	2671
728.301	2153
728.416	3829
728.531	2899
728.645	1977
728.760	3755
728.875	4581
728.990	3279
729.105	3114
729.220	3847
729.335	3668
729.449	2288
729.564	2176
729.679	2308
729.794	2337
729.908	3184
730.023	2863
730.138	2648
730.253	2262
730.367	1885
730.482	2604
730.596	3065
730.711	3923
730.826	3762
730.940	2941
731.055	4178
731.169	2427
731.284	2646
731.398	2179
731.513	3792
731.627	2484
731.742	3850
731.856	3050
731.970	3470
732.085	3792
732.199	4394
732.313	7528
732.428	18014
732.542	58910
732.656	28149
732.771	4965
732.885	3596
732.999	2967
733.113	3611
733.227	3535
733.342	3248
733.456	2645
733.570	3213
733.684	2492
733.798	3147
733.912	2300
734.026	2331
734.140	2695
734.254	2015
734.368	4165
734.482	3608
734.596	2759
734.710	2882
734.824	2145
734.938	2752
735.052	3575
735.166	4193
735.280	3384
735.393	3052
735.507	2499
735.621	3196
735.735	4672
735.849	2823
735.962	1505
736.076	2724
736.190	2299
736.303	3158
736.417	4132
736.531	3209
736.644	2701
736.758	2049
736.872	1945
736.985	2417
737.099	2271
737.212	1469
737.326	2652
737.439	3167
737.553	2472
737.666	3202
737.780	2081
737.893	3019
738.007	2537
738.120	1952
738.233	2423
738.347	2584
738.460	2252
738.573	2880
738.687	2193
738.800	3921
738.913	5011
739.026	2666
739.140	2220
739.253	1349
739.366	2107
739.479	2034
739.592	1561
739.705	2380
739.818	2656
739.932	1936
740.045	2042
740.158	1992
740.271	1699
740.384	2337
740.497	2878
740.610	2419
740.723	2529
740.836	2001
740.949	3239
741.062	5613
741.174	4266
741.287	2123
741.400	2560
741.513	1671
741.626	2498
741.739	1892
741.851	1732
741.964	2368
742.077	1387
742.189	1859
742.302	2867
742.415	2005
742.527	1827
742.640	1880
742.753	1996
742.865	2257
742.978	1919
743.090	1660
743.203	1495
743.316	1645
743.428	1465
743.541	982
743.653	1946
743.766	1896
743.878	1608
743.990	1903
744.103	2646
744.215	1272
744.327	1528
744.440	3934
744.552	7182
744.664	2843
744.777	1308
744.889	1560
745.001	1441
745.113	971
745.226	1162
745.338	1180
745.450	1972
745.562	1434
745.674	2025
745.786	1018
745.898	1658
746.010	1669
746.122	1658
746.234	1229
746.347	1357
746.459	1455
746.570	1701
746.682	1776
746.794	1696
746.906	1906
747.018	1419
747.130	1521
747.242	1643
747.354	1790
747.466	1691
747.577	825
747.689	1299
747.801	1395
747.913	1876
748.024	1776
748.136	1388
748.248	1216
748.359	1877
748.471	1314
748.583	1901
748.694	1347
748.806	1971
748.918	2027
749.029	1311
749.141	2993
749.252	2062
749.364	3619
749.475	8834
749.587	2919
749.698	856
749.809	1641
749.921	1525
750.032	1162
750.144	990
750.255	56
750.366	1190
750.478	1293
750.589	1892
750.700	1008
750.811	2090
750.923	3488
751.034	11234
751.145	7998
751.256	1362
751.367	1342
751.479	893
751.590	838
751.701	1336
751.812	728
751.923	1280
752.034	609
752.145	702
752.256	543
752.367	419
752.478	1698
752.589	1046
752.700	839
752.811	783
752.922	1635
753.032	1491
753.143	1898
753.254	332
753.365	1094
753.476	997
753.586	1334
753.697	833
753.808	1050
753.919	144
754.029	516
754.140	1025
754.251	1381
754.361	1053
754.472	1839
754.582	1231
754.693	1725
754.804	1101
754.914	438
755.025	1060
755.135	624
755.246	540
755.356	963
755.466	1341
755.577	829
755.687	1102
755.798	681
755.908	1114
756.018	828
756.129	608
756.239	1223
756.349	1015
756.460	-47
756.570	1088
756.680	1411
756.790	1402
756.900	1578
757.011	981
757.121	516
757.231	715
757.341	1547
757.451	206
757.561	121
757.671	577
757.781	411
757.891	854
758.001	337
758.111	696
758.221	888
758.331	2440
758.441	1810
758.551	3528
758.661	2475
758.771	1990
758.880	749
758.990	1080
759.100	1560
759.210	856
759.320	846
759.429	1003
759.539	634
759.649	554
759.758	436
759.868	1785
759.978	470
760.087	1839
760.197	961
760.307	432
760.416	1506
760.526	462
760.635	1568
760.745	1554
760.854	398
760.964	1327
761.073	921
761.182	1675
761.292	1577
761.401	1504
761.511	938
761.620	1906
761.729	1132
761.839	528
761.948	694
762.057	1297
762.166	885
762.276	252
762.385	2208
762.494	-294
762.603	880
762.712	1457
762.822	1193
762.931	998
763.040	436
763.149	189
763.258	1092
763.367	1952
763.476	1095
763.585	838
763.694	820
763.803	816
763.912	1233
764.021	1426
764.130	318
764.238	639
764.347	544
764.456	768
764.565	865
764.674	1769
764.783	933
764.891	698
765.000	2214
765.109	1660
765.217	1041
765.326	1703
765.435	2481
765.543	3309
765.652	2092
765.761	3129
765.869	5560
765.978	8055
766.086	16072
766.195	35410
766.303	110985
766.412	360821
766.520	243964
766.629	37319
766.737	13624
766.846	7891
766.954	5430
767.062	5432
767.171	2823
767.279	2768
767.387	1211
767.496	2190
767.604	1569
767.712	1736
767.820	1711
767.928	1805
768.037	1193
768.145	1767
768.253	2241
768.361	1012
768.469	1369
768.577	1039
768.685	1918
768.793	2036
768.901	956
769.009	2159
769.117	1685
769.225	2580
769.333	3349
769.441	7075
769.549	14130
769.657	35795
769.765	143429
769.873	286804
769.981	59365
770.088	10168
770.196	5159
770.304	5133
770.412	3221
770.519	1931
770.627	2316
770.735	2570
770.842	1834
770.950	1711
771.058	778
771.165	1770
771.273	337
771.380	1534
771.488	837
771.595	1561
771.703	1612
771.810	2305
771.918	964
772.025	1591
772.133	1390
772.240	2127
772.348	2028
772.455	1516
772.562	1093
772.670	1635
772.777	2189
772.884	953
772.991	1993
773.099	556
773.206	929
773.313	1544
773.420	1134
773.528	141
773.635	582
773.742	1649
773.849	1711
773.956	991
774.063	1132
774.170	1611
774.277	1945
774.384	1420
774.491	797
774.598	1082
774.705	1397
774.812	2813
774.919	1358
775.026	834
775.133	1295
775.239	671
775.346	1530
775.453	1100
775.560	690
775.667	218
775.773	-214
775.880	1619
775.987	496
776.093	1802
776.200	856
776.307	380
776.413	1029
776.520	657
776.627	1100
776.733	745
776.840	-670
776.946	2046
777.053	963
777.159	1473
777.266	554
777.372	2262
777.478	1296
777.585	1728
777.691	360
777.798	956
777.904	1827
778.010	3861
778.117	2624
778.223	570
778.329	8
778.435	1273
778.542	807
778.648	235
778.754	573
778.860	754
778.966	924
779.072	1079
779.178	909
779.284	519
779.391	-142
779.497	70
779.603	1984
779.708	162
779.815	1017
779.920	2867
780.026	3776
780.132	633
780.238	-59
780.344	1022
780.450	1230
780.556	988
780.661	-203
780.767	894
780.873	1575
780.979	260
781.085	-378
781.190	968
781.296	1413
781.402	307
781.507	235
781.613	820
781.719	477
781.824	478
781.930	1191
782.035	613
782.141	421
782.246	216
782.352	1310
782.457	1033
782.563	382
782.668	779
782.773	1
782.879	262
782.984	1337
783.090	1675
783.195	3937
783.300	1448
783.405	838
783.511	924
783.616	1291
783.721	980
783.826	425
783.932	838
784.037	344
784.142	1304
784.247	1019
784.352	439
784.457	791
784.562	774
784.667	299
784.772	779
784.877	1002
784.982	922
785.087	154
785.192	1375
785.297	636
785.402	-63
785.507	519
785.611	354
785.716	109
785.821	318
785.926	813
786.031	-203
786.135	475
786.240	186
786.345	-1418
786.450	186
786.554	391
786.659	-348
786.763	-1189
786.868	584
786.973	1324
787.077	273
787.182	-156
787.286	60
787.391	363
787.495	-508
787.600	24
787.704	284
787.809	848
787.913	-515
788.017	472
788.122	544
788.226	-69
788.330	-227
788.435	275
788.539	240
788.643	-149
788.747	88
788.852	-51
788.956	-671
789.060	301
789.164	-298
789.268	-950
789.372	-153
789.476	-448
789.580	-121
789.684	-636
789.788	-149
789.892	-800
789.996	88
790.100	-208
790.204	-416
790.308	72
790.412	145
790.516	-396
790.620	934
790.724	651
790.828	-216
790.931	-686
791.035	1334
791.139	-229
791.242	-425
791.346	497
791.450	-368
791.554	-749
791.657	-643
791.761	842
791.864	1182
791.968	37
792.072	126
792.175	-765
792.279	-221
792.382	15
792.486	-255
792.589	-370
792.693	158
792.796	-1276
792.899	1509
793.003	1438
793.106	-693
793.209	-188
793.313	854
793.416	-891
793.519	1238
793.623	2285
793.726	3184
793.829	-134
793.932	821
794.035	-986
794.138	1178
794.242	400
794.345	-461
794.448	837
794.551	2035
794.654	3139
794.757	2535
794.860	425
794.963	684
795.066	-1049
795.169	350
795.272	-876
795.375	316
795.477	-855
795.580	457
795.683	-1938
795.786	369
795.889	-1273
795.991	958
796.094	172
796.197	-949
796.300	822
796.402	-281
796.505	-703
796.608	-172
796.710	523
796.813	-82
796.915	-276
797.018	-335
797.120	238
797.223	-1272
797.326	728
797.428	-194
797.530	-84
797.633	-208
797.735	637
797.838	-310
797.940	650
798.042	-1259
798.145	-30
798.247	-133
798.349	-1597
798.452	1257
798.554	-396
798.656	-1496
798.758	988
798.860	299
798.962	-1304
799.065	-606
799.167	-760
799.269	633
799.371	70
799.473	-337
799.575	-981
799.677	-147
799.779	1684
799.881	953
799.983	1185
800.085	-153
800.187	-348
800.289	-603
800.390	-26
800.492	-252
800.594	840
800.696	-32
800.798	-187
800.899	42
801.001	-479
801.103	-494
801.205	-642
801.306	5
801.408	-495
801.509	-508
801.611	-128
801.713	212
801.814	-780
801.916	-1748
802.017	-693
802.119	-1449
802.220	-306
802.322	-1786
802.423	1603
802.525	-997
802.626	-345
802.727	-581
802.829	55
802.930	-2337
803.031	597
803.133	-735
803.234	-581
803.335	-182
803.436	-646
803.538	-243
803.639	-417
803.740	419
803.841	-503
803.942	204
804.043	56
804.144	-707
804.245	25
804.346	-542
804.447	-252
804.548	1248
804.649	2114
804.750	-798
804.851	-781
804.952	219
805.053	-34
805.154	-1347
805.255	-298
805.355	-905
805.456	-180
805.557	-848
805.658	-1373
805.758	-385
805.859	-151
805.960	-2
806.061	-202
806.161	-782
806.262	25
806.362	99
806.463	-721
806.564	-153
806.664	305
806.765	-220
806.865	-36
806.966	517
807.066	-661
807.166	178
807.267	-544
807.367	-1335
807.468	223
807.568	-1280
807.668	321
807.769	329
807.869	-856
807.969	-324
808.069	-599
808.170	-36
808.270	-237
808.370	106
808.470	669
808.570	-184
808.670	205
808.770	811
808.870	-1334
808.970	168
809.070	-1601
809.170	-1449
809.271	-383
809.370	-379
809.470	-273
809.570	-1197
809.670	-1471
809.770	-783
809.870	-88
809.970	-375
810.070	146
810.169	-94
810.269	-1618
810.369	-161
810.469	-553
810.568	-342
810.668	-603
810.768	-758
810.867	-683
810.967	-387
811.066	-684
811.166	-884
811.265	192
811.365	-1086
811.464	-1327
811.564	-1087
811.663	-692
811.763	-1669
811.862	0
811.962	-549
812.061	-781
812.160	-1005
812.260	-563
812.359	-835
812.458	-723
812.557	196
812.657	1381
812.756	151
812.855	-768
812.954	-1344
813.053	-325
813.153	-443
813.252	-1408
813.351	66
813.450	-65
813.549	-1245
813.648	-37
813.747	-134
813.846	-4
813.945	-529
814.044	-799
814.143	-376
814.242	812
814.341	-712
814.439	698
814.538	-811
814.637	404
814.736	-726
814.835	66
814.933	-737
815.032	-330
815.131	110
815.229	-276
815.328	486
815.427	-48
815.525	878
815.624	-100
815.722	-630
815.821	419
815.919	-370
816.018	-1393
816.116	219
816.215	153
816.313	-113
816.412	663
816.510	-260
816.609	1228
816.707	428
816.805	-352
816.904	-483
817.002	901
817.100	668
817.198	532
817.296	459
817.395	941
817.493	1323
817.591	1638
817.689	3347
817.787	2876
817.885	7339
817.983	13693
818.081	32995
818.179	89069
818.277	236765
818.375	149963
818.473	26345
818.571	10710
818.669	6484
818.767	5659
818.865	6558
818.963	8820
819.061	14182
819.158	27757
819.256	69101
819.354	178989
819.452	387125
819.549	180433
819.647	36204
819.745	13321
819.842	8937
819.940	5601
820.038	3786
820.135	3722
820.233	3354
820.330	1348
820.428	1105
820.525	1778
820.623	1595
820.720	743
820.818	78
820.915	1066
821.012	485
821.110	160
821.207	1090
821.304	-133
821.402	-42
821.499	433
821.596	769
821.693	702
821.791	672
821.888	728
821.985	5503
822.082	2491
822.179	710
822.276	-515
822.373	-132
822.470	-304
822.567	120
822.664	-802
822.761	840
822.858	-1630
822.955	617
823.052	-79
823.149	-445
823.246	-348
823.343	-179
823.440	-96
823.536	-165
823.633	-1421
823.730	-129
823.827	-656
823.923	-396
824.020	967
824.117	-736
824.213	-1237
824.310	-161
824.407	-150
824.503	-314
824.600	-264
824.696	-306
824.793	508
824.889	-771
824.986	-388
825.082	-328
825.179	-321
825.275	-320
825.371	-1179
825.468	227
825.564	-1795
825.660	-428
825.757	110
825.853	254
825.949	-1207
826.045	264
826.142	-1776
826.238	-577
826.334	-1
826.430	-911
826.526	554
826.622	-936
826.718	-533
826.814	-875
826.910	32
827.006	-738
827.102	-434
827.198	195
827.294	-586
827.390	-1179
827.486	-399
827.582	-1365
827.678	-439
827.774	606
827.869	-1537
827.965	92
828.061	-1363
828.157	-425
828.252	-668
828.348	-217
828.444	283
828.539	-1764
828.635	-895
828.731	-214
828.826	-1244
828.922	-192
829.017	-1244
829.113	-86
829.208	-509
829.304	-990
829.399	676
829.495	-1100
829.590	-584
829.685	-694
829.781	-900
829.876	-1410
829.971	-990
830.066	-616
830.162	-909
830.257	-949
830.352	-524
830.447	67
830.543	-808
830.638	-1703
830.733	646
830.828	-486
830.923	86
831.018	-540
831.113	-424
831.208	-1395
831.303	-1313
831.398	-567
831.493	-1010
831.588	-444
831.683	-2022
831.778	-137
831.873	-8
831.967	195
832.062	-1028
832.157	-577
832.252	-101
832.346	-1292
832.441	136
832.536	401
832.631	4899
832.725	2760
832.820	-659
832.914	-1029
833.009	-481
833.104	507
833.198	1238
833.293	-1284
833.387	-1035
833.482	-480
833.576	-1047
833.670	486
833.765	-1083
833.859	-544
833.954	106
834.048	-896
834.142	-867
834.237	-1394
834.331	-336
834.425	-431
834.519	-1169
834.613	-541
834.708	-1347
834.802	-501
834.896	-1964
834.990	-1477
835.084	-403
835.178	-1079
835.272	-763
835.366	-912
835.460	472
835.554	-787
835.648	-905
835.742	-1316
835.836	-625
835.930	-1764
836.024	-278
836.117	-96
836.211	-937
836.305	469
836.399	-280
836.493	-1507
836.586	-347
836.680	-656
836.774	-1404
836.867	301
836.961	-1347
837.055	-1115
837.148	-1214
837.242	-286
837.335	-720
837.429	100
837.522	-1413
837.616	-863
837.709	377
837.803	-1271
837.896	72
837.989	-774
838.083	-470
838.176	-580
838.269	-987
838.363	246
838.456	-1924
838.549	971
838.642	1912
838.735	4897
838.829	1883
838.922	-755
839.015	-911
839.108	-1202
839.201	-615
839.294	-1060
839.387	-535
839.480	-1305
839.573	-1263
839.666	-1302
839.759	-1003
839.852	-1127
839.945	-799
840.038	-1490
840.131	-1131
840.223	-565
840.316	-835
840.409	-713
840.502	-1300
840.594	-109
840.687	-1324
840.780	94
840.873	-1288
840.965	-508
841.058	-378
841.150	310
841.243	-2302
841.336	-740
841.428	-883
841.521	-2197
841.613	-1293
841.706	-928
841.798	-694
841.890	-1439
841.983	-1459
842.075	204
842.167	-748
842.260	-1263
842.352	-679
842.444	-745
842.537	-343
842.629	-307
842.721	-529
842.813	-413
842.905	-2069
842.997	-673
843.090	-874
843.182	-1221
843.274	-602
843.366	1663
843.458	3113
843.550	1822
843.642	-1503
843.734	-936
843.826	-729
843.918	-129
844.009	-273
844.101	-1519
844.193	-1549
844.285	-1207
844.377	-625
844.469	-630
844.560	-1132
844.652	-465
844.744	-1782
844.835	-685
844.927	-1392
845.019	-947
845.110	-915
845.202	-737
845.293	-1251
845.385	-1262
845.476	-418
845.568	-433
845.659	-1382
845.751	-426
845.842	-1211
845.934	-1369
846.025	-863
846.116	39
846.208	-222
846.299	-1637
846.390	-1054
846.482	-652
846.573	-765
846.664	111
846.755	30
846.846	178
846.937	-1293
847.029	-1374
847.120	-1490
847.211	-790
847.302	-214
847.393	-1986
847.484	-1331
847.575	-1429
847.666	-338
847.757	-863
847.847	-1804
847.938	-566
848.029	-465
848.120	-1263
848.211	-1389
848.302	-1587
848.392	-1205
848.483	-781
848.574	-1326
848.664	-1730
848.755	-996
848.846	-1160
848.936	-1368
849.027	-1155
849.118	-420
849.208	-1004
849.299	-756
849.389	-199
849.480	1653
849.570	4848
849.661	9400
849.751	16857
849.841	3333
849.932	-403
850.022	-1136
850.112	-404
850.203	-1699
850.293	-673
850.383	-992
850.474	-1207
850.564	-761
850.654	-2
850.744	-1913
850.834	-207
850.924	-1692
851.014	-1560
851.104	-1588
851.194	-799
851.284	-621
851.374	-104
851.464	-505
851.554	-1013
851.644	-877
851.734	-227
851.824	-1047
851.914	-898
852.004	-905
852.094	-1154
852.183	-782
852.273	-754
852.363	-1214
852.452	-1143
852.542	-1228
852.632	-843
852.721	-698
852.811	-1201
852.901	-776
852.990	-1356
853.080	-827
853.169	-1102
853.259	-941
853.348	-1429
853.438	-282
853.527	-71
853.617	-431
853.706	2789
853.795	6798
853.885	19652
853.974	37254
854.063	73586
854.152	110508
854.242	30822
854.331	2978
854.420	434
854.509	318
854.598	300
854.687	255
854.777	668
854.866	-1023
854.955	-167
855.044	-486
855.133	-735
855.222	-609
855.311	-1333
855.400	-550
855.488	-715
855.577	-1184
855.666	-594
855.755	-321
855.844	158
855.933	-1175
856.021	-1199
856.110	-484
856.199	-1547
856.288	-1192
856.376	-1205
856.465	-2042
856.554	-1193
856.642	-1167
856.731	-1215
856.819	-1283
856.908	-1133
856.996	-1626
857.085	-1181
857.173	-2102
857.262	-976
857.350	-1169
857.438	-1709
857.527	-973
857.615	-1207
857.703	-1764
857.792	-869
857.880	-1113
857.968	-1669
858.056	-1136
858.145	-1233
858.233	-1553
858.321	-1302
858.409	-591
858.497	-1318
858.585	-2022
858.673	-1062
858.761	-1862
858.849	-1067
858.937	-987
859.025	-219
859.113	-1059
859.201	-1317
859.289	-874
859.377	-1694
859.465	-1069
859.552	-917
859.640	-955
859.728	-973
859.816	-648
859.903	-1216
859.991	-1919
860.079	-1059
860.166	-970
860.254	-391
860.342	-1234
860.429	-1550
860.517	-1496
860.604	-72
860.692	-1946
860.779	-1162
860.867	-1537
860.954	-1078
861.042	-1124
861.129	-1145
861.216	-1825
861.304	-1484
861.391	-1852
861.478	-1544
861.565	-1427
861.653	-523
861.740	-1593
861.827	-1250
861.914	-1768
862.001	-1460
862.089	-488
862.176	-1171
862.263	-907
862.350	-1545
862.437	-1293
862.524	-1743
862.611	-1112
862.698	-1089
862.785	-239
862.871	-1447
862.958	-946
863.045	-1073
863.132	-1365
863.219	-1387
863.306	-1807
863.392	-498
863.479	-721
863.566	-914
863.652	-99
863.739	-1612
863.826	-227
863.912	-1422
863.999	-1452
864.086	-1066
864.172	-1273
864.259	-1248
864.345	-792
864.432	-1413
864.518	-1101
864.604	-1633
864.691	-1452
864.777	-530
864.863	-981
864.950	-963
865.036	-1086
865.122	156
865.209	-994
865.295	50
865.381	-998
865.467	-440
865.553	707
865.639	1004
865.726	2457
865.812	8202
865.898	17830
865.984	26588
866.070	54765
866.156	52343
866.242	8200
866.328	1453
866.414	-625
866.499	-496
866.585	-417
866.671	-208
866.757	-768
866.843	-1330
866.928	-872
867.014	-938
867.100	303
867.186	-1571
867.271	-738
867.357	-129
867.442	-231
867.528	-667
867.614	-1149
867.699	-540
867.785	-768
867.870	-364
867.956	-1269
868.041	-1010
868.127	-400
868.212	-659
868.297	-502
868.383	-1033
868.468	972
868.553	1994
868.639	2500
868.724	5800
868.809	4946
868.894	389
868.979	-501
869.065	-626
869.150	-1850
869.235	-1289
869.320	-1650
869.405	-1218
869.490	-1278
869.575	-1806
869.660	-1015
869.745	-706
869.830	-1361
869.915	-1661
870.000	-1722
870.085	-1105
870.169	-918
870.254	-512
870.339	-1325
870.424	-1437
870.509	-157
870.593	-1069
870.678	-1058
870.763	-1034
870.847	-1055
870.932	-1355
871.016	-1321
871.101	-1139
871.186	-750
871.270	-1505
871.355	-1373
871.439	-1829
871.523	-1407
871.608	-757
871.692	-937
871.777	-887
871.861	-546
871.945	-1141
872.030	-1247
872.114	-887
872.198	-1726
872.282	-1240
872.367	-1535
872.451	-1759
872.535	-1229
872.619	-1590
872.703	-1638
872.787	-1194
872.871	-1807
872.955	-1659
873.039	-1925
873.123	-1447
873.207	-488
873.291	-2050
873.375	-1342
873.459	-1381
873.543	-1598
873.627	-1237
873.711	-1567
873.794	-1335
873.878	-1534
873.962	-2024
874.045	-1497
874.129	-778
874.137	-834
874.213	-1393
874.245	-1206
874.296	-898
874.352	-1487
874.380	-1782
874.460	-1772
874.464	-1772
874.547	-1807
874.568	-1604
874.631	-1002
874.676	-967
874.714	-925
874.784	-717
874.798	-684
874.881	367
874.892	264
874.965	-406
874.999	-599
875.048	-880
875.107	-796
875.131	-767
875.215	-679
875.215	-679
875.298	-924
875.323	-1179
875.381	-1716
875.430	-1076
875.465	-649
875.538	-934
875.548	-977
875.631	-1469
875.646	-1537
875.714	-1853
875.753	-1646
875.798	-1372
875.861	-1008
875.881	-916
875.964	-52
875.968	-63
876.047	-173
876.076	-657
876.130	-1596
876.183	-1357
876.213	-1231
876.291	-335
876.296	-279
876.379	-687
876.398	-773
876.462	-897
876.506	-897
876.545	-996
876.613	-1230
876.628	-1253
876.711	-801
876.721	-795
876.794	-658
876.828	-767
876.877	-1013
876.935	-551
876.960	-350
877.043	-578
877.043	-578
877.125	-362
877.150	-217
877.208	91
877.258	-79
877.291	-208
877.365	-289
877.374	-289
877.456	-14
877.472	-66
877.539	-334
877.579	-121
877.622	191
877.687	81
877.704	27
877.787	-84
877.794	-104
877.869	-199
877.901	-314
877.952	-645
878.008	-365
878.034	-222
878.115	-649
878.117	-653
878.199	-872
878.222	-740
878.282	-494
878.329	-344
878.364	-200
878.437	-477
878.447	-519
878.529	-928
878.544	-861
878.611	-607
878.651	-507
878.694	-264
878.758	-589
878.776	-727
878.858	-22
878.865	-62
878.941	-483
878.972	-501
879.023	-590
879.078	-878
879.105	-889
879.185	175
879.187	193
879.269	29
879.292	-192
879.351	-814
879.399	-650
879.433	-336
879.506	24
879.516	8
879.598	-347
879.613	-469
879.680	-868
879.720	-495
879.762	34
879.827	-477
879.844	-669
879.926	-132
879.933	-189
880.007	-477
880.040	-431
880.089	-358
880.147	315
880.171	532
880.253	1674
880.254	1680
880.335	2838
880.360	3027
880.417	4304
880.467	7579
880.499	9689
880.574	11064
880.580	10854
880.662	2493
880.680	1652
880.744	236
880.787	25
880.825	17
880.893	-269
880.907	-258
880.989	-276
881.000	-256
881.070	-116
881.106	-137
881.152	-296
881.213	-188
881.233	-166
881.315	-491
881.319	-490
881.396	-31
881.426	-92
881.478	-586
881.532	-633
881.559	-351
881.639	-162
881.641	-176
881.722	-541
881.745	-571
881.803	-78
881.852	-229
881.885	-478
881.958	-169
881.966	-128
882.047	406
882.064	333
882.129	184
882.171	423
882.210	825
882.277	1770
882.291	1857
882.372	703
882.383	603
882.454	28
882.489	7
882.535	-136
882.596	-448
882.616	-401
882.697	-66
882.702	-50
882.778	2
882.808	-8
882.859	88
882.914	96
882.940	26
883.020	-223
883.021	-220
883.102	-61
883.127	-95
883.183	-217
883.233	-394
883.264	-287
883.339	132
883.345	103
883.426	-232
883.445	-350
883.507	-87
883.551	-36
883.587	-132
883.657	172
883.668	281
883.749	516
883.763	561
883.830	259
883.869	74
883.910	-15
883.975	0
883.991	40
884.072	153
884.081	153
884.152	62
884.187	-2
884.233	16
884.292	41
884.314	-80
884.394	-475
884.398	-500
884.475	-192
884.504	-142
884.555	71
884.610	394
884.636	275
884.716	-242
884.716	-235
884.797	110
884.821	113
884.877	41
884.927	363
884.958	457
885.033	206
885.038	191
885.118	47
885.139	-85
885.199	-61
885.244	153
885.279	302
885.350	474
885.359	467
885.439	531
885.456	479
885.520	498
885.561	502
885.600	242
885.667	-136
885.680	-129
885.760	62
885.773	48
885.840	-137
885.878	-250
885.920	25
885.984	533
886.000	528
886.080	338
886.089	317
886.160	-205
886.195	-408
886.240	-179
886.300	-89
886.320	-23
886.400	554
886.406	573
886.480	254
886.511	137
886.560	327
886.616	474
886.640	478
886.720	532
886.722	524
886.800	-285
886.827	-486
886.879	-160
886.932	68
886.959	272
887.038	916
887.039	918
887.119	436
887.143	245
887.198	401
887.248	569
887.278	445
887.354	45
887.358	58
887.437	218
887.459	256
887.517	706
887.564	1104
887.596	992
887.669	604
887.676	561
887.755	86
887.774	-65
887.835	-84
887.880	-37
887.914	318
887.985	886
887.994	842
888.073	446
888.090	349
888.153	327
888.195	320
888.232	294
888.300	397
888.311	442
888.391	449
888.405	460
888.470	315
888.510	253
888.549	188
888.615	52
888.628	149
888.708	650
888.720	736
888.787	616
888.825	496
888.866	545
888.930	636
888.945	665
889.024	810
889.035	819
889.103	613
889.140	492
889.182	712
889.245	1046
889.261	1072
889.340	1144
889.349	1145
889.419	1035
889.454	977
889.498	673
889.559	233
889.577	337
889.656	790
889.664	831
889.735	935
889.768	980
889.814	1142
889.873	1348
889.978	1174
890.083	610
890.187	870
890.292	989
890.397	1161
890.501	1216
890.606	777
890.710	357
890.815	1457
890.919	886
891.024	1177
891.128	526
891.233	459
891.337	488
891.442	808
891.546	305
891.650	-35
891.755	1057
891.859	2580
891.963	1361
892.068	1723
892.172	589
892.276	96
892.380	583
892.484	740
892.589	676
892.693	807
892.797	529
892.901	-140
893.005	355
893.109	847
893.213	974
893.317	514
893.421	1102
893.525	1017
893.629	488
893.733	674
893.837	537
893.941	1061
894.045	1054
894.148	487
894.252	629
894.356	166
894.460	750
894.564	1289
894.667	1417
894.771	1151
894.875	261
894.978	530
895.082	578
895.186	716
895.289	435
895.393	1598
895.496	1053
895.600	919
895.703	1394
895.807	719
895.910	393
896.014	320
896.117	329
896.221	1407
896.324	711
896.427	684
896.531	-301
896.634	578
896.737	-244
896.840	1138
896.944	1258
897.047	1071
897.150	765
897.253	197
897.356	262
897.460	-63
897.563	824
897.666	972
897.769	830
897.872	570
897.975	105
898.078	244
898.181	-19
898.284	110
898.387	375
898.490	434
898.593	324
898.695	503
898.798	1053
898.901	1015
899.004	1237
899.107	775
899.209	1109
899.312	285
899.415	372
899.518	807
899.620	402
899.723	62
899.826	1432
899.928	2310
900.031	244
900.133	-154
900.236	490
900.338	256
900.441	696
900.543	1461
900.646	606
900.748	903
900.851	353
900.953	826
901.055	-556
901.158	261
901.260	337
901.362	636
901.465	193
901.567	974
901.669	1020
901.771	-26
901.873	396
901.976	46
902.078	-348
902.180	-326
902.282	343
902.384	208
902.486	629
902.588	764
902.690	561
902.792	915
902.894	31
902.996	-9
903.098	419
903.200	376
903.302	652
903.404	596
903.505	136
903.607	1074
903.709	409
903.811	97
903.913	441
904.014	329
904.116	323
904.218	172
904.319	507
904.421	258
904.523	286
904.624	334
904.726	-332
904.827	391
904.929	382
905.030	382
905.132	764
905.233	444
905.335	315
905.436	187
905.537	530
905.639	835
905.740	261
905.841	864
905.943	728
906.044	-287
906.145	218
906.247	178
906.348	1367
906.449	349
906.550	293
906.651	1257
906.752	1023
906.854	-57
906.955	383
907.056	971
907.157	993
907.258	56
907.359	232
907.460	776
907.561	38
907.662	347
907.762	119
907.863	834
907.964	573
908.065	894
908.166	-476
908.267	-134
908.367	231
908.468	-414
908.569	819
908.670	473
908.770	1044
908.871	1384
908.971	-289
909.072	304
909.173	937
909.273	-416
909.374	453
909.474	227
909.575	134
909.675	-93
909.776	783
909.876	-565
909.977	728
910.077	340
910.177	523
910.278	481
910.378	873
910.478	1147
910.579	182
910.679	248
910.779	250
910.879	-234
910.980	365
911.080	117
911.180	235
911.280	-942
911.380	-520
911.480	289
911.580	-316
911.680	356
911.780	119
911.880	238
911.980	259
912.080	-25
912.180	946
912.280	513
912.380	791
912.480	435
912.580	502
912.679	-570
912.779	1048
912.879	219
912.979	266
913.078	-434
913.178	-308
913.278	-159
913.377	250
913.477	599
913.577	-532
913.676	280
913.776	-377
913.875	774
913.975	787
914.074	-426
914.174	468
914.273	-238
914.373	687
914.472	1008
914.572	289
914.671	-53
914.770	-410
914.870	479
914.969	356
915.068	-477
915.167	1151
915.267	-118
915.366	594
915.465	111
915.564	-77
915.663	-809
915.763	-428
915.862	712
915.961	-301
916.060	-548
916.159	-890
916.258	613
916.357	-219
916.456	1131
916.555	100
916.654	144
916.752	-154
916.851	-366
916.950	281
917.049	62
917.148	54
917.247	437
917.345	1021
917.444	148
917.543	68
917.642	572
917.740	-214
917.839	433
917.937	532
918.036	299
918.135	429
918.233	-124
918.332	7
918.430	446
918.529	-168
918.627	665
918.726	496
918.824	-3
918.923	296
919.021	-94
919.119	-10
919.218	-770
919.316	-27
919.414	-160
919.512	322
919.611	-620
919.709	548
919.807	-209
919.905	-291
920.003	-219
920.102	267
920.200	115
920.298	-187
920.396	-76
920.494	459
920.592	-1067
920.690	-97
920.788	-60
920.886	-249
920.984	161
921.082	-602
921.180	1316
921.277	148
921.375	484
921.473	754
921.571	264
921.669	685
921.766	435
921.864	1133
921.962	443
922.060	534
922.157	-171
922.255	577
922.352	488
922.450	-3
922.548	451
922.645	795
922.743	784
922.840	926
922.938	1323
923.035	541
923.133	1098
923.230	471
923.327	1065
923.425	1112
923.522	692
923.619	387
923.717	220
923.814	832
923.911	739
924.008	692
924.106	486
924.203	308
924.300	80
924.397	119
924.494	1014
924.591	917
924.688	148
924.786	546
924.883	703
924.979	244
925.077	534
925.173	1010
925.270	510
925.367	841
925.464	1056
925.561	621
925.658	1043
925.755	1221
925.852	808
925.948	1167
926.045	1418
926.142	511
926.239	1524
926.335	298
926.432	1092
926.529	822
926.625	174
926.722	486
926.818	-285
926.915	669
927.011	1132
927.108	1057
927.204	956
927.301	-284
927.397	1120
927.494	1322
927.590	414
927.687	378
927.783	1004
927.879	1442
927.976	639
928.072	525
928.168	383
928.264	754
928.361	-71
928.457	541
928.553	503
928.649	439
928.745	1092
928.841	123
928.937	1301
929.033	958
929.129	324
929.225	629
929.321	-139
929.417	553
929.513	987
929.609	867
929.705	-304
929.801	781
929.897	-124
929.993	-587
930.089	1261
930.184	326
930.280	-85
930.376	1366
930.471	982
930.567	695
930.663	-53
930.758	177
930.854	741
930.950	371
931.045	176
931.141	597
931.236	513
931.332	321
931.427	187
931.523	-250
931.618	676
931.714	-131
931.809	239
931.905	207
932.000	863
932.095	-52
932.191	880
932.286	861
932.381	444
932.476	174
932.572	622
932.667	1063
932.762	1341
932.857	450
932.952	114
933.047	-247
933.142	387
933.237	193
933.332	340
933.427	1132
933.522	600
933.617	-452
933.712	415
933.807	265
933.902	369
933.997	566
934.092	220
934.187	402
934.282	639
934.376	-371
934.471	980
934.566	41
934.661	-203
934.755	252
934.850	-95
934.945	671
935.039	841
935.134	115
935.228	533
935.323	72
935.417	-125
935.512	-48
935.606	-205
935.701	205
935.795	587
935.890	962
935.984	713
936.079	70
936.173	121
936.267	980
936.362	245
936.456	1090
936.550	736
936.644	63
936.738	566
936.833	299
936.927	-202
937.021	565
937.115	-57
937.209	-675
937.303	1250
937.397	-430
937.491	-262
937.585	1170
937.679	-193
937.773	351
937.867	7
937.961	746
938.055	560
938.149	1072
938.243	-407
938.337	1252
938.430	-21
938.524	330
938.618	428
938.712	463
938.805	-444
938.899	352
938.993	639
939.086	134
939.180	-148
939.274	360
939.367	-93
939.461	1240
939.554	555
939.648	-445
939.741	-113
939.835	160
939.928	383
940.022	438
940.115	-83
940.208	-26
940.302	271
940.395	675
940.488	-847
940.582	80
940.675	44
940.768	-287
940.861	-218
940.954	185
941.048	154
941.141	111
941.234	388
941.327	362
941.420	1301
941.513	-157
941.606	-9
941.699	1061
941.792	-275
941.885	-266
941.978	78
942.071	692
942.164	-507
942.257	466
942.349	507
942.442	403
942.535	-713
942.628	-390
942.721	101
942.813	263
942.906	1752
942.999	256
943.091	157
943.184	312
943.277	-463
943.369	875
943.462	932
943.554	140
943.647	-11
943.739	269
943.832	30
943.924	-328
944.017	267
944.109	-324
944.201	163
944.294	743
944.386	-195
944.478	-563
944.571	-589
944.663	464
944.755	384
944.847	407
944.940	-156
945.032	-570
945.124	268
945.216	1069
945.308	-53
945.400	429
945.492	-6
945.584	-162
945.676	-190
945.768	62
945.860	-276
945.952	450
946.044	586
946.136	325
946.228	-453
946.320	-285
946.412	-385
946.503	595
946.595	720
946.687	-286
946.779	-405
946.870	187
946.962	58
947.054	299
947.145	389
947.237	-446
947.329	23
947.420	94
947.512	169
947.603	-664
947.695	-223
947.786	-363
947.878	-1108
947.969	461
948.061	-358
948.152	-812
948.243	-555
948.335	-614
948.426	-110
948.517	-387
948.609	541
948.700	-38
948.791	-522
948.882	666
948.973	66
949.065	-59
949.156	538
949.247	-637
949.338	-14
949.429	-56
949.520	-429
949.611	138
949.702	405
949.793	103
949.884	-246
949.975	215
950.066	-327
950.157	-251
950.247	634
950.338	-455
950.429	-442
950.520	-621
950.611	-243
950.701	-755
950.792	113
950.883	242
950.973	162
951.064	912
951.155	-600
951.245	222
951.336	279
951.427	-1109
951.517	1090
951.608	51
951.698	417
951.788	199
951.879	-556
951.969	-817
952.060	104
952.150	6
952.240	123
952.331	-1311
952.421	1091
952.511	-562
952.602	308
952.692	-458
952.782	-230
952.872	-312
952.962	239
953.052	162
953.143	-396
953.233	-37
953.323	-155
953.413	-328
953.503	-232
953.593	693
953.683	176
953.773	-496
953.863	-225
953.953	-333
954.042	-559
954.132	-657
954.222	676
954.312	-410
954.402	-9
954.492	190
954.581	61
954.671	-836
954.761	-736
954.850	723
954.940	-159
955.030	-899
955.119	-128
955.209	305
955.298	461
955.388	-399
955.477	597
955.567	-727
955.656	376
955.746	491
955.835	-232
955.925	-192
956.014	419
956.103	-427
956.193	571
956.282	-106
956.371	-142
956.461	253
956.550	-1523
956.639	838
956.728	-16
956.817	-209
956.906	-181
956.995	236
957.085	-335
957.174	-271
957.263	498
957.352	-208
957.441	244
957.530	-43
957.619	33
957.708	-393
957.796	-377
957.885	-87
957.974	-480
958.063	-214
958.152	-909
958.241	314
958.329	-809
958.418	189
958.507	-521
958.596	667
958.684	-793
958.773	-35
958.861	-271
958.950	143
959.039	-176
959.127	-47
959.216	-24
959.304	324
959.393	31
959.481	-98
959.570	-139
959.658	-230
959.746	112
959.835	351
959.923	73
960.011	-1146
960.100	156
960.188	83
960.276	173
960.365	-73
960.453	-303
960.541	-763
960.629	36
960.717	529
960.805	-534
960.893	999
960.981	-611
961.069	581
961.158	-783
961.245	871
961.333	46
961.421	-187
961.509	-197
961.597	238
961.685	-516
961.773	11
961.861	-529
961.949	587
962.036	-733
962.124	835
962.212	-771
962.299	-862
962.387	-600
962.475	337
962.562	-341
962.650	257
962.738	617
962.825	-1110
962.913	352
963.000	-122
963.088	-534
963.175	-75
963.263	-271
963.350	181
963.438	-248
963.525	-147
963.612	149
963.700	423
963.787	1471
963.874	822
963.962	-138
964.049	367
964.136	490
964.223	-58
964.310	73
964.398	-463
964.485	-425
964.572	12
964.659	500
964.746	236
964.833	477
964.920	-104
965.007	-246
965.094	22
965.181	-219
965.268	-152
965.355	-849
965.441	-469
965.528	-1240
965.615	796
965.702	96
965.789	-140
965.875	-347
965.962	-267
966.049	-1562
966.136	-29
966.222	-334
966.309	-72
966.395	-633
966.482	172
966.569	-265
966.655	-706
966.742	-265
966.828	27
966.915	-288
967.001	106
967.087	297
967.174	-505
967.260	85
967.347	177
967.433	528
967.519	1326
967.605	-299
967.692	489
967.778	-9
967.864	2
967.950	-148
968.036	-89
968.123	-331
968.209	73
968.295	-606
968.381	411
968.467	845
968.553	-1086
968.639	363
968.725	-939
968.811	-526
968.897	290
968.983	8
969.069	-930
969.154	203
969.240	87
969.326	-855
969.412	-1104
969.497	84
969.583	48
969.669	1253
969.755	80
969.840	-225
969.926	403
970.012	-239
970.097	740
970.183	159
970.268	-709
970.354	114
970.439	-677
970.525	430
970.610	-267
970.696	56
970.781	-370
970.866	-799
970.952	-67
971.037	11
971.122	68
971.208	551
971.293	-456
971.378	-1767
971.463	-576
971.549	-91
971.634	-497
971.719	-189
971.804	315
971.889	363
971.974	-778
972.059	-382
972.144	245
972.229	66
972.314	-691
972.399	47
972.484	-18
972.569	1083
972.654	-623
972.739	942
972.824	44
972.908	-219
972.993	-334
973.078	-344
973.163	-328
973.247	265
973.332	-1046
973.417	1715
973.501	-719
973.586	-487
973.671	-3
973.755	-768
973.840	1052
973.924	325
974.009	629
974.093	-220
974.178	1072
974.262	-446
974.346	-37
974.431	-166
974.515	-249
974.600	-20
974.684	-140
974.768	-140
974.852	267
974.937	-1124
975.021	-4
975.105	263
975.189	-83
975.273	479
975.358	-177
975.442	-495
975.526	353
975.610	-639
975.694	-952
975.778	252
975.862	-162
975.946	-1944
976.030	792
976.114	-601
976.198	8
976.281	-282
976.365	144
976.449	-337
976.533	169
976.617	-173
976.700	-72
976.784	-310
976.868	-1221
976.951	110
977.035	-658
977.119	539
977.202	479
977.286	432
977.369	-47
977.453	-34
977.536	-744
977.620	-231
977.703	174
977.787	-944
977.870	363
977.953	1025
978.037	-1117
978.120	448
978.203	124
978.287	655
978.370	-104
978.453	-367
978.536	4
978.620	985
978.703	437
978.786	-654
978.869	-411
978.952	-780
979.035	730
979.118	310
979.201	-851
979.284	39
979.367	-279
979.450	-118
979.533	-389
979.616	-250
979.699	29
979.782	-93
979.865	-322
979.948	-141
980.030	-922
980.113	730
980.196	-883
980.279	1215
980.361	-504
980.444	-577
980.526	433
980.609	-332
980.692	-459
980.774	969
980.857	-1289
980.939	301
981.022	-78
981.104	-477
981.187	-342
981.269	937
981.352	-423
981.434	-769
981.516	122
981.599	200
981.681	507
981.763	-268
981.846	186
981.928	-640
982.010	-461
982.092	-331
982.174	-273
982.256	-780
982.339	-59
982.421	-226
982.503	483
982.585	-738
982.667	-96
982.749	354
982.831	580
982.913	-1488
982.995	730
983.077	-653
983.158	703
983.240	-1191
983.322	-16
983.404	729
983.486	-663
983.568	-264
983.649	-535
983.731	237
983.813	-992
983.894	-111
983.976	-140
984.058	-797
984.139	1201
984.221	-971
984.302	530
984.384	-1151
984.465	-29
984.547	-25
984.628	-1001
984.710	230
984.791	357
984.872	-869
984.954	-276
985.035	-569
985.116	-830
985.198	-464
985.279	259
985.360	-294
985.441	-231
985.522	122
985.604	-933
985.685	-1174
985.766	740
985.847	431
985.928	-677
986.009	-237
986.090	-914
986.171	26
986.252	-179
986.333	481
986.414	-329
986.495	-403
986.576	-489
986.656	-92
986.737	-177
986.818	252
986.899	116
986.980	-892
987.060	-39
987.141	-2224
987.222	-184
987.302	-283
987.383	-18
987.464	-489
987.544	-15
987.625	-130
987.705	12
987.786	-289
987.866	-480
987.947	-773
988.027	-57
988.108	105
988.188	-422
988.268	462
988.349	-519
988.429	-249
988.509	157
988.589	-181
988.670	-383
988.750	873
988.830	64
988.910	224
988.990	23
989.070	-980
989.151	-945
989.231	-31
989.311	-503
989.391	-108
989.471	2
989.551	-70
989.631	-585
989.711	159
989.791	169
989.870	-77
989.950	490
990.030	-345
990.110	-761
990.190	-249
990.269	-742
990.349	-952
990.429	249
990.509	128
990.588	-810
990.668	-59
990.747	-443
990.827	-406
990.907	216
990.986	-350
991.066	20
991.145	-419
991.225	504
991.304	45
991.383	-98
991.463	-809
991.542	118
991.622	-554
991.701	-366
991.780	-358
991.859	-705
991.939	-583
992.018	-602
992.097	-485
992.176	607
992.256	-354
992.335	-521
992.414	28
992.493	-286
992.572	-512
992.651	796
992.730	-1229
992.809	-313
992.888	-845
992.967	-539
993.046	207
993.125	-660
993.203	-529
993.282	100
993.361	-898
993.440	-526
993.519	-820
993.597	134
993.676	-601
993.755	847
993.834	-552
993.912	-1635
993.991	-154
994.069	-1133
994.148	-517
994.226	-681
994.305	-727
994.384	-1219
994.462	1115
994.540	-1084
994.619	-849
994.697	-175
994.776	-1522
994.854	506
994.932	30
995.011	-770
995.089	-786
995.167	-612
995.245	-338
995.324	-1463
995.402	317
995.480	-1898
995.558	-718
995.636	-1381
995.714	-289
995.792	390
995.870	-824
995.948	-638
996.026	-222
996.104	-693
996.182	492
996.260	-1122
996.338	-578
996.416	-1651
996.494	-386
996.572	328
996.649	-857
996.727	-1379
996.805	-532
996.883	-843
996.960	-736
997.038	182
997.116	-171
997.193	-1437
997.271	487
997.348	-535
997.426	-547
997.504	-1275
997.581	-233
997.658	36
997.736	-1214
997.813	-1146
997.891	26
997.968	-855
998.046	-397
998.123	-432
998.200	-80
998.277	-365
998.355	154
998.432	-968
998.509	-360
998.586	-345
998.663	237
998.741	-157
998.818	-282
998.895	-212
998.972	-397
999.049	-629
999.126	-742
999.203	-169
999.280	-74
999.357	-402
999.434	-639
999.511	-124
999.587	-1168
999.664	-1330
999.741	-797
999.818	-117
999.895	-605
999.971	-233
1000.048	-1244
1000.125	-209
1000.202	-719
1000.278	-268
1000.355	-773
1000.431	-22
1000.508	-393
1000.584	-1506
1000.661	-424
1000.738	-998
1000.814	-282
1000.890	241
1000.967	-797
1001.043	-383
1001.120	-1776
1001.196	13
1001.272	-1698
1001.349	-742
1001.425	-159
1001.501	-538
1001.577	-485
1001.654	-661
1001.730	-1057
1001.806	-487
1001.882	-1130
1001.958	215
1002.034	-552
1002.110	156
1002.186	-463
1002.262	-104
1002.338	-1272
1002.414	-342
1002.490	-758
1002.566	-1192
1002.642	461
1002.718	170
1002.794	-275
1002.870	-821
1002.945	-705
1003.021	-951
1003.097	-350
1003.173	-975
1003.248	-1357
1003.324	-557
1003.400	-291
1003.475	-673
1003.551	-483
1003.626	-431
1003.702	-611
1003.777	-549
1003.853	-224
1003.928	-867
1004.004	-948
1004.079	-726
1004.155	-690
1004.230	-1629
1004.305	449
1004.381	-1181
1004.456	-583
1004.531	-1075
1004.607	-139
1004.682	-231
1004.757	-1053
1004.832	-829
1004.907	-494
1004.982	-534
1005.057	-250
1005.133	61
1005.208	-1270
1005.283	-669
1005.358	-46
1005.433	-1341
1005.508	-51
1005.583	-1483
1005.657	-1247
1005.732	-247
1005.807	-621
1005.882	-800
1005.957	-379
1006.032	-446
1006.106	-952
1006.181	-1093
1006.256	-184
1006.331	-559
1006.405	-674
1006.480	-517
1006.554	-761
1006.629	-922
1006.704	-565
1006.778	-696
1006.853	-342
1006.927	-766
1007.002	-1179
1007.076	-292
1007.150	-620
1007.225	-158
1007.299	-652
1007.373	-345
1007.448	-914
1007.522	344
1007.596	-334
1007.671	-1072
1007.745	6
1007.819	-955
1007.893	-410
1007.967	-396
1008.041	-1745
1008.115	-42
1008.190	-846
1008.264	-717
1008.338	-1122
1008.412	-1006
1008.486	252
1008.560	-812
1008.633	-409
1008.707	-671
1008.781	-604
1008.855	-234
1008.929	-918
1009.003	-530
1009.076	-776
1009.150	-733
1009.224	-707
1009.298	-291
1009.371	-816
1009.445	-10
1009.519	-384
1009.592	-1915
1009.666	316
1009.739	-593
1009.813	-966
1009.886	157
1009.960	-1472
1010.033	73
1010.107	83
1010.180	-1073
1010.253	-837
1010.327	-910
1010.400	-470
1010.473	-320
1010.547	195
1010.620	-49
1010.693	-642
1010.766	-1466
1010.840	-421
1010.913	-502
1010.986	-1677
1011.059	-844
1011.132	-1379
1011.205	-154
1011.278	-318
1011.351	-462
1011.424	169
1011.497	-362
1011.570	-481
1011.643	-260
1011.716	-468
1011.789	-286
1011.862	-182
1011.934	174
1012.007	-961
1012.080	386
1012.153	-513
1012.225	-30
1012.298	-716
1012.371	-650
1012.443	-50
1012.516	-929
1012.588	-489
1012.661	-214
1012.733	-1293
1012.806	-48
1012.879	-1358
1012.951	-40
1013.023	-375
1013.096	-1061
1013.168	-1015
1013.241	220
1013.313	-518
1013.385	-588
1013.458	-700
1013.530	249
1013.602	-471
1013.674	651
1013.746	-621
1013.819	-558
1013.891	-450
1013.963	-1102
1014.035	-294
1014.107	-512
1014.179	-829
1014.251	-1149
1014.323	-708
1014.395	-372
1014.467	-746
1014.539	262
1014.611	-591
1014.683	-396
1014.754	-793
1014.826	100
1014.898	291
1014.970	-2048
1015.042	-226
1015.113	494
1015.185	-625
1015.257	-1010
1015.328	208
1015.400	-1204
1015.471	283
1015.543	-1454
1015.615	-740
1015.686	-131
1015.757	-285
1015.829	-834
1015.901	-1246
1015.972	-644
1016.043	-623
1016.115	-503
1016.186	-465
1016.257	-999
1016.328	-313
1016.400	-66
1016.471	-991
1016.542	-1376
1016.613	-328
1016.685	-166
1016.756	-447
1016.827	-887
1016.898	-1242
1016.969	-480
1017.040	-1043
1017.111	-983
1017.182	-580
1017.253	-801
1017.324	-287
1017.395	-75
1017.466	-141
1017.537	-626
1017.608	-993
1017.678	-910
1017.749	-449
1017.820	-1483
1017.891	-1706
1017.961	-664
1018.032	-1176
1018.103	-358
1018.173	-128
1018.244	-790
1018.315	-1209
1018.385	538
1018.456	-28
1018.526	-588
1018.597	-1164
1018.667	-874
1018.738	-2108
1018.808	383
1018.878	-244
1018.949	-488
1019.019	-954
1019.089	-1200
1019.160	-646
1019.230	-1770
1019.300	-267
1019.371	-1983
1019.441	-350
1019.511	-116
1019.581	-1333
1019.651	-821
1019.721	-794
1019.791	-625
1019.861	-369
1019.931	-219
1020.001	-784
1020.071	-670
1020.141	-344
1020.211	-1553
1020.281	-776
1020.351	-1088
1020.421	-972
1020.491	-15
1020.560	-1055
1020.630	-399
1020.700	-324
1020.770	-909
1020.839	-1509
1020.909	-974
1020.979	-654
1021.048	-1578
1021.118	-880
1021.187	-906
1021.257	-1410
1021.326	-459
1021.396	-712
1021.465	-686
1021.535	-195
1021.604	-1270
1021.674	-657
1021.743	-562
1021.812	-738
1021.882	-391
1021.951	-925
1022.020	-594
1022.089	-17
1022.159	-356
1022.228	-345
1022.297	-937
1022.366	-926
1022.435	-473
1022.504	-263
1022.573	-888
1022.642	-878
1022.711	-1763
1022.781	-944
1022.849	-728
1022.918	-1512
1022.987	-1129
1023.056	-406
1023.125	-979
1023.194	-1137
1023.263	-1198
1023.331	-706
1023.400	-921
1023.469	-1837
1023.538	-801
1023.606	-346
1023.675	-1174
1023.744	-407
1023.812	-1177
1023.881	-644
1023.949	-1251
1024.018	-1256
1024.086	-801
1024.155	-1317
1024.223	-295
1024.292	-838
1024.360	-1195
1024.429	-1033
1024.497	-1182
1024.565	-1112
1024.634	-1690
1024.702	-740
1024.770	-1241
1024.838	-883
1024.907	-25
1024.975	-919
1025.043	-440
1025.111	-1323
1025.179	-708
1025.247	-1240
1025.315	-648
1025.383	-1024
1025.451	-589
1025.519	-1203
1025.587	-1152
1025.655	-1212
1025.723	-1290
1025.791	-1127
1025.859	-663
1025.927	-622
1025.995	-297
1026.062	-1135
1026.130	-888
1026.198	-1336
1026.266	-1698
1026.333	-861
1026.401	-806
1026.469	-762
1026.536	-1366
1026.604	-866
1026.671	-1660
1026.739	-610
1026.806	-722
1026.874	-1336
1026.941	-848
1027.009	-1429
1027.076	-1381
1027.144	-899
1027.211	-1340
1027.278	-1061
1027.345	-1438
1027.413	-1552
1027.480	-1515
1027.547	-504
1027.614	-1627
1027.682	-699
1027.749	-1302
1027.816	-1295
1027.883	-1077
1027.950	-760
1028.017	-306
1028.084	-1192
1028.151	-787
1028.218	-688
1028.285	-641
1028.352	-1092
1028.419	-1017
1028.486	-1281
1028.553	-940
1028.619	-1289
1028.686	-1932
1028.753	-1148
1028.820	-1746
1028.886	-1178
1028.953	-1085
1029.020	-1316
1029.086	-804
1029.153	-1010
1029.220	-1479
1029.286	-1270
1029.353	-837
1029.419	-1600
1029.486	-948
1029.552	-657
1029.619	-1130
1029.685	-1708
1029.751	-1178
1029.818	-1015
1029.884	-696
1029.951	-620
1030.017	-519
1030.083	-1184
1030.149	-1056
1030.216	-1718
1030.282	-1162
1030.348	-1400
1030.414	-740
1030.480	-1208
1030.546	-1177
1030.612	-965
1030.678	-1918
1030.744	-1412
1030.810	-582
1030.876	-805
1030.942	-667
1031.008	-1062
1031.074	-1361
1031.140	-1062
1031.206	-1260
1031.272	-647
1031.337	-651
1031.403	-844
1031.469	-1977
1031.534	-1326
1031.600	-1121
1031.666	-1283
1031.731	-965
1031.797	-840
1031.863	-871
1031.928	-1304
1031.994	-1300
1032.059	-1405
1032.125	-1145
1032.190	-1967
1032.256	-1728
1032.321	-1785
1032.386	-1466
1032.452	-844
1032.517	-937
1032.582	-783
1032.647	-1147
1032.713	-936
1032.778	-750
1032.843	-1712
1032.908	-1081
1032.974	-1347
1033.039	-1326
1033.104	-1366
1033.169	-1364
1033.234	-1053
1033.299	-643
1033.364	-1459
1033.429	-621
1033.494	-1200
1033.559	-1016
1033.624	-1459
1033.688	-1098
1033.753	-2088
1033.818	-810
1033.883	-1202
1033.948	-635
1034.013	-995
1034.077	-1094
1034.142	-329
1034.207	-1186
1034.271	-603
1034.336	-476
1034.400	-471
1034.465	-851
1034.530	-145
1034.594	-1170
1034.658	-1411
1034.723	-1030
1034.787	-1705
1034.852	-401
1034.916	-1843
1034.981	-1318
1035.045	-1112
1035.109	-705
1035.173	-1246
1035.238	-556
1035.302	-1098
1035.366	-1244
1035.430	-593
1035.495	-1139
1035.559	-1146
1035.623	-812
1035.687	-1495
1035.751	-1776
1035.815	-2127
1035.879	-1073
1035.943	-1343
1036.007	-1570
1036.071	-1806
1036.135	-1454
1036.198	-861
1036.262	-569
1036.326	-869
1036.390	-924
1036.454	-887
1036.517	-833
1036.581	-524
1036.645	-255
1036.709	-559
1036.772	-1393
1036.836	-1587
1036.900	-1324
1036.963	-1360
1037.026	-1174
1037.090	-1902
1037.154	-1079
1037.217	-1003
1037.280	-1987
1037.344	-989
1037.407	-1300
1037.471	-1259
1037.534	-2252
1037.597	-2191
1037.661	-996
1037.724	-1377
1037.787	-2186
1037.850	-1238
1037.913	-1441
1037.977	-580
1038.040	-1113
1038.103	-1618
1038.166	-1412
1038.229	-1046
1038.292	-1626
1038.355	-1409
1038.418	-1346
1038.481	-1334
1038.544	-1390
1038.607	-1515
1038.670	-1566
1038.732	-788
1038.795	-962
1038.858	-1064
1038.921	-508
1038.984	-605
1039.046	-1648
1039.109	-693
1039.172	-906
1039.234	-1032
1039.297	-1341
1039.360	-780
1039.422	-2146
1039.485	-1151
1039.547	-1073
1039.610	-1719
1039.672	-1371
1039.734	-1495
1039.797	-1215
1039.859	-2144
1039.922	-1808
1039.984	-1429
1040.046	-1469
1040.109	-1232
1040.171	-888
1040.233	-1408
1040.295	-1177
1040.358	-749
1040.420	-2211
1040.482	-1217
1040.544	-1512
1040.606	-1994
1040.668	-1027
1040.730	-1318
1040.792	-1015
1040.854	-2014
1040.916	-904
1040.978	-1481
1041.040	-825
1041.102	-1902
1041.164	-1307
1041.225	-1595
1041.287	-1512
1041.349	-2028
1041.411	-1084
1041.472	-902
1041.534	-1648
1041.596	-1781
1041.657	-1824
1041.719	-1501
1041.781	-1402
1041.842	-2068
1041.904	-1386
1041.965	-1541
1042.027	-1071
1042.088	-740
1042.150	-552
1042.211	-943
1042.272	-825
1042.334	-2216
1042.395	-1088
1042.456	-1162
1042.518	-2043
1042.579	-396
1042.640	-1709
1042.701	-1251
1042.763	-478
1042.824	-1282
1042.885	-1365
1042.946	-2029
1043.007	-889
1043.068	-359
1043.129	-1088
1043.190	-1490
1043.251	-746
1043.312	-955
1043.373	-1452
1043.434	-714
1043.495	-1558
1043.556	-1328
1043.616	-994
1043.677	-1616
1043.738	-898
1043.799	-1883
1043.859	-1710
1043.920	-1298
1043.981	-1534
1044.041	-896
1044.102	-1473
1044.162	-735
1044.223	-1573
1044.284	-1579
1044.344	-360
1044.405	-1468
1044.465	-870
1044.525	-1059
1044.586	-572
1044.646	-1669
1044.707	-1031
1044.767	-766
1044.827	-1776
1044.887	-1220
1044.948	-913
1045.008	-680
1045.068	-1553
1045.128	-133
1045.188	-623
1045.249	-34
1045.309	-1072
1045.369	-1446
1045.429	-1306
1045.489	-1705
1045.549	-1144
1045.609	-938
1045.669	-1210
1045.729	-1041
1045.789	-1316
1045.848	-1503
1045.908	-891
1045.968	-725
1046.028	-1681
1046.088	-358
1046.147	-1058
1046.207	-877
1046.267	-624
1046.326	-682
1046.386	-502
1046.446	-750
1046.505	-748
1046.565	-175
1046.624	-10
1046.684	-589
1046.743	-177
1046.803	-729
1046.862	-117
1046.922	0
