'Start Wavelength	183.907
'End Wavelength	1046.922
'Gate Delay	5.000
'Gate Width (ms)	1.050
'Laser Output Level	0.000
'X Position	0.000
'Y Position	0.000
'Z Position	0.000
'Grid Point Number	1.000
'Shot Number	100.000
183.907	415.000
183.977	84.000
184.047	-897
184.116	-312
184.186	-162
184.256	-255
184.325	-511
184.395	-227
184.465	474
184.534	504
184.604	316
184.674	407
184.743	72
184.813	376
184.883	-385
184.952	575
185.022	357
185.092	552
185.161	-116
185.231	-547
185.301	-517
185.370	649
185.440	-387
185.509	183
185.579	-350
185.649	95
185.718	-55
185.788	280
185.857	-504
185.927	113
185.996	-344
186.066	-369
186.136	108
186.205	-145
186.275	479
186.344	-2
186.414	-705
186.483	-493
186.553	168
186.622	395
186.692	-410
186.761	-16
186.831	-708
186.900	911
186.970	377
187.039	936
187.109	-718
187.178	2
187.248	-95
187.317	-168
187.387	186
187.456	10
187.526	-53
187.595	195
187.664	-684
187.734	741
187.803	-871
187.873	902
187.942	209
188.012	-66
188.081	445
188.150	316
188.220	-646
188.289	-92
188.358	312
188.428	329
188.497	-434
188.567	346
188.636	-30
188.705	229
188.775	-912
188.844	-588
188.913	-107
188.983	-635
189.052	-150
189.121	97
189.191	-117
189.260	342
189.329	231
189.399	-76
189.468	-55
189.537	491
189.606	62
189.676	579
189.745	211
189.814	415
189.883	-27
189.953	-377
190.022	323
190.091	656
190.161	104
190.230	417
190.299	239
190.368	-442
190.437	-241
190.507	385
190.576	-191
190.645	-468
190.714	55
190.783	-654
190.853	-241
190.922	771
190.991	256
191.060	552
191.129	-945
191.198	542
191.268	363
191.337	-41
191.406	705
191.475	1010
191.544	-325
191.613	79
191.682	-112
191.752	464
191.821	6
191.890	-132
191.959	-553
192.028	-66
192.097	36
192.166	-365
192.235	55
192.304	281
192.373	114
192.442	-422
192.511	29
192.580	191
192.650	-433
192.719	-202
192.788	-156
192.857	108
192.926	-54
192.995	393
193.064	-295
193.133	-228
193.202	911
193.271	111
193.340	216
193.409	292
193.478	110
193.547	-1144
193.615	-237
193.684	164
193.753	-454
193.822	171
193.891	-874
193.960	837
194.029	-761
194.098	371
194.167	-426
194.236	171
194.305	-834
194.374	259
194.443	-379
194.512	585
194.580	332
194.649	150
194.718	207
194.787	120
194.856	-859
194.925	219
194.994	-542
195.062	452
195.131	-160
195.200	-196
195.269	237
195.338	388
195.407	-153
195.475	-141
195.544	37
195.613	155
195.682	874
195.751	120
195.819	-460
195.888	-13
195.957	379
196.026	13
196.094	-496
196.163	-367
196.232	305
196.301	62
196.369	-764
196.438	-54
196.507	-67
196.576	761
196.644	268
196.713	-84
196.782	-286
196.850	-50
196.919	-274
196.988	-104
197.056	-464
197.125	-806
197.194	8
197.262	385
197.331	-30
197.400	-57
197.468	-50
197.537	-195
197.606	194
197.674	324
197.743	419
197.812	-176
197.880	-396
197.949	-421
198.017	-726
198.086	-197
198.155	-13
198.223	-231
198.292	86
198.360	178
198.429	-287
198.497	560
198.566	-327
198.635	-168
198.703	-53
198.772	401
198.840	19
198.909	-459
198.977	-306
199.046	447
199.114	222
199.183	460
199.251	-301
199.320	114
199.388	-597
199.457	-408
199.525	63
199.594	-209
199.662	-101
199.731	-301
199.799	-144
199.867	-499
199.936	-351
200.004	-206
200.073	232
200.141	-483
200.210	52
200.278	-500
200.346	-364
200.415	670
200.483	376
200.552	74
200.620	-634
200.688	722
200.757	-327
200.825	24
200.893	-96
200.962	1179
201.030	-310
201.098	496
201.167	70
201.235	-166
201.303	-186
201.372	308
201.440	297
201.508	-352
201.577	-138
201.645	126
201.713	111
201.781	-530
201.850	268
201.918	120
201.986	31
202.055	574
202.123	239
202.191	450
202.259	-230
202.327	212
202.396	-39
202.464	338
202.532	-289
202.600	108
202.669	86
202.737	-130
202.805	287
202.873	10
202.941	430
203.009	-124
203.078	-157
203.146	79
203.214	-786
203.282	-990
203.350	311
203.418	-211
203.487	8
203.555	730
203.623	836
203.691	-229
203.759	237
203.827	15
203.895	324
203.963	-4
204.031	-604
204.099	417
204.168	-195
204.236	-141
204.304	492
204.372	-458
204.440	405
204.508	-447
204.576	-184
204.644	105
204.712	-491
204.780	1043
204.848	-347
204.916	-231
204.984	-315
205.052	-187
205.120	-88
205.188	33
205.256	-1218
205.324	647
205.392	-510
205.460	733
205.528	18
205.596	-811
205.664	-470
205.732	-239
205.799	42
205.867	167
205.935	-445
206.003	471
206.071	-433
206.139	14
206.207	-729
206.275	-213
206.343	-439
206.411	500
206.478	-515
206.546	-186
206.614	-308
206.682	286
206.750	-382
206.818	-239
206.885	-42
206.953	-525
207.021	490
207.089	197
207.157	-650
207.225	-169
207.292	-366
207.360	113
207.428	-529
207.496	-557
207.563	-375
207.631	85
207.699	-337
207.767	126
207.834	-582
207.902	-393
207.970	-321
208.038	-397
208.105	47
208.173	283
208.241	-1007
208.309	-163
208.376	-103
208.444	-121
208.512	224
208.579	-767
208.647	236
208.715	265
208.782	-216
208.850	-693
208.918	-465
208.985	-127
209.053	-309
209.120	254
209.188	-137
209.256	-415
209.323	-236
209.391	-10
209.459	646
209.526	381
209.594	-757
209.661	-574
209.729	473
209.796	542
209.864	-25
209.932	-538
209.999	218
210.067	-240
210.134	92
210.202	307
210.269	-100
210.337	133
210.404	313
210.472	-349
210.539	345
210.607	-437
210.674	19
210.742	346
210.809	-751
210.877	843
210.944	516
211.012	-561
211.079	1190
211.146	40
211.214	-853
211.281	107
211.349	-356
211.416	-147
211.484	-31
211.551	-919
211.618	199
211.686	461
211.753	-917
211.821	263
211.888	-369
211.955	-83
212.023	-491
212.090	-458
212.157	-1017
212.225	-87
212.292	749
212.359	532
212.427	1941
212.494	88
212.561	-88
212.629	-348
212.696	-107
212.763	11
212.831	-803
212.898	-44
212.965	19
213.032	413
213.100	-613
213.167	-378
213.234	57
213.301	102
213.369	677
213.436	-66
213.503	-343
213.570	121
213.638	-303
213.705	-124
213.772	-162
213.839	-155
213.906	-439
213.973	635
214.041	115
214.108	-491
214.175	-402
214.242	161
214.309	-38
214.376	517
214.444	-317
214.511	436
214.578	-590
214.645	339
214.712	317
214.779	299
214.846	-358
214.913	233
214.980	384
215.048	-50
215.115	-108
215.182	-155
215.249	-124
215.316	-114
215.383	606
215.450	253
215.517	-15
215.584	514
215.651	-280
215.718	-570
215.785	898
215.852	-67
215.919	-441
215.986	-240
216.053	-342
216.120	156
216.187	216
216.254	-165
216.321	-28
216.388	480
216.455	-276
216.522	216
216.589	-274
216.656	665
216.722	789
216.789	80
216.856	-498
216.923	71
216.990	-638
217.057	-250
217.124	176
217.191	-15
217.258	451
217.324	-911
217.391	-220
217.458	-334
217.525	200
217.592	-35
217.659	-647
217.725	849
217.792	33
217.859	1466
217.926	-606
217.993	90
218.059	-63
218.126	273
218.193	-376
218.260	152
218.327	-512
218.393	-226
218.460	-195
218.527	-354
218.594	-286
218.660	595
218.727	568
218.794	-183
218.860	342
218.927	557
218.994	-344
219.061	-391
219.127	-58
219.194	485
219.261	-491
219.327	369
219.394	648
219.461	-935
219.527	518
219.594	105
219.661	-547
219.727	-1057
219.794	882
219.860	-330
219.927	-112
219.994	234
220.060	505
220.127	1106
220.193	185
220.260	377
220.326	208
220.393	-303
220.460	-16
220.526	587
220.593	76
220.659	1545
220.726	-647
220.792	755
220.859	122
220.925	1092
220.992	460
221.058	1531
221.125	783
221.191	663
221.258	96
221.324	511
221.391	-36
221.457	-62
221.524	290
221.590	242
221.657	1064
221.723	304
221.789	-173
221.856	1012
221.922	-636
221.989	201
222.055	-296
222.121	-373
222.188	1083
222.254	-161
222.321	-296
222.387	-455
222.453	16
222.520	187
222.586	-574
222.652	241
222.719	-396
222.785	-80
222.851	-698
222.918	198
222.984	-684
223.050	-706
223.116	-1741
223.183	674
223.249	-386
223.315	-16
223.382	-261
223.448	228
223.514	-475
223.580	-53
223.647	-143
223.713	-543
223.779	206
223.845	-112
223.911	-126
223.978	-727
224.044	320
224.110	-685
224.176	-74
224.242	-26
224.309	-878
224.375	74
224.441	-561
224.507	304
224.573	-1510
224.639	70
224.705	-681
224.772	-441
224.838	-174
224.904	414
224.970	150
225.036	-452
225.102	-590
225.168	504
225.234	250
225.300	-443
225.366	152
225.432	-473
225.499	-169
225.565	-545
225.631	-292
225.697	632
225.763	-500
225.829	302
225.895	64
225.961	264
226.027	35
226.093	-319
226.159	368
226.225	1073
226.291	629
226.357	1281
226.423	352
226.489	638
226.554	269
226.620	84
226.686	-87
226.752	947
226.818	63
226.884	1955
226.950	1477
227.016	281
227.082	-36
227.148	151
227.214	28
227.279	772
227.345	575
227.411	182
227.477	1010
227.543	1779
227.609	1153
227.674	182
227.740	-469
227.806	355
227.872	242
227.938	83
228.003	433
228.069	710
228.135	-412
228.201	136
228.267	-574
228.332	128
228.398	-1387
228.464	-54
228.530	-1698
228.595	554
228.661	-676
228.727	-646
228.792	391
228.858	148
228.924	-1865
228.990	1152
229.055	-1156
229.121	-220
229.187	-415
229.252	320
229.318	-751
229.384	-576
229.449	-143
229.515	-1012
229.581	-1208
229.646	1151
229.712	-517
229.777	646
229.843	168
229.909	1124
229.974	33
230.040	477
230.105	1089
230.171	-32
230.236	1122
230.302	588
230.368	254
230.433	209
230.499	75
230.564	437
230.630	-652
230.695	16
230.761	456
230.826	-501
230.892	318
230.957	-143
231.023	-301
231.088	114
231.154	224
231.219	330
231.284	-58
231.350	439
231.415	-712
231.481	487
231.546	-418
231.612	-313
231.677	-386
231.742	-949
231.808	451
231.873	-159
231.939	-1192
232.004	1375
232.069	1318
232.135	-87
232.200	10
232.265	595
232.331	-323
232.396	199
232.461	-1063
232.527	28
232.592	-876
232.657	15
232.723	-427
232.788	-769
232.853	311
232.918	-373
232.984	-484
233.049	-443
233.114	-126
233.179	575
233.245	287
233.310	935
233.375	-754
233.440	-222
233.506	-614
233.571	19
233.636	-108
233.701	173
233.766	-457
233.832	9
233.897	-257
233.962	-63
234.027	110
234.092	80
234.157	-120
234.222	-35
234.288	449
234.353	448
234.418	836
234.483	630
234.548	736
234.613	165
234.678	291
234.743	-807
234.808	1024
234.873	-93
234.938	1112
235.004	-393
235.069	-115
235.134	-805
235.199	985
235.264	877
235.329	-905
235.394	514
235.459	340
235.524	-869
235.589	498
235.654	161
235.719	-1436
235.784	4
235.849	-206
235.913	409
235.978	605
236.043	39
236.108	80
236.173	-17
236.238	574
236.303	-600
236.368	-334
236.433	1043
236.498	465
236.563	889
236.627	733
236.692	3288
236.757	1599
236.822	999
236.887	-332
236.952	832
237.017	-899
237.081	1031
237.146	332
237.211	1362
237.276	2906
237.341	5267
237.405	1310
237.470	673
237.535	284
237.600	408
237.664	76
237.729	84
237.794	-1068
237.859	779
237.923	332
237.988	173
238.053	141
238.118	395
238.182	1335
238.247	2660
238.312	-425
238.376	677
238.441	-1251
238.506	367
238.570	-747
238.635	925
238.700	-248
238.764	-967
238.829	-113
238.893	-47
238.958	692
239.023	864
239.087	-248
239.152	750
239.216	-829
239.281	841
239.346	-251
239.410	-149
239.475	-201
239.539	1157
239.604	53
239.668	843
239.733	31
239.797	60
239.862	1520
239.926	1726
239.991	695
240.055	162
240.120	-602
240.184	-216
240.249	-113
240.313	-205
240.378	-844
240.442	1201
240.507	1246
240.571	564
240.635	-134
240.700	71
240.764	148
240.829	174
240.893	-2035
240.957	88
241.022	1311
241.086	1492
241.151	-693
241.215	-393
241.279	1086
241.344	55
241.408	500
241.472	-496
241.537	1031
241.601	633
241.665	-1634
241.730	-267
241.794	649
241.858	-288
241.922	-218
241.987	442
242.051	-484
242.115	-683
242.179	195
242.244	-728
242.308	245
242.372	470
242.436	-624
242.501	221
242.565	-1120
242.629	-820
242.693	5
242.757	-316
242.822	-70
242.886	546
242.950	293
243.014	-823
243.078	-273
243.142	-496
243.206	-645
243.271	88
243.335	-154
243.399	1397
243.463	1909
243.527	6039
243.591	1250
243.655	718
243.719	-489
243.783	1007
243.847	707
243.911	1480
243.975	857
244.040	-216
244.104	1147
244.168	716
244.232	-203
244.296	1447
244.360	1012
244.424	933
244.488	18
244.552	885
244.615	-911
244.679	1505
244.743	437
244.807	52
244.871	258
244.935	643
244.999	-962
245.063	153
245.127	611
245.191	1095
245.255	-690
245.319	1471
245.383	-313
245.446	1539
245.510	-670
245.574	1061
245.638	808
245.702	-1196
245.766	1579
245.829	1870
245.893	-440
245.957	-131
246.021	1373
246.085	69
246.149	-277
246.212	2271
246.276	1680
246.340	222
246.404	73
246.467	1807
246.531	-87
246.595	621
246.659	790
246.722	-186
246.786	923
246.850	-89
246.913	722
246.977	26
247.041	698
247.104	348
247.168	487
247.232	1682
247.295	3867
247.359	1510
247.423	552
247.486	1629
247.550	1207
247.614	498
247.677	796
247.741	737
247.804	665
247.868	553
247.932	1172
247.995	4176
248.059	1128
248.122	601
248.186	943
248.249	1505
248.313	7231
248.376	6591
248.440	3560
248.503	308
248.567	2096
248.630	1116
248.694	2752
248.757	4231
248.821	6167
248.884	4498
248.948	3450
249.011	6128
249.075	8158
249.138	7346
249.202	2750
249.265	1577
249.328	1474
249.392	1231
249.455	1018
249.519	1137
249.582	1054
249.645	1761
249.709	1321
249.772	872
249.835	912
249.899	883
249.962	1390
250.025	798
250.089	2265
250.152	4419
250.215	2128
250.279	516
250.342	2124
250.405	931
250.468	339
250.532	1828
250.595	2151
250.658	6467
250.721	11475
250.785	3509
250.848	3944
250.911	1555
250.974	2546
251.038	2621
251.101	4173
251.164	1744
251.227	2826
251.290	1826
251.354	3275
251.417	9912
251.480	9865
251.543	6071
251.606	18179
251.669	12757
251.732	5156
251.795	5835
251.859	6836
251.922	10964
251.985	7037
252.048	3944
252.111	2518
252.174	1242
252.237	3574
252.300	8330
252.363	7316
252.426	16083
252.489	6197
252.552	3680
252.615	1744
252.678	3287
252.741	5608
252.804	7322
252.867	15198
252.930	9660
252.993	4564
253.056	4318
253.119	2114
253.182	1518
253.245	1974
253.308	3210
253.371	967
253.434	1822
253.497	2499
253.559	4385
253.622	2507
253.685	2390
253.748	2439
253.811	1723
253.874	1828
253.937	830
254.000	1622
254.062	2014
254.125	3821
254.188	3658
254.251	1870
254.314	1446
254.376	1623
254.439	2596
254.502	2279
254.565	2216
254.628	5393
254.690	1652
254.753	164
254.816	1380
254.878	848
254.941	2302
255.004	2814
255.067	1049
255.129	65
255.192	-158
255.255	-597
255.317	1149
255.380	1028
255.443	-406
255.505	184
255.568	-292
255.631	-161
255.693	255
255.756	-250
255.819	978
255.881	8
255.944	193
256.006	-86
256.069	-529
256.132	-851
256.194	97
256.257	1059
256.319	708
256.382	69
256.444	387
256.507	464
256.569	200
256.632	-77
256.694	-324
256.757	2001
256.819	4185
256.882	108
256.944	724
257.007	1166
257.069	131
257.132	1139
257.194	1081
257.257	138
257.319	-391
257.381	-155
257.444	1897
257.506	4377
257.569	5161
257.631	2545
257.693	1913
257.756	459
257.818	308
257.880	-617
257.943	357
258.005	627
258.067	306
258.130	130
258.192	-338
258.254	795
258.317	223
258.379	1026
258.441	1435
258.503	2562
258.566	543
258.628	1616
258.690	340
258.753	637
258.815	1347
258.877	-19
258.939	802
259.001	155
259.064	110
259.126	-847
259.188	589
259.250	733
259.312	896
259.375	1626
259.437	549
259.499	222
259.561	-659
259.623	-112
259.685	-411
259.747	-311
259.809	1760
259.872	2688
259.934	5329
259.996	4020
260.058	1058
260.120	-879
260.182	725
260.244	78
260.306	245
260.368	353
260.430	-453
260.492	296
260.554	1994
260.616	618
260.678	3525
260.740	2476
260.802	384
260.864	1351
260.926	-963
260.988	878
261.050	47
261.112	787
261.174	3410
261.236	1672
261.298	1002
261.359	1015
261.421	2146
261.483	-979
261.545	13
261.607	-695
261.669	906
261.731	835
261.793	2151
261.854	-552
261.916	843
261.978	-522
262.040	343
262.102	763
262.164	-208
262.225	-395
262.287	1035
262.349	937
262.411	870
262.472	1219
262.534	296
262.596	686
262.658	885
262.719	-422
262.781	1296
262.843	896
262.904	136
262.966	422
263.028	-723
263.090	3055
263.151	8426
263.213	2271
263.275	612
263.336	298
263.398	1283
263.459	-73
263.521	-120
263.583	1185
263.644	1112
263.706	634
263.767	-515
263.829	275
263.891	-1179
263.952	-725
264.014	-612
264.075	-395
264.137	482
264.198	676
264.260	-28
264.321	-373
264.383	887
264.444	2380
264.506	100
264.567	-71
264.629	823
264.690	-573
264.752	188
264.813	650
264.875	-554
264.936	667
264.998	-703
265.059	-327
265.120	0
265.182	-276
265.243	1545
265.305	465
265.366	87
265.427	-27
265.489	325
265.550	-1213
265.611	-37
265.673	-982
265.734	-219
265.795	649
265.857	-745
265.918	-719
265.979	577
266.040	2788
266.102	1909
266.163	498
266.224	341
266.286	100
266.347	-1119
266.408	-586
266.469	705
266.530	-1014
266.592	-184
266.653	-128
266.714	1203
266.775	119
266.836	84
266.898	-689
266.959	766
267.020	-88
267.081	944
267.142	455
267.203	-175
267.264	-1399
267.326	526
267.387	-1244
267.448	-676
267.509	408
267.570	-161
267.631	-792
267.692	-627
267.753	522
267.814	-1159
267.875	-792
267.936	2008
267.997	-754
268.058	439
268.119	-86
268.180	234
268.241	-1303
268.302	-565
268.363	-349
268.424	239
268.485	-368
268.546	-207
268.607	-592
268.668	-517
268.729	-716
268.790	-799
268.851	95
268.912	715
268.972	1135
269.033	-169
269.094	-1032
269.155	-185
269.216	-314
269.277	-128
269.338	-342
269.398	35
269.459	-627
269.520	106
269.581	569
269.642	563
269.702	98
269.763	72
269.824	-388
269.885	-276
269.945	-844
270.006	-399
270.067	-970
270.128	-383
270.188	-309
270.249	-633
270.310	-183
270.370	-478
270.431	-330
270.492	-284
270.553	-324
270.613	742
270.674	2018
270.734	361
270.795	294
270.856	608
270.916	-641
270.977	56
271.038	-423
271.098	153
271.159	-164
271.219	-118
271.280	-107
271.340	-781
271.401	-1149
271.462	765
271.522	205
271.583	-691
271.643	-479
271.704	-211
271.764	584
271.825	891
271.885	6905
271.946	9216
272.006	2713
272.066	4281
272.127	6769
272.187	3282
272.248	997
272.308	214
272.369	5388
272.429	3048
272.489	1615
272.550	889
272.610	1517
272.671	1343
272.731	456
272.791	1478
272.852	1447
272.912	734
272.972	317
273.033	458
273.093	-30
273.153	382
273.214	195
273.274	336
273.334	3357
273.394	7710
273.455	2260
273.515	3651
273.575	5533
273.635	2999
273.696	3349
273.756	7989
273.816	2890
273.876	1697
273.936	1634
273.997	4136
274.057	148
274.117	315
274.177	1263
274.237	8552
274.297	7676
274.358	3493
274.418	5509
274.478	4087
274.538	1512
274.598	-82
274.658	3180
274.718	4095
274.778	1747
274.838	1608
274.898	966
274.958	5463
275.018	7069
275.078	3946
275.138	1750
275.198	744
275.258	-168
275.318	1156
275.378	1136
275.438	2003
275.498	528
275.558	2642
275.618	6334
275.678	4982
275.738	2978
275.798	1427
275.858	340
275.918	203
275.978	592
276.038	1083
276.098	1120
276.157	1474
276.217	4798
276.277	2260
276.337	1032
276.397	-430
276.457	698
276.517	19
276.576	391
276.636	290
276.696	539
276.756	2765
276.815	1987
276.875	844
276.935	1068
276.995	428
277.055	719
277.114	611
277.174	1511
277.234	4541
277.293	2000
277.353	543
277.413	372
277.472	832
277.532	468
277.592	942
277.651	5551
277.711	11030
277.771	3197
277.830	11517
277.890	11280
277.950	6914
278.009	20257
278.069	8490
278.128	7616
278.188	12123
278.248	4356
278.307	11871
278.367	8774
278.426	1573
278.486	1152
278.545	478
278.605	1982
278.664	1132
278.724	1622
278.783	4490
278.843	9580
278.902	2714
278.962	1332
279.021	2116
279.081	2764
279.140	2732
279.199	1289
279.259	1945
279.318	1653
279.378	2936
279.437	5925
279.496	19318
279.556	47073
279.615	41571
279.675	11646
279.734	6309
279.793	7908
279.853	15624
279.912	6772
279.971	3900
280.031	2307
280.090	5554
280.149	11729
280.208	8134
280.268	30877
280.327	36508
280.386	9501
280.445	6656
280.505	4922
280.564	3143
280.623	1118
280.682	3757
280.742	5291
280.801	1703
280.860	1776
280.919	1556
280.978	735
281.037	886
281.097	-288
281.156	1592
281.215	480
281.274	926
281.333	6198
281.392	5934
281.451	244
281.510	1113
281.569	538
281.628	361
281.688	308
281.747	851
281.806	1159
281.865	430
281.924	133
281.983	411
282.042	-13
282.101	505
282.160	500
282.219	283
282.278	-3
282.337	3150
282.396	2413
282.454	1059
282.513	623
282.572	4894
282.631	3383
282.690	1154
282.749	527
282.808	645
282.867	1239
282.926	395
282.985	738
283.043	919
283.102	817
283.161	400
283.220	2349
283.279	5726
283.338	1608
283.396	354
283.455	462
283.514	1188
283.573	1507
283.631	1172
283.690	1059
283.749	188
283.808	2600
283.866	3375
283.925	393
283.984	1301
284.043	768
284.101	1470
284.160	746
284.219	1722
284.277	1816
284.336	3038
284.395	8097
284.453	7790
284.512	3463
284.570	4015
284.629	3869
284.688	4275
284.746	4781
284.805	5020
284.863	6754
284.922	8320
284.981	10106
285.039	15037
285.098	25181
285.156	53052
285.215	87576
285.273	88749
285.332	61670
285.390	34223
285.449	20260
285.507	14892
285.566	9113
285.624	7660
285.683	5944
285.741	4270
285.799	3988
285.858	3342
285.916	2298
285.975	2730
286.033	1115
286.091	2147
286.150	1428
286.208	2461
286.267	1371
286.325	1631
286.383	2070
286.442	1886
286.500	802
286.558	1144
286.616	1311
286.675	1103
286.733	1458
286.791	1390
286.850	1453
286.908	1642
286.966	2191
287.024	869
287.083	113
287.141	294
287.199	855
287.257	1272
287.315	1308
287.374	859
287.432	2751
287.490	2074
287.548	1069
287.606	1175
287.664	1164
287.723	1521
287.781	1550
287.839	530
287.897	406
287.955	1471
288.013	2749
288.071	6357
288.129	23449
288.187	71310
288.245	36422
288.303	10342
288.361	4896
288.419	3153
288.477	2365
288.535	1613
288.593	1757
288.651	856
288.709	612
288.767	14
288.825	137
288.883	92
288.941	-201
288.999	-662
289.057	614
289.115	-92
289.173	-374
289.231	883
289.289	-172
289.346	639
289.404	93
289.462	1789
289.520	1756
289.578	-207
289.636	-345
289.694	-507
289.751	-836
289.809	-193
289.867	-471
289.925	869
289.983	1456
290.040	553
290.098	-156
290.156	-32
290.214	-352
290.271	7
290.329	-775
290.387	-137
290.444	-1121
290.502	-463
290.560	39
290.617	-237
290.675	-91
290.733	51
290.790	150
290.848	108
290.906	291
290.963	111
291.021	30
291.078	134
291.136	-119
291.194	1873
291.251	6212
291.309	1690
291.366	-98
291.424	586
291.481	40
291.539	53
291.596	-316
291.654	-191
291.711	-395
291.769	770
291.826	1329
291.884	1240
291.941	-609
291.999	-432
292.056	86
292.114	241
292.171	155
292.228	-603
292.286	487
292.343	1373
292.401	2019
292.458	1539
292.515	933
292.573	1237
292.630	1228
292.687	-476
292.745	259
292.802	331
292.859	2545
292.917	8073
292.974	4883
293.031	1206
293.089	371
293.146	515
293.203	-338
293.260	281
293.318	-269
293.375	740
293.432	-534
293.489	-131
293.546	199
293.604	562
293.661	3523
293.718	14122
293.775	7673
293.832	2420
293.889	2820
293.947	1999
294.004	1485
294.061	1355
294.118	3672
294.175	7072
294.232	6001
294.289	2719
294.346	455
294.403	666
294.460	471
294.517	962
294.574	21
294.631	84
294.688	1434
294.745	3112
294.802	13116
294.859	13748
294.916	5071
294.973	3243
295.030	1880
295.087	2183
295.144	1257
295.201	1128
295.258	32
295.315	1809
295.372	4666
295.429	13177
295.486	5741
295.542	1677
295.599	2644
295.656	6215
295.713	5953
295.770	11263
295.827	5302
295.883	1739
295.940	341
295.997	3017
296.054	2695
296.111	1200
296.167	946
296.224	-779
296.281	-361
296.338	374
296.394	351
296.451	736
296.508	3256
296.564	8350
296.621	6197
296.678	11493
296.734	18569
296.791	7875
296.848	3510
296.904	3080
296.961	7867
297.018	13341
297.074	12072
297.131	3574
297.187	2699
297.244	4697
297.301	12229
297.357	27483
297.414	10716
297.470	3662
297.527	1226
297.583	1080
297.640	1011
297.696	1111
297.753	605
297.809	585
297.866	184
297.922	1093
297.979	-500
298.035	1034
298.092	2138
298.148	6685
298.204	8589
298.261	3915
298.317	5451
298.374	15663
298.430	11141
298.486	4275
298.543	1838
298.599	1618
298.656	1850
298.712	4909
298.768	11226
298.824	9316
298.881	4078
298.937	1009
298.993	116
299.050	1526
299.106	1108
299.162	1738
299.218	1642
299.275	594
299.331	828
299.387	4819
299.443	14180
299.500	20353
299.556	9153
299.612	3020
299.668	3093
299.724	4658
299.780	6288
299.837	3033
299.893	3776
299.949	12703
300.005	18727
300.061	13974
300.117	22930
300.173	14247
300.229	4945
300.285	5096
300.341	5836
300.397	3244
300.453	1633
300.510	2068
300.566	1781
300.622	2851
300.678	9047
300.734	19289
300.790	16551
300.845	18420
300.901	13543
300.957	16055
301.013	13107
301.069	4660
301.125	3087
301.181	3305
301.237	1913
301.293	1324
301.349	1030
301.405	316
301.461	588
301.516	1234
301.572	1318
301.628	2763
301.684	2586
301.740	5286
301.796	8966
301.851	7322
301.907	8486
301.963	11650
302.019	16393
302.074	44087
302.130	49773
302.186	25020
302.242	8782
302.297	5251
302.353	4961
302.409	8852
302.464	9618
302.520	7429
302.576	15056
302.631	22063
302.687	12577
302.743	4872
302.798	1775
302.854	1203
302.910	873
302.965	2182
303.021	3548
303.076	4988
303.132	5145
303.187	7456
303.243	4236
303.299	2137
303.354	318
303.410	921
303.465	764
303.521	962
303.576	628
303.632	1994
303.687	4396
303.743	13654
303.798	15443
303.853	6177
303.909	2327
303.964	1008
304.020	2001
304.075	5402
304.130	4368
304.186	7781
304.241	9272
304.297	8009
304.352	3988
304.358	3808
304.407	2349
304.449	1854
304.463	1693
304.518	1741
304.539	1667
304.573	1510
304.629	2095
304.630	2112
304.684	3065
304.720	7330
304.739	9484
304.794	18466
304.811	16239
304.850	10903
304.902	3748
304.905	3281
304.960	2269
304.992	1245
305.015	517
305.071	2227
305.083	2010
305.126	1167
305.173	534
305.181	436
305.236	532
305.264	812
305.292	1124
305.347	1127
305.354	1287
305.402	2260
305.445	1928
305.457	1831
305.512	2233
305.535	2323
305.567	2479
305.622	3193
305.626	3285
305.678	5167
305.716	10283
305.733	12283
305.788	18694
305.807	16802
305.843	13362
305.897	13486
305.898	13474
305.953	16838
305.988	11642
306.008	8668
306.063	4882
306.078	4405
306.118	3256
306.168	2358
306.173	2275
306.228	1315
306.259	666
306.283	227
306.338	965
306.349	922
306.393	786
306.440	1104
306.448	1145
306.503	1725
306.530	1547
306.558	1569
306.613	4065
306.620	4505
306.668	7740
306.711	12194
306.723	13025
306.778	12968
306.801	10263
306.833	6919
306.888	2737
306.892	2692
306.943	2332
306.982	1425
306.997	1115
307.052	654
307.072	778
307.107	1079
307.162	960
307.163	968
307.217	1808
307.253	2018
307.272	2052
307.327	1863
307.343	2133
307.381	2780
307.434	1856
307.436	1856
307.491	4133
307.524	6291
307.546	7340
307.600	11167
307.614	10306
307.655	6610
307.704	2915
307.710	2668
307.765	1809
307.795	2338
307.819	2679
307.874	3723
307.885	3647
307.929	3043
307.975	2730
307.984	2751
308.038	3057
308.065	4118
308.093	6835
308.148	14638
308.156	16782
308.202	28736
308.246	40571
308.257	41589
308.312	24780
308.336	18582
308.366	13618
308.421	9793
308.426	9403
308.475	5898
308.517	4017
308.530	3617
308.585	2984
308.607	2786
308.639	2396
308.694	2354
308.697	2374
308.748	3252
308.787	4388
308.803	4607
308.857	4357
308.877	3950
308.912	3338
308.967	3526
308.967	3537
309.021	5388
309.058	7680
309.076	9095
309.130	15546
309.148	18090
309.185	28951
309.238	47016
309.239	47143
309.293	64417
309.328	63067
309.348	57329
309.402	30190
309.418	23618
309.457	15250
309.508	9900
309.511	9684
309.566	10188
309.598	11255
309.620	13890
309.674	23182
309.688	25951
309.729	26876
309.778	22425
309.783	21869
309.837	13856
309.868	10223
309.892	9977
309.946	11698
309.959	12877
310.001	16437
310.049	20015
310.055	19660
310.109	13315
310.139	9211
310.163	7098
310.218	4000
310.229	3589
310.272	2837
310.319	2441
310.326	2290
310.381	1516
310.409	1062
310.435	1106
310.489	1233
310.499	1296
310.543	1003
310.589	560
310.598	562
310.652	937
310.679	1005
310.706	929
310.760	790
310.769	771
310.814	986
310.859	1272
310.868	1216
310.923	740
310.948	636
310.977	794
311.031	877
311.038	913
311.085	1235
311.128	1445
311.139	1367
311.193	915
311.218	729
311.247	903
311.301	1190
311.308	1229
311.356	1028
311.398	879
311.410	881
311.464	809
311.488	751
311.518	531
311.572	262
311.578	230
311.626	790
311.668	1296
311.680	1344
311.734	1584
311.758	1646
311.788	1576
311.842	1528
311.847	1520
311.896	1619
311.937	1747
311.950	1641
312.004	1201
312.027	1005
312.058	1123
312.112	1345
312.117	1371
312.165	1171
312.207	1008
312.297	383
312.386	741
312.476	1606
312.566	2606
312.656	1303
312.745	403
312.835	828
312.925	170
313.015	1189
313.104	952
313.194	859
313.284	323
313.374	1409
313.463	1453
313.553	1036
313.643	809
313.732	1166
313.822	132
313.912	1206
314.001	1531
314.091	1387
314.180	1088
314.270	1634
314.360	1050
314.449	1626
314.539	720
314.628	908
314.718	244
314.808	1600
314.897	1134
314.987	1608
315.076	1793
315.166	2393
315.255	1633
315.345	1837
315.434	1141
315.524	1327
315.613	1239
315.703	2733
315.792	3541
315.881	10295
315.971	3506
316.060	3175
316.150	2085
316.239	1587
316.328	600
316.418	960
316.507	567
316.597	1986
316.686	1403
316.775	1566
316.865	1653
316.954	1130
317.043	1088
317.133	1569
317.222	1028
317.311	766
317.400	111
317.490	2284
317.579	1605
317.668	1256
317.757	1861
317.847	6466
317.936	17358
318.025	7730
318.114	4321
318.203	3209
318.293	4730
318.382	10603
318.471	6593
318.560	7642
318.649	7250
318.738	1431
318.828	304
318.917	1711
319.006	1935
319.095	3450
319.184	9229
319.273	6818
319.362	3647
319.451	1228
319.540	976
319.629	2805
319.718	5242
319.807	2531
319.896	3093
319.985	11525
320.074	5110
320.163	2413
320.252	1405
320.341	1288
320.430	1529
320.519	2468
320.608	1362
320.697	1854
320.786	1385
320.875	2429
320.964	2821
321.053	4058
321.142	5217
321.230	5975
321.319	4068
321.408	9345
321.497	5485
321.586	4530
321.675	2751
321.764	3531
321.852	2839
321.941	4513
322.030	3496
322.119	3338
322.207	8253
322.296	4668
322.385	3021
322.474	5125
322.562	12499
322.651	6997
322.740	4552
322.829	6363
322.917	3494
323.006	2929
323.095	2827
323.183	1762
323.272	2577
323.361	3920
323.449	8231
323.538	3640
323.626	5821
323.715	3998
323.804	1792
323.892	4812
323.981	4066
324.069	1831
324.158	2375
324.246	2698
324.335	2306
324.424	3898
324.512	1152
324.601	1412
324.689	1850
324.778	3470
324.866	2496
324.954	1325
325.043	917
325.131	1786
325.220	2589
325.308	2081
325.397	1852
325.485	1833
325.574	758
325.662	1459
325.750	373
325.839	1725
325.927	93
326.015	757
326.104	988
326.192	758
326.280	674
326.369	761
326.457	1999
326.545	1940
326.634	859
326.722	1572
326.810	1133
326.898	1545
326.987	1006
327.075	2580
327.163	2341
327.251	820
327.340	1455
327.428	2116
327.516	1050
327.604	947
327.692	505
327.781	899
327.869	731
327.957	1432
328.045	910
328.133	1245
328.221	280
328.309	851
328.397	1368
328.485	1638
328.574	2523
328.662	5991
328.750	2610
328.838	1624
328.926	533
329.014	1367
329.102	1393
329.190	1986
329.278	1762
329.366	623
329.454	15
329.542	1222
329.630	120
329.718	1325
329.806	597
329.893	1099
329.981	514
330.069	1242
330.157	2677
330.245	7951
330.333	3822
330.421	1360
330.509	2457
330.597	6969
330.684	4485
330.772	1587
330.860	859
330.948	1119
331.036	682
331.123	973
331.211	336
331.299	1672
331.387	1096
331.475	2182
331.562	1034
331.650	1138
331.738	476
331.825	1011
331.913	448
332.001	1047
332.089	689
332.176	847
332.264	2003
332.352	2169
332.439	839
332.527	823
332.614	486
332.702	928
332.790	317
332.877	1664
332.965	3540
333.052	2338
333.140	2784
333.228	6090
333.315	1766
333.403	1074
333.490	1481
333.578	2810
333.665	7865
333.753	4235
333.840	687
333.928	1933
334.015	2143
334.103	3855
334.190	9921
334.278	3382
334.365	4007
334.452	4430
334.540	1526
334.627	1863
334.715	2029
334.802	3546
334.889	10001
334.977	14801
335.064	6655
335.151	2980
335.239	1661
335.326	1490
335.413	5842
335.501	7942
335.588	2198
335.675	1522
335.762	1486
335.850	2842
335.937	3549
336.024	6240
336.111	15933
336.199	16843
336.286	5245
336.373	2731
336.460	1391
336.547	1152
336.635	786
336.722	1736
336.809	1143
336.896	2298
336.983	4438
337.070	7233
337.157	11215
337.245	6267
337.332	4031
337.419	1131
337.506	1207
337.593	1934
337.680	2393
337.767	6676
337.854	2052
337.941	2888
338.028	2198
338.115	1138
338.202	1286
338.289	1226
338.376	4717
338.463	2859
338.550	3376
338.637	4063
338.724	1754
338.811	2518
338.898	847
338.984	918
339.071	562
339.158	1717
339.245	3681
339.332	2710
339.419	861
339.506	1537
339.593	215
339.679	1527
339.766	1133
339.853	1281
339.940	2249
340.027	856
340.113	1595
340.200	1798
340.287	430
340.374	1169
340.460	2885
340.547	1452
340.634	3024
340.720	7504
340.807	4209
340.894	794
340.980	1425
341.067	470
341.154	1396
341.240	2254
341.327	3055
341.414	2040
341.500	1712
341.587	1652
341.674	1879
341.760	2780
341.847	2747
341.933	1201
342.020	23
342.106	1047
342.193	635
342.279	1894
342.366	1576
342.452	2740
342.539	718
342.625	3851
342.712	7810
342.798	3376
342.885	1542
342.971	409
343.058	255
343.144	615
343.230	470
343.317	672
343.403	559
343.490	827
343.576	356
343.662	468
343.749	1156
343.835	1958
343.921	3214
344.008	17292
344.094	41249
344.180	9345
344.267	2648
344.353	10769
344.439	11049
344.525	3433
344.612	1487
344.698	1896
344.784	252
344.870	1135
344.957	1088
345.043	1851
345.129	960
345.215	2777
345.301	1733
345.387	951
345.474	479
345.560	793
345.646	584
345.732	1234
345.818	749
345.904	634
345.990	1084
346.076	441
346.162	1487
346.249	1836
346.335	141
346.421	1637
346.507	3873
346.593	16979
346.679	3054
346.765	1158
346.851	-21
346.937	433
347.023	1218
347.108	1231
347.194	-121
347.280	1175
347.366	1017
347.452	5778
347.538	19952
347.624	14971
347.710	9923
347.796	1904
347.882	927
347.967	1008
348.053	566
348.139	1646
348.225	223
348.311	628
348.397	444
348.482	1068
348.568	1526
348.654	989
348.740	2009
348.825	1691
348.911	3767
348.997	8158
349.083	17341
349.168	2727
349.254	913
349.340	1541
349.425	890
349.511	1198
349.597	1028
349.682	2406
349.768	11441
349.854	6351
349.939	1117
350.025	631
350.110	656
350.196	1400
350.282	33
350.367	749
350.453	-69
350.538	1003
350.624	620
350.709	937
350.795	-135
350.880	239
350.966	707
351.051	1920
351.137	342
351.222	1494
351.308	3562
351.393	9055
351.479	2478
351.564	1338
351.649	776
351.735	839
351.820	32
351.906	1428
351.991	172
352.076	5143
352.162	8075
352.247	2275
352.332	932
352.418	3070
352.503	3382
352.588	13302
352.673	9777
352.759	2457
352.844	321
352.929	1657
353.014	1482
353.100	1321
353.185	2833
353.270	3067
353.355	2963
353.441	1262
353.526	584
353.611	2529
353.696	1741
353.781	2180
353.866	616
353.952	1029
354.037	2316
354.122	5655
354.207	4822
354.292	1721
354.377	198
354.462	1328
354.547	582
354.632	1179
354.717	1562
354.802	2708
354.887	1282
354.972	1288
355.057	843
355.142	307
355.227	1909
355.312	1227
355.397	4092
355.482	8240
355.567	3330
355.652	3990
355.737	4212
355.822	12026
355.907	9333
355.991	2497
356.076	-32
356.161	393
356.246	1034
356.331	986
356.416	2212
356.501	20057
356.585	21153
356.670	1902
356.755	2988
356.840	3686
356.924	14366
357.009	47367
357.094	18770
357.179	4276
357.263	2016
357.348	3049
357.433	1886
357.517	1824
357.602	1981
357.687	1274
357.771	2366
357.856	5561
357.941	3841
358.025	10210
358.110	46060
358.195	22438
358.279	2636
358.364	2077
358.448	8174
358.533	22778
358.617	15526
358.702	16009
358.787	6579
358.871	2881
358.956	2447
359.040	606
359.125	998
359.209	1437
359.294	2645
359.378	4258
359.462	2815
359.547	2024
359.631	917
359.716	538
359.800	538
359.885	1844
359.969	2
360.053	1663
360.138	941
360.222	1815
360.306	2187
360.391	2946
360.475	2786
360.559	7551
360.644	6404
360.728	4263
360.812	10593
360.896	31339
360.981	10486
361.065	4834
361.149	1220
361.233	1504
361.318	1499
361.402	2149
361.486	2428
361.570	967
361.654	1501
361.739	3957
361.823	18445
361.907	31615
361.991	5550
362.075	2675
362.159	4723
362.243	5213
362.327	6224
362.411	15376
362.495	5885
362.580	2113
362.664	1391
362.748	2051
362.832	1998
362.916	4617
363.000	19318
363.084	48482
363.168	42986
363.252	10009
363.336	3419
363.420	4046
363.503	7865
363.587	9931
363.671	1793
363.755	1906
363.839	3112
363.923	1298
364.007	3123
364.091	3997
364.175	3096
364.258	17937
364.342	22115
364.426	52071
364.510	27568
364.594	8730
364.677	6592
364.761	27068
364.845	20416
364.929	5704
365.013	3356
365.096	3895
365.180	3416
365.264	4168
365.347	13263
365.431	5862
365.515	1480
365.598	309
365.682	1988
365.766	801
365.849	1278
365.933	439
366.017	1513
366.100	588
366.184	803
366.267	1139
366.351	1158
366.435	737
366.518	232
366.602	642
366.685	1299
366.769	1426
366.852	1309
366.936	2731
367.019	1633
367.103	532
367.186	1171
367.270	1598
367.353	83
367.436	1274
367.520	947
367.603	2129
367.687	2106
367.770	3305
367.853	2377
367.937	9116
368.020	15175
368.104	2442
368.187	2537
368.270	4292
368.353	3028
368.437	3098
368.520	3973
368.603	4294
368.687	7860
368.770	17772
368.853	4884
368.936	3297
369.020	2603
369.103	1865
369.186	638
369.269	881
369.352	2574
369.436	3152
369.519	2365
369.602	1054
369.685	2341
369.768	1272
369.851	1989
369.934	605
370.018	740
370.101	2369
370.184	3621
370.267	2245
370.350	3806
370.433	5018
370.516	15961
370.599	21571
370.682	4647
370.765	9767
370.848	11556
370.931	20727
371.014	7892
371.097	1372
371.180	1994
371.263	1670
371.346	-109
371.429	2106
371.511	1350
371.594	2235
371.677	2580
371.760	3844
371.843	3373
371.926	18122
372.009	40907
372.091	15163
372.174	8838
372.257	22209
372.340	8803
372.423	4363
372.505	5358
372.588	2654
372.671	6362
372.754	20654
372.836	10304
372.919	4926
373.002	8882
373.085	3122
373.167	3722
373.250	9106
373.332	21119
373.415	26706
373.498	52777
373.580	21586
373.663	27959
373.746	37766
373.828	7438
373.911	3484
373.993	2161
374.076	7006
374.159	6349
374.241	5323
374.324	17722
374.406	12253
374.489	15438
374.571	48568
374.654	19567
374.736	8238
374.819	28581
374.901	40492
374.983	40017
375.066	7692
375.148	3052
375.231	6562
375.313	12668
375.395	5383
375.478	1558
375.560	2687
375.643	2663
375.725	7589
375.807	34220
375.890	24368
375.972	4612
376.054	3278
376.136	3145
376.219	2276
376.301	9818
376.383	29784
376.465	10955
376.548	6380
376.630	7862
376.712	25551
376.794	11492
376.877	2141
376.959	925
377.041	1289
377.123	1457
377.205	1751
377.287	109
377.369	1159
377.452	909
377.534	1267
377.616	1108
377.698	901
377.780	4
377.862	1008
377.944	1730
378.026	-20
378.108	967
378.190	1123
378.272	1414
378.354	1006
378.436	689
378.518	1066
378.600	3353
378.682	4675
378.764	11841
378.846	10199
378.928	1865
379.010	3190
379.091	2721
379.173	1480
379.255	155
379.337	1610
379.419	4904
379.501	19048
379.583	7322
379.664	1904
379.746	3718
379.828	12562
379.910	15238
379.991	16407
380.073	2789
380.155	2115
380.237	1571
380.318	1774
380.400	722
380.482	3164
380.564	3384
380.645	4214
380.727	3695
380.809	3785
380.890	2331
380.972	671
381.053	2080
381.135	2589
381.217	4693
381.298	13067
381.380	6895
381.461	5242
381.543	23053
381.624	30182
381.706	5827
381.787	3657
381.869	4566
381.951	10795
382.032	42371
382.113	28431
382.195	5470
382.276	5861
382.358	9011
382.439	25660
382.521	27610
382.602	43127
382.684	18604
382.765	32194
382.846	40574
382.928	75338
383.009	41727
383.090	25511
383.172	88339
383.253	137293
383.334	47125
383.416	40009
383.497	22334
383.578	11874
383.659	20749
383.741	71836
383.822	183549
383.903	97125
383.984	31596
384.066	46638
384.147	26567
384.228	7318
384.309	5182
384.390	5232
384.471	3437
384.553	3834
384.634	4600
384.715	4454
384.796	3296
384.877	2717
384.958	11656
385.039	14166
385.120	5975
385.201	3460
385.282	2772
385.363	3755
385.444	3553
385.525	7184
385.606	21334
385.687	18406
385.768	4305
385.849	3969
385.930	18611
386.011	37098
386.092	8903
386.173	2923
386.254	1854
386.335	2788
386.416	1779
386.496	8351
386.577	12521
386.658	4265
386.739	2011
386.820	2554
386.901	1531
386.981	2290
387.062	1703
387.143	2762
387.224	12496
387.304	13868
387.385	5258
387.466	2119
387.547	4434
387.627	3889
387.708	5586
387.789	23549
387.869	29105
387.950	9552
388.031	1329
388.111	-811
388.192	2841
388.273	2961
388.353	1852
388.434	2154
388.514	4193
388.595	21437
388.676	28239
388.756	12755
388.837	11350
388.917	6483
388.998	431
389.078	2631
389.159	2077
389.239	53
389.320	3007
389.400	865
389.480	5058
389.561	14425
389.641	7567
389.722	2700
389.802	2939
389.883	5596
389.963	17440
390.043	9332
390.124	1650
390.204	5285
390.284	13633
390.365	7773
390.445	5494
390.525	16420
390.605	16538
390.686	7352
390.766	4647
390.846	2759
390.927	501
391.007	788
391.087	2535
391.167	2396
391.247	244
391.328	2172
391.408	2729
391.488	2316
391.568	223
391.648	2235
391.728	2757
391.808	2935
391.888	2335
391.969	8269
392.049	12876
392.129	6319
392.209	5994
392.289	18749
392.369	7846
392.449	4602
392.529	3632
392.609	4725
392.689	6164
392.769	17801
392.849	16159
392.929	10885
393.009	23127
393.089	22097
393.169	24362
393.248	66156
393.328	207878
393.408	222400
393.488	76610
393.568	25030
393.648	12201
393.728	7292
393.807	4474
393.887	4524
393.967	3892
394.047	3585
394.127	2846
394.206	3934
394.286	9662
394.366	51279
394.446	56697
394.525	11067
394.605	2607
394.685	2825
394.764	5603
394.844	9018
394.924	7470
395.003	2559
395.083	2012
395.163	1786
395.242	1895
395.322	3030
395.402	76
395.481	3716
395.561	2993
395.640	12261
395.720	15311
395.799	12243
395.879	7117
395.958	4506
396.038	12964
396.117	65121
396.197	73676
396.276	17075
396.356	6407
396.435	4962
396.515	5427
396.594	8543
396.673	19474
396.753	66930
396.832	190951
396.912	147278
396.991	37731
397.070	13010
397.150	6055
397.229	6085
397.308	9270
397.388	17153
397.467	7276
397.546	3542
397.625	695
397.705	2941
397.784	3018
397.863	2074
397.942	1259
398.022	1145
398.101	1777
398.180	7468
398.259	3927
398.338	1690
398.417	1023
398.497	157
398.576	1331
398.655	68
398.734	710
398.813	599
398.892	2724
398.971	8360
399.050	3609
399.129	526
399.208	1024
399.287	1340
399.366	-63
399.445	453
399.524	665
399.603	-883
399.682	1221
399.761	3407
399.840	10132
399.919	7883
399.998	407
400.077	-279
400.156	-1020
400.235	2418
400.313	204
400.392	85
400.471	6170
400.550	10052
400.629	1169
400.708	936
400.786	-993
400.865	864
400.944	123
401.023	2751
401.102	-58
401.180	711
401.259	-566
401.338	434
401.416	837
401.495	-58
401.574	394
401.652	-1250
401.731	1103
401.810	-193
401.888	-44
401.967	-255
402.046	1610
402.124	1257
402.203	-595
402.281	750
402.360	635
402.438	1770
402.517	-194
402.596	497
402.674	0
402.753	-396
402.831	339
402.910	830
402.988	4356
403.066	21356
403.145	13317
403.223	6332
403.302	17991
403.380	14023
403.459	12916
403.537	5709
403.615	1015
403.694	-1094
403.772	152
403.850	-1
403.929	-1157
404.007	-864
404.085	2127
404.164	2099
404.242	17
404.320	1106
404.398	1129
404.477	3870
404.555	31117
404.633	27012
404.711	3217
404.789	771
404.868	380
404.946	-846
405.024	-818
405.102	226
405.180	-865
405.258	-1200
405.336	415
405.415	-454
405.493	924
405.571	1844
405.649	-64
405.727	-1014
405.805	1515
405.883	754
405.961	494
406.039	-411
406.117	-905
406.195	1209
406.273	3514
406.351	26965
406.429	16126
406.507	794
406.585	-531
406.663	823
406.740	644
406.818	228
406.896	-1174
406.974	1012
407.052	-190
407.130	14327
407.208	20579
407.285	4337
407.363	-421
407.441	220
407.519	-1054
407.596	234
407.674	405
407.752	1150
407.830	1692
407.907	791
407.985	-1114
408.063	86
408.141	-560
408.218	1062
408.296	133
408.373	85
408.451	263
408.529	169
408.606	-480
408.684	-138
408.762	-653
408.839	-355
408.917	-458
408.994	455
409.072	-1305
409.149	-221
409.227	1818
409.304	2037
409.382	1524
409.459	1916
409.537	4565
409.614	2686
409.692	1481
409.769	1668
409.846	4186
409.924	6406
410.001	2004
410.079	1475
410.156	1340
410.233	366
410.311	156
410.388	129
410.465	479
410.543	1059
410.620	473
410.697	-146
410.775	-139
410.852	-997
410.929	1066
411.006	2818
411.083	560
411.161	2188
411.238	2507
411.315	604
411.392	-712
411.469	1753
411.547	1541
411.624	-127
411.701	-67
411.778	-273
411.855	625
411.932	304
412.009	-1354
412.086	757
412.163	-162
412.240	95
412.317	495
412.394	341
412.471	-157
412.548	-688
412.625	-921
412.702	-247
412.779	184
412.856	838
412.933	-1036
413.010	436
413.087	749
413.164	5318
413.241	8200
413.318	959
413.395	765
413.471	1148
413.548	445
413.625	293
413.702	-988
413.779	314
413.855	-973
413.932	-873
414.009	-1487
414.086	-1141
414.162	-315
414.239	341
414.316	3631
414.393	13650
414.469	3335
414.546	-123
414.623	-332
414.699	-392
414.776	-1160
414.853	-1390
414.929	-517
415.006	-1272
415.082	-446
415.159	-490
415.236	-407
415.312	-270
415.389	819
415.465	405
415.542	-795
415.618	-1271
415.695	-64
415.771	-266
415.848	-923
415.924	-278
416.000	-317
416.077	941
416.153	-2001
416.230	-1134
416.306	-1013
416.383	-517
416.459	142
416.535	-802
416.612	-818
416.688	-1098
416.764	-1013
416.841	-473
416.917	-1012
416.993	-612
417.069	-860
417.146	-718
417.222	14
417.298	-456
417.374	-954
417.451	-221
417.527	-331
417.603	284
417.679	-320
417.755	252
417.831	-1404
417.908	-61
417.984	-1117
418.060	-1192
418.136	-119
418.212	1459
418.288	44
418.364	54
418.440	-1088
418.516	279
418.592	-639
418.668	1407
418.744	2344
418.820	2076
418.896	271
418.972	-1154
419.048	-403
419.124	1105
419.200	-454
419.276	198
419.352	-1280
419.428	-239
419.504	-947
419.579	-265
419.655	-816
419.731	-26
419.807	1793
419.883	3678
419.959	1893
420.034	777
420.110	1212
420.186	7763
420.262	7006
420.337	975
420.413	386
420.489	131
420.565	471
420.640	240
420.716	486
420.792	-698
420.867	835
420.943	-609
421.019	1070
421.094	681
421.170	-108
421.245	-423
421.321	1186
421.397	269
421.472	1765
421.548	1262
421.623	2872
421.699	1880
421.774	1091
421.850	1870
421.925	3458
422.001	3441
422.076	3390
422.152	4423
422.227	7331
422.302	10754
422.378	14454
422.453	27971
422.529	61718
422.604	135821
422.679	167107
422.755	144806
422.830	75572
422.905	34943
422.981	18712
423.056	12179
423.131	8459
423.207	6028
423.282	5524
423.357	5861
423.432	4246
423.508	4394
423.583	5215
423.658	5714
423.733	1467
423.808	2063
423.883	2481
423.959	2254
424.034	2310
424.109	2456
424.184	1105
424.259	955
424.334	633
424.409	292
424.484	532
424.559	530
424.634	447
424.709	1447
424.784	1487
424.859	458
424.934	196
425.009	5638
425.084	11099
425.159	3864
425.234	1403
425.309	-20
425.384	832
425.459	1414
425.534	812
425.609	-325
425.683	-730
425.758	235
425.833	84
425.908	1605
425.983	2414
426.058	10623
426.132	4938
426.207	977
426.282	966
426.357	-785
426.431	350
426.506	377
426.581	54
426.655	963
426.730	-514
426.805	-506
426.879	304
426.954	253
427.029	1107
427.103	9319
427.178	26769
427.253	13959
427.327	1553
427.402	557
427.476	1382
427.551	905
427.625	-334
427.700	1129
427.774	-940
427.849	265
427.923	-622
427.998	249
428.072	-576
428.147	2059
428.221	11320
428.296	43073
428.370	26636
428.444	3236
428.519	398
428.593	1483
428.667	1858
428.742	1921
428.816	3147
428.890	22248
428.965	43037
429.039	12168
429.113	2718
429.188	1200
429.262	84
429.336	1153
429.410	5014
429.485	4021
429.559	1506
429.633	1037
429.707	556
429.781	3003
429.855	22068
429.930	42289
430.004	14154
430.078	8850
430.152	14856
430.226	52181
430.300	60549
430.374	11543
430.448	3111
430.522	2650
430.596	9221
430.670	10403
430.744	40399
430.818	62945
430.892	14497
430.966	1927
431.040	791
431.114	-311
431.188	-64
431.262	-665
431.336	200
431.410	1573
431.484	2150
431.557	3229
431.631	310
431.705	1198
431.779	7456
431.853	39739
431.927	32952
432.000	4939
432.074	203
432.148	509
432.222	-603
432.295	-210
432.369	-428
432.443	410
432.516	9009
432.590	30172
432.664	13897
432.737	1888
432.811	-504
432.885	170
432.958	342
433.032	-161
433.106	-548
433.179	-717
433.253	296
433.326	-2
433.400	-822
433.473	221
433.547	-997
433.620	3
433.694	23
433.767	733
433.841	-883
433.914	-227
433.988	-576
434.061	-191
434.134	-112
434.208	-890
434.281	-1398
434.355	-809
434.428	129
434.501	-969
434.575	-819
434.648	83
434.721	-829
434.795	207
434.868	-746
434.941	-968
435.014	-456
435.088	-617
435.161	196
435.234	1355
435.307	2113
435.381	962
435.454	1201
435.527	3012
435.600	2614
435.673	1786
435.746	1110
435.819	560
435.892	436
435.966	303
436.039	-424
436.112	-1
436.185	-1083
436.258	-566
436.331	-1293
436.404	458
436.477	-1080
436.550	-1011
436.623	136
436.696	-459
436.769	691
436.842	483
436.915	-703
436.987	-728
437.060	467
437.133	-163
437.206	-1377
437.279	563
437.352	-783
437.425	-708
437.498	-297
437.570	1835
437.643	2221
437.716	-297
437.789	-679
437.861	1416
437.934	8641
438.007	5311
438.080	189
438.152	222
438.225	2215
438.298	14099
438.370	51783
438.443	30143
438.516	8969
438.588	1655
438.661	-521
438.734	-38
438.806	238
438.879	260
438.951	1481
439.024	3917
439.096	1403
439.169	-186
439.241	-888
439.314	-678
439.386	-661
439.459	601
439.531	1835
439.604	778
439.676	192
439.749	-789
439.821	-753
439.893	122
439.966	-554
440.038	448
440.110	913
440.183	-116
440.255	-1461
440.327	677
440.400	4860
440.472	30467
440.544	29296
440.617	4411
440.689	3934
440.761	3779
440.833	8068
440.905	6875
440.978	246
441.050	447
441.122	-208
441.194	-973
441.266	-610
441.338	-350
441.411	582
441.483	9260
441.555	19040
441.627	7217
441.699	1298
441.771	764
441.843	-398
441.915	62
441.987	-447
442.059	-176
442.131	-442
442.203	917
442.275	1234
442.347	2651
442.419	4486
442.491	25121
442.563	78718
442.635	45787
442.706	9408
442.778	6715
442.850	1936
442.922	758
442.994	626
443.066	1574
443.137	2153
443.209	1275
443.281	3653
443.353	7232
443.425	30980
443.496	121130
443.568	149874
443.640	73498
443.711	15891
443.783	3940
443.855	2415
443.926	1021
443.998	94
444.070	747
444.141	8
444.213	2433
444.285	2532
444.356	2141
444.428	810
444.499	1088
444.571	-148
444.642	528
444.714	-96
444.785	2247
444.857	1922
444.928	2203
445.000	2502
445.071	2567
445.143	4041
445.214	4826
445.285	6392
445.357	18798
445.428	72376
445.500	184406
445.571	150151
445.642	94054
445.714	34586
445.785	13331
445.856	4890
445.928	5113
445.999	4416
446.070	3956
446.141	2430
446.213	3302
446.284	2513
446.355	293
446.426	-107
446.497	201
446.569	-50
446.640	1511
446.711	2311
446.782	500
446.853	336
446.924	603
446.995	379
447.066	258
447.138	-4
447.209	-52
447.280	-1699
447.351	-728
447.422	-1697
447.493	-121
447.564	366
447.635	2074
447.706	1078
447.777	-932
447.847	-612
447.918	-1117
447.989	-810
448.060	172
448.131	-92
448.202	1650
448.273	1955
448.344	768
448.414	-364
448.485	-226
448.556	-586
448.627	-1052
448.698	-136
448.768	-913
448.839	-1826
448.910	-404
448.981	540
449.051	-658
449.122	-1077
449.193	-827
449.263	-1474
449.334	-1052
449.405	-683
449.475	2133
449.546	2175
449.616	418
449.687	188
449.758	-588
449.828	-1824
449.899	-426
449.969	-1151
450.040	-1045
450.110	-275
450.181	-590
450.251	-1649
450.322	-425
450.392	-643
450.463	-884
450.533	-1270
450.604	-752
450.674	-1388
450.744	-1177
450.815	-2023
450.885	-867
450.955	-387
451.026	-667
451.096	-1222
451.166	-585
451.237	-734
451.307	2455
451.377	1193
451.447	-320
451.518	-1314
451.588	-1269
451.658	-1022
451.728	-845
451.799	1345
451.869	3280
451.939	-336
452.009	-1103
452.079	-882
452.149	-1085
452.219	-809
452.289	2321
452.360	2598
452.430	455
452.500	-857
452.570	790
452.640	3526
452.710	10194
452.780	14408
452.850	12035
452.920	10925
452.990	5234
453.060	584
453.129	284
453.199	1227
453.269	3311
453.339	11738
453.409	20214
453.479	13032
453.549	21682
453.619	22291
453.688	12481
453.758	855
453.828	-311
453.898	-1336
453.968	-1320
454.037	-1319
454.087	-996
454.107	-872
454.168	-932
454.177	-954
454.247	-945
454.249	-969
454.316	-1846
454.330	-1563
454.386	-484
454.411	-330
454.456	-200
454.492	677
454.525	1429
454.574	910
454.595	704
454.655	-473
454.665	-673
454.734	-591
454.736	-560
454.804	1
454.817	419
454.873	1910
454.898	2727
454.943	4147
454.979	2187
455.013	418
455.060	142
455.082	69
455.141	-838
455.152	-1045
455.221	760
455.222	815
455.291	3154
455.303	2814
455.360	1299
455.384	691
455.430	-370
455.465	121
455.499	493
455.546	1382
455.569	1643
455.627	2685
455.638	2919
455.707	676
455.708	678
455.777	-416
455.789	-529
455.846	-1090
455.869	-957
455.916	-695
455.950	-863
455.985	-1145
456.031	-1220
456.054	-1173
456.112	-656
456.124	-602
456.193	-1329
456.193	-1340
456.262	-230
456.274	-147
456.332	49
456.355	-183
456.401	-687
456.436	-402
456.470	-168
456.516	-261
456.540	-331
456.597	-779
456.609	-879
456.678	-722
456.678	-730
456.747	-705
456.759	-787
456.817	-1117
456.840	-899
456.886	-565
456.920	-567
456.955	-616
457.001	-523
457.024	-401
457.082	-373
457.093	-386
457.162	1150
457.163	1159
457.232	-76
457.243	64
457.301	767
457.324	346
457.370	-310
457.405	-69
457.439	88
457.485	-51
457.508	-113
457.566	388
457.577	534
457.646	1109
457.647	1135
457.715	5001
457.727	5727
457.784	10204
457.808	13724
457.853	18298
457.889	23618
457.922	25236
457.969	18701
457.991	19268
458.050	19384
458.060	19472
458.129	33502
458.130	33965
458.198	38347
458.211	35724
458.267	25108
458.292	17726
458.336	9449
458.372	7333
458.405	8212
458.453	12238
458.474	16090
458.533	31892
458.543	33248
458.611	57703
458.614	58299
458.680	46475
458.694	38296
458.749	20282
458.775	14078
458.818	5780
458.855	3765
458.887	2425
458.936	1953
458.955	1773
459.016	905
459.024	830
459.093	1135
459.097	1161
459.162	1420
459.177	1462
459.230	1692
459.257	1887
459.299	2115
459.338	2623
459.368	3055
459.418	3626
459.437	3406
459.499	2062
459.505	2050
459.574	1119
459.579	1136
459.643	826
459.659	579
459.711	224
459.740	538
459.780	863
459.820	933
459.849	993
459.900	1024
459.917	1074
459.981	1327
459.986	1295
460.054	522
460.061	465
460.123	768
460.141	1050
460.191	1563
460.222	1745
460.260	2133
460.302	2887
460.328	2819
460.382	2074
460.397	2006
460.462	847
460.465	826
460.534	1743
460.543	1803
460.602	3290
460.623	3885
460.671	6030
460.703	8494
460.739	8509
460.783	7830
460.808	6908
460.864	2287
460.876	1956
460.944	777
460.945	761
461.013	1376
461.024	1339
461.081	1326
461.104	1649
461.150	1624
461.184	1278
461.218	1336
461.264	1403
461.286	1340
461.345	835
461.355	733
461.423	1073
461.425	1057
461.491	658
461.505	714
461.559	1883
461.585	2286
461.628	2998
461.665	4054
461.696	4853
461.745	6684
461.764	6171
461.825	3093
461.832	3117
461.901	1971
461.905	2034
461.969	1673
461.985	1468
462.037	2029
462.065	2230
462.105	1567
462.145	999
462.173	1549
462.225	2576
462.241	2756
462.305	4089
462.310	4039
462.378	2885
462.385	2649
462.446	2063
462.465	2080
462.514	1776
462.545	1661
462.582	1746
462.625	1625
462.650	1498
462.705	1388
462.718	1293
462.785	824
462.786	840
462.854	1687
462.865	1825
462.922	2264
462.945	2589
462.990	2251
463.025	1598
463.058	1384
463.104	1274
463.126	1395
463.184	1521
463.194	1541
463.262	1808
463.264	1827
463.330	1119
463.344	863
463.398	1423
463.424	1833
463.466	1941
463.504	2049
463.533	2065
463.583	1891
463.601	1964
463.663	2266
463.669	2290
463.737	2629
463.743	2655
463.805	3953
463.823	4448
463.873	5828
463.903	6425
463.940	6583
463.982	6958
464.008	5923
464.062	3546
464.076	3323
464.142	1548
464.144	1548
464.211	1881
464.221	1968
464.279	1740
464.301	1611
464.347	2028
464.381	2512
464.414	2491
464.461	2204
464.482	2299
464.540	2684
464.550	2641
464.617	2277
464.620	2263
464.685	3040
464.699	3140
464.753	3046
464.779	3105
464.820	2845
464.859	2466
464.888	2508
464.938	2749
464.956	2985
465.018	3533
465.023	3464
465.091	2807
465.098	2706
465.158	2609
465.177	2612
465.226	2290
465.257	2020
465.293	2441
465.336	2968
465.361	3310
465.416	4214
465.428	4336
465.495	4985
465.496	5003
465.563	6423
465.575	6681
465.631	7434
465.654	7809
465.698	5704
465.734	3774
465.765	3488
465.813	2894
465.833	2684
465.893	2334
465.900	2301
465.968	1927
465.972	1895
466.035	2556
466.052	2723
466.102	2206
466.131	1911
466.170	2297
466.210	2740
466.237	2822
466.290	2905
466.304	2829
466.369	2381
466.372	2383
466.439	2359
466.449	2337
466.506	3476
466.528	3940
466.573	4991
466.607	5696
466.641	7593
466.687	10255
466.708	11280
466.766	14140
466.775	13246
466.842	6369
466.845	6029
466.909	3659
466.925	3104
466.977	3001
467.004	2982
467.044	3431
467.083	3873
467.111	3802
467.163	3656
467.178	3745
467.242	4076
467.245	4084
467.312	4113
467.321	4112
467.379	3729
467.400	3577
467.446	4074
467.480	4426
467.559	4423
467.638	3336
467.717	3979
467.796	4909
467.875	6778
467.955	4323
468.034	5645
468.113	11272
468.192	16013
468.271	7151
468.350	6370
468.429	10084
468.508	11837
468.588	8264
468.667	4904
468.746	4513
468.825	4404
468.904	3822
468.983	3480
469.062	6095
469.141	7742
469.220	2994
469.299	3430
469.378	3874
469.456	3800
469.535	4291
469.614	3849
469.693	3655
469.772	4687
469.851	6299
469.930	4883
470.009	4497
470.088	4933
470.166	8786
470.245	17827
470.324	22511
470.403	11379
470.482	5963
470.560	5269
470.639	4497
470.718	6766
470.797	4188
470.875	4751
470.954	6999
471.033	6008
471.111	3575
471.190	3393
471.269	3134
471.347	3228
471.426	3200
471.505	3827
471.583	3965
471.662	3859
471.740	4155
471.819	3221
471.898	3944
471.976	3289
472.055	3357
472.133	3366
472.212	4571
472.290	3829
472.369	3425
472.447	3098
472.526	2484
472.604	4303
472.683	4616
472.761	4493
472.839	4661
472.918	3961
472.996	4083
473.075	3922
473.153	4202
473.231	3034
473.310	4722
473.388	4350
473.466	4357
473.545	5183
473.623	7772
473.701	7159
473.780	4785
473.858	3041
473.936	4847
474.014	3521
474.093	3804
474.171	4260
474.249	5542
474.327	4883
474.405	3621
474.484	3804
474.562	3753
474.640	2684
474.718	3649
474.796	2898
474.874	3956
474.952	3082
475.030	3587
475.108	3833
475.187	3686
475.265	5232
475.343	9751
475.421	11583
475.499	3501
475.577	3628
475.655	4823
475.733	6611
475.811	9814
475.889	8764
475.966	6820
476.044	3368
476.122	6548
476.200	8743
476.278	6857
476.356	3418
476.434	3358
476.512	5770
476.590	9309
476.667	6864
476.745	3444
476.823	3080
476.901	2639
476.979	2172
477.056	2751
477.134	2358
477.212	3346
477.290	3594
477.367	2539
477.445	2693
477.523	2311
477.601	3030
477.678	3320
477.756	2875
477.834	3259
477.911	2140
477.989	2056
478.066	2489
478.144	3162
478.222	5430
478.299	12062
478.377	11295
478.454	3057
478.532	2566
478.609	2852
478.687	4297
478.764	2920
478.842	3100
478.919	4353
478.997	3880
479.074	2384
479.152	2632
479.229	3414
479.307	2076
479.384	3476
479.461	2437
479.539	2320
479.616	2325
479.694	3130
479.771	3453
479.848	1863
479.926	1879
480.003	4778
480.080	2684
480.157	2510
480.235	2213
480.312	2828
480.389	2847
480.467	4487
480.544	4785
480.621	3347
480.698	3485
480.775	4367
480.853	3448
480.930	2699
481.007	2357
481.084	2435
481.161	2698
481.238	3309
481.315	1998
481.392	2486
481.470	2364
481.547	2063
481.624	2544
481.701	2648
481.778	2584
481.855	2606
481.932	4190
482.009	6211
482.086	5132
482.163	4719
482.240	9740
482.317	18253
482.393	12637
482.470	3331
482.547	3824
482.624	3449
482.701	4391
482.778	3984
482.855	2056
482.932	3309
483.009	2774
483.085	4221
483.162	5206
483.239	6116
483.316	3565
483.393	4677
483.469	4460
483.546	3823
483.623	3279
483.699	3012
483.776	1937
483.853	3384
483.930	3340
484.006	7288
484.083	13597
484.160	6132
484.236	8156
484.313	7007
484.389	5191
484.466	5637
484.543	5512
484.619	6137
484.696	8341
484.772	6590
484.849	6182
484.925	4937
485.002	4085
485.078	6494
485.155	6457
485.231	4195
485.308	3759
485.384	3787
485.461	4375
485.537	8148
485.614	9857
485.690	4446
485.766	4494
485.843	6005
485.919	11211
485.995	13027
486.072	4802
486.148	3338
486.224	4360
486.301	4839
486.377	5845
486.453	7659
486.530	5104
486.606	5927
486.682	5790
486.758	7477
486.835	8277
486.911	7359
486.987	12928
487.063	23859
487.139	37305
487.215	23762
487.292	8733
487.368	7082
487.444	8691
487.520	15465
487.596	15628
487.672	28030
487.748	100188
487.824	158910
487.900	42876
487.976	11878
488.052	10168
488.128	13936
488.204	9626
488.280	6297
488.356	5398
488.432	9654
488.508	15099
488.584	7050
488.660	5420
488.736	5369
488.812	6775
488.888	9035
488.964	12423
489.039	34564
489.115	59838
489.191	32149
489.267	5773
489.343	4446
489.418	4530
489.494	3645
489.570	3081
489.646	5571
489.722	4059
489.797	4251
489.873	5033
489.949	10264
490.024	9021
490.100	4553
490.176	2635
490.251	6797
490.327	10613
490.403	5225
490.478	3802
490.554	3338
490.629	3743
490.705	3602
490.781	4258
490.856	3867
490.932	4686
491.007	5799
491.083	4450
491.158	3559
491.234	5222
491.309	7846
491.385	7709
491.460	3437
491.536	4589
491.611	4182
491.686	5985
491.762	8465
491.837	22546
491.913	37031
491.988	52727
492.063	73985
492.139	13058
492.214	5458
492.289	4271
492.365	3617
492.440	4599
492.515	3969
492.590	3583
492.666	3454
492.741	3618
492.816	5354
492.891	3728
492.967	3633
493.042	3627
493.117	1880
493.192	3138
493.267	4406
493.342	5703
493.418	6001
493.493	3023
493.568	2721
493.643	2795
493.718	3840
493.793	6436
493.868	9098
493.943	5737
494.018	4234
494.093	2690
494.168	3213
494.243	2257
494.318	2144
494.393	2546
494.468	2210
494.543	2657
494.618	3306
494.693	3144
494.768	2115
494.842	2820
494.917	2162
494.992	2858
495.067	2580
495.142	3246
495.217	4095
495.292	2867
495.366	4362
495.441	5324
495.516	9568
495.591	11874
495.665	48627
495.740	132373
495.815	49285
495.890	4480
495.964	2525
496.039	5438
496.114	2620
496.188	3524
496.263	3041
496.338	3411
496.412	2943
496.487	3451
496.561	6087
496.636	5994
496.710	3175
496.785	4495
496.860	3940
496.934	3036
497.009	4429
497.083	2990
497.158	3268
497.232	4315
497.307	5976
497.381	3436
497.455	3828
497.530	5500
497.604	3915
497.679	4482
497.753	6889
497.827	8442
497.902	7624
497.976	9220
498.050	19528
498.125	81327
498.199	88317
498.273	16648
498.348	12165
498.422	8483
498.496	8605
498.570	8874
498.645	4611
498.719	3871
498.793	6093
498.867	8687
498.941	10517
499.016	28707
499.090	86032
499.164	30037
499.238	4792
499.312	4547
499.386	6110
499.460	5464
499.534	4571
499.609	5636
499.683	7207
499.757	6400
499.831	12616
499.905	50045
499.979	50097
500.053	8133
500.127	10832
500.201	11026
500.275	6589
500.349	4891
500.422	5698
500.496	10581
500.570	23587
500.644	36019
500.718	55278
500.792	12903
500.866	4830
500.940	4986
501.013	5040
501.087	4147
501.161	10241
501.235	12039
501.309	15676
501.382	41670
501.456	40871
501.530	9831
501.603	13094
501.677	5730
501.751	3220
501.825	4424
501.898	6235
501.972	14572
502.046	10337
502.119	3665
502.193	8607
502.266	18452
502.340	8936
502.413	7505
502.487	14936
502.561	8551
502.634	3778
502.708	5116
502.781	3624
502.855	3532
502.928	1982
503.002	2840
503.075	2091
503.149	1996
503.222	2251
503.295	2404
503.369	4048
503.442	3007
503.516	11492
503.589	30269
503.662	20178
503.736	7413
503.809	15868
503.882	14778
503.956	21578
504.029	27829
504.102	52629
504.175	83534
504.249	22648
504.322	8321
504.395	5554
504.468	3919
504.542	2953
504.615	2105
504.688	2966
504.761	1525
504.834	4754
504.907	5910
504.980	11647
505.053	3703
505.127	3745
505.200	6452
505.273	3006
505.346	1484
505.419	1840
505.492	2903
505.565	1738
505.638	1820
505.711	1190
505.784	1543
505.857	2030
505.930	2925
506.003	839
506.076	2776
506.149	2169
506.221	1640
506.294	4844
506.367	5419
506.440	21522
506.513	13659
506.586	3945
506.659	1308
506.731	2332
506.804	2554
506.877	5862
506.950	2618
507.022	3263
507.095	1972
507.168	3087
507.241	3437
507.313	2532
507.386	2290
507.459	7537
507.531	3374
507.604	2043
507.677	1977
507.749	821
507.822	4178
507.894	6151
507.967	6713
508.040	2219
508.112	2922
508.185	3723
508.257	1499
508.330	6454
508.402	3104
508.475	1685
508.547	3073
508.620	2636
508.692	4073
508.765	2762
508.837	1377
508.909	1945
508.982	1924
509.054	3019
509.127	1995
509.199	1178
509.271	285
509.344	1366
509.416	928
509.488	1801
509.560	2461
509.633	1824
509.705	3178
509.777	1175
509.849	5481
509.922	2385
509.994	1618
510.066	2255
510.138	296
510.210	4307
510.283	2039
510.355	2398
510.427	2246
510.499	1537
510.571	2011
510.643	2337
510.715	7393
510.787	4375
510.859	3197
510.931	2386
511.003	5045
511.076	5741
511.148	1434
511.219	405
511.291	2864
511.363	3949
511.435	2542
511.507	566
511.579	1814
511.651	2789
511.723	742
511.795	1148
511.867	1459
511.939	2663
512.010	4090
512.082	3703
512.154	2004
512.226	2646
512.298	3703
512.369	5723
512.441	3591
512.513	6022
512.585	1967
512.656	3401
512.728	3391
512.800	2179
512.871	2942
512.943	2260
513.015	1326
513.086	2811
513.158	3808
513.230	3948
513.301	6401
513.373	9935
513.444	3203
513.516	2614
513.588	2041
513.659	3831
513.731	5028
513.802	3969
513.874	11509
513.945	23502
514.016	5256
514.088	3702
514.159	2159
514.231	5949
514.302	5320
514.374	3939
514.445	888
514.516	6020
514.588	3060
514.659	2340
514.730	3075
514.802	5827
514.873	1811
514.944	5070
515.016	3228
515.087	4556
515.158	3631
515.229	5867
515.301	1979
515.372	2941
515.443	1753
515.514	2101
515.585	1738
515.656	3264
515.728	3098
515.799	2616
515.870	3449
515.941	4533
516.012	2670
516.083	4873
516.154	5598
516.225	11687
516.296	10664
516.367	9102
516.438	12958
516.509	17444
516.580	26104
516.651	83490
516.722	339980
516.793	134532
516.864	24630
516.935	23621
517.006	29075
517.077	38795
517.148	84074
517.219	372202
517.289	597278
517.360	86435
517.431	22744
517.502	9886
517.573	8505
517.643	7999
517.714	8134
517.785	9320
517.856	10702
517.926	15655
517.997	21506
518.068	30437
518.138	44015
518.209	63179
518.280	222111
518.350	918801
518.421	324565
518.492	40168
518.562	18362
518.633	17616
518.703	15746
518.774	31902
518.845	92154
518.915	94830
518.986	23265
519.056	14223
519.127	20003
519.197	24880
519.268	33063
519.338	18466
519.408	5962
519.479	11696
519.549	7795
519.620	5916
519.690	3267
519.760	3248
519.831	3253
519.901	3063
519.971	2933
520.042	2454
520.112	2530
520.182	5544
520.253	6411
520.323	2047
520.393	2243
520.463	5893
520.534	712
520.604	7366
520.674	3736
520.744	2924
520.814	6909
520.885	8210
520.955	7429
521.025	25470
521.095	10238
521.165	3649
521.235	2050
521.305	2412
521.375	2406
521.445	3785
521.515	5432
521.585	6640
521.655	4874
521.725	4660
521.795	3300
521.865	450
521.935	4424
522.005	1897
522.075	1116
522.145	3146
522.215	1526
522.285	3395
522.355	4274
522.424	8991
522.494	6498
522.564	6312
522.634	15151
522.704	54977
522.774	18649
522.843	4751
522.913	3182
522.983	5382
523.053	2833
523.122	4647
523.192	5180
523.262	28747
523.331	27369
523.401	4603
523.471	2465
523.540	2648
523.610	1763
523.680	1557
523.749	1902
523.819	2282
523.888	1777
523.958	2042
524.027	1856
524.097	1671
524.166	1695
524.236	2446
524.305	3660
524.375	941
524.444	752
524.514	3430
524.583	2169
524.653	1812
524.722	3301
524.791	955
524.861	3153
524.930	1002
524.999	1873
525.069	4170
525.138	2073
525.207	2725
525.277	2257
525.346	2738
525.415	2895
525.484	3017
525.554	3217
525.623	5147
525.692	4648
525.761	4979
525.830	7794
525.900	10955
525.969	15841
526.038	28433
526.107	53297
526.176	185071
526.245	151284
526.314	44717
526.383	88668
526.452	125202
526.522	202285
526.591	205126
526.660	49682
526.729	28257
526.797	29060
526.867	47374
526.935	194849
527.004	432763
527.073	245362
527.142	23389
527.211	10258
527.280	8303
527.349	7140
527.418	2614
527.487	4499
527.555	1816
527.624	2489
527.693	1509
527.762	3156
527.831	797
527.899	1932
527.968	2273
528.037	237
528.106	3569
528.174	8253
528.243	5493
528.312	5695
528.380	11013
528.449	1719
528.518	3210
528.586	603
528.655	1715
528.723	1518
528.792	966
528.861	1064
528.929	427
528.998	1559
529.066	905
529.135	704
529.203	1827
529.272	385
529.340	1945
529.409	2418
529.477	102
529.545	-457
529.614	3074
529.682	215
529.751	1841
529.819	4233
529.887	2289
529.956	1073
530.024	1910
530.092	481
530.161	3475
530.229	5825
530.297	1564
530.365	2256
530.434	1444
530.502	1062
530.570	2676
530.638	-90
530.707	1485
530.775	2937
530.843	924
530.911	724
530.979	1932
531.047	1265
531.115	1275
531.183	1604
531.252	2401
531.320	1386
531.388	599
531.456	2629
531.524	-24
531.592	2799
531.660	3563
531.728	270
531.796	934
531.864	2556
531.932	1666
532.000	1413
532.067	1761
532.135	3013
532.203	4276
532.271	2734
532.339	7029
532.407	22798
532.475	13258
532.542	6626
532.610	5922
532.678	6295
532.746	35103
532.814	101276
532.881	22982
532.949	4237
533.017	3053
533.084	2107
533.152	1417
533.220	1907
533.287	2186
533.355	1840
533.423	2467
533.490	1566
533.558	1614
533.625	1636
533.693	1756
533.761	2608
533.828	3413
533.896	1925
533.963	6643
534.031	8326
534.098	13045
534.166	4858
534.233	1834
534.300	4067
534.368	3956
534.435	2779
534.503	3758
534.570	4628
534.637	5077
534.705	7193
534.772	8480
534.840	13578
534.907	77439
534.974	106231
535.041	11467
535.109	4682
535.176	2809
535.243	3513
535.310	3532
535.378	1814
535.445	2518
535.512	3300
535.579	2633
535.646	1916
535.714	2217
535.781	2949
535.848	2277
535.915	2514
535.982	1440
536.049	2059
536.116	4099
536.183	2064
536.250	3165
536.317	2992
536.384	4323
536.451	7692
536.518	7742
536.585	2824
536.652	6273
536.719	10149
536.786	6279
536.853	4222
536.920	7888
536.987	14239
537.053	11732
537.120	47877
537.187	42396
537.254	4911
537.321	3234
537.388	3722
537.454	1330
537.521	3223
537.588	1582
537.654	3693
537.721	3663
537.788	4278
537.855	2196
537.921	3778
537.988	2827
538.055	3590
538.121	2686
538.188	3686
538.254	6180
538.321	15150
538.388	8192
538.454	3755
538.521	3743
538.587	2852
538.654	3300
538.720	2312
538.787	2706
538.853	2771
538.920	3796
538.986	3926
539.053	2367
539.119	3234
539.185	3199
539.252	5281
539.318	7664
539.385	6174
539.451	3676
539.517	4073
539.583	5421
539.650	9786
539.716	34895
539.782	9951
539.849	3529
539.915	4004
539.981	3632
540.047	5103
540.114	4702
540.180	4800
540.246	3375
540.312	6294
540.378	13679
540.444	14323
540.510	11859
540.576	41555
540.643	11184
540.709	2625
540.775	3095
540.841	2850
540.907	4160
540.973	5414
541.039	6608
541.105	8057
541.171	3141
541.237	2751
541.303	4358
541.369	5406
541.435	6388
541.500	12569
541.566	7133
541.632	2127
541.698	3383
541.764	3527
541.830	3108
541.896	1753
541.961	3790
542.027	2821
542.093	4088
542.159	3757
542.224	3327
542.290	6037
542.356	11618
542.421	15492
542.487	6677
542.553	3476
542.618	3560
542.684	3434
542.750	4268
542.815	5496
542.881	7910
542.947	32726
543.012	25744
543.078	3646
543.143	2957
543.209	4145
543.274	3416
543.340	4883
543.405	11994
543.471	19746
543.536	5050
543.602	3684
543.667	2159
543.732	3686
543.798	2042
543.863	2830
543.928	2953
543.994	2907
544.059	2999
544.124	4256
544.190	2227
544.255	3799
544.320	4933
544.386	3631
544.451	6753
544.516	6815
544.581	6324
544.646	18916
544.712	33869
544.777	5507
544.842	4172
544.907	3289
544.972	3836
545.037	3323
545.102	3448
545.168	3685
545.233	4865
545.298	5110
545.363	4770
545.428	5122
545.493	12782
545.558	28580
545.623	10671
545.688	4243
545.753	4880
545.818	4169
545.883	4749
545.947	3553
546.012	5120
546.077	4306
546.142	6021
546.207	5074
546.272	7763
546.337	8683
546.401	6816
546.466	5746
546.531	5072
546.596	6988
546.661	7739
546.725	7363
546.790	6846
546.855	7450
546.919	7053
546.984	9055
547.049	9846
547.113	12210
547.178	11981
547.243	14007
547.307	17095
547.372	19170
547.436	18586
547.501	19340
547.565	21419
547.630	21795
547.695	19440
547.759	18077
547.823	17627
547.888	18836
547.952	18920
548.017	19127
548.081	20570
548.146	21258
548.210	20237
548.274	21094
548.339	20883
548.403	19984
548.468	18381
548.532	18200
548.596	17883
548.660	18076
548.725	21352
548.789	23354
548.853	23626
548.917	20384
548.982	20296
549.046	18512
549.110	16233
549.174	17981
549.238	19401
549.303	20941
549.367	23496
549.431	21229
549.495	19611
549.559	18969
549.623	24095
549.687	25255
549.751	29328
549.815	29720
549.879	30644
549.943	27900
550.007	30176
550.071	30262
550.135	30199
550.199	25854
550.263	26321
550.327	24719
550.391	23631
550.455	27405
550.519	28192
550.582	31166
550.646	36560
550.710	37673
550.774	34962
550.838	34389
550.901	35849
550.965	39204
551.029	40345
551.093	44059
551.156	49184
551.220	59860
551.284	75966
551.347	52361
551.411	44031
551.475	41185
551.538	38008
551.602	35337
551.666	32982
551.729	30155
551.793	29586
551.856	28915
551.920	28622
551.983	28574
552.047	28450
552.110	28536
552.174	28399
552.237	29510
552.301	28583
552.364	26991
552.428	25597
552.491	28123
552.554	27825
552.618	28446
552.681	30306
552.745	29446
552.808	42536
552.871	54854
552.934	36664
552.998	28695
553.061	27622
553.124	25864
553.187	25940
553.251	25212
553.314	26980
553.377	26727
553.440	27932
553.503	28779
553.567	30026
553.630	28225
553.693	28068
553.756	27695
553.819	27306
553.882	26405
553.945	26173
554.008	26410
554.071	26770
554.134	26352
554.197	25175
554.260	25179
554.323	27117
554.386	25918
554.449	26365
554.512	27657
554.575	24610
554.638	24461
554.701	25483
554.764	25856
554.827	23223
554.889	23350
554.952	21554
555.015	21138
555.078	21828
555.141	22718
555.203	21006
555.266	20936
555.329	22251
555.391	20079
555.454	21116
555.517	20144
555.580	19550
555.642	18316
555.705	18140
555.768	17922
555.830	17779
555.893	17135
555.955	16975
556.018	16765
556.080	16609
556.143	17127
556.206	16493
556.268	16588
556.330	16261
556.393	16002
556.455	15199
556.518	16799
556.580	15989
556.643	14205
556.705	14098
556.767	12708
556.830	14493
556.892	14742
556.955	18962
557.017	15905
557.079	13537
557.142	13379
557.204	13956
557.266	22514
557.328	18634
557.391	11309
557.453	11265
557.515	11691
557.577	12621
557.639	13762
557.701	12665
557.764	11976
557.826	12900
557.888	14951
557.950	16156
558.012	17931
558.074	22822
558.136	49810
558.198	139085
558.260	49069
558.322	17883
558.384	19089
558.446	22724
558.508	27840
558.570	34990
558.632	48752
558.694	67386
558.756	79954
558.818	227582
558.880	568826
558.942	179829
559.003	150826
559.065	77033
559.127	30258
559.189	29919
559.251	33925
559.312	47439
559.374	108486
559.436	381578
559.498	188227
559.559	36265
559.621	30716
559.683	35722
559.744	54477
559.806	174858
559.868	278688
559.929	52814
559.991	32009
560.052	46067
560.114	137331
560.176	89125
560.237	74721
560.299	129850
560.360	28233
560.422	10306
560.483	7906
560.545	7506
560.606	6033
560.667	5416
560.729	5370
560.790	5824
560.852	5443
560.913	6340
560.974	4855
561.036	4986
561.097	5257
561.158	6411
561.220	6221
561.281	5090
561.342	5994
561.403	7242
561.465	8844
561.526	22653
561.587	29031
561.648	8296
561.709	4393
561.771	5544
561.832	5321
561.893	4146
561.954	5164
562.015	4093
562.076	5599
562.137	4944
562.198	4192
562.259	4789
562.320	4932
562.381	5940
562.442	9568
562.503	6575
562.564	4672
562.625	4534
562.686	4382
562.747	6220
562.808	5169
562.869	5334
562.930	3676
562.991	4405
563.051	3577
563.112	4072
563.173	4406
563.234	2732
563.294	4113
563.355	3593
563.416	4194
563.477	3405
563.537	3296
563.598	4217
563.659	3757
563.720	2741
563.780	4016
563.841	4418
563.901	4987
563.962	3723
564.023	2720
564.083	3907
564.144	4518
564.204	3281
564.265	3859
564.325	4657
564.386	5368
564.446	5745
564.507	3078
564.567	3944
564.628	3354
564.688	3580
564.749	3181
564.809	4191
564.869	4270
564.930	3232
564.990	4219
565.050	3248
565.111	3612
565.171	3292
565.231	4101
565.292	3526
565.352	2963
565.412	3975
565.472	3560
565.532	4760
565.593	3109
565.653	3654
565.713	4554
565.773	4637
565.833	5176
565.893	8833
565.953	3862
566.013	3815
566.074	3744
566.134	4174
566.194	5641
566.254	7348
566.314	4243
566.374	3423
566.434	3177
566.494	2982
566.554	3978
566.614	4415
566.673	3162
566.733	4433
566.793	4641
566.853	4338
566.913	4753
566.973	4405
567.033	4717
567.092	5667
567.152	4691
567.212	4584
567.272	4392
567.331	4242
567.391	3214
567.451	4429
567.511	4941
567.570	4549
567.630	4336
567.690	4025
567.749	3404
567.809	4344
567.868	3928
567.928	4603
567.988	4117
568.047	4354
568.107	5197
568.166	5785
568.226	8175
568.285	10545
568.345	8306
568.404	8497
568.464	6631
568.523	6570
568.582	7088
568.642	8210
568.701	9177
568.761	10206
568.820	16606
568.879	14816
568.939	10898
568.998	8845
569.057	6636
569.116	6281
569.176	4998
569.235	4450
569.294	4448
569.353	3915
569.413	4549
569.472	4047
569.531	3300
569.590	3517
569.649	4208
569.708	3981
569.767	4163
569.827	7945
569.886	6600
569.945	3774
570.004	5666
570.063	4305
570.122	4639
570.181	4896
570.240	3757
570.299	5604
570.358	7913
570.417	4732
570.475	3542
570.534	5407
570.593	4708
570.652	5688
570.711	7286
570.770	4538
570.829	4890
570.887	6017
570.946	6658
571.005	4582
571.064	4819
571.122	6416
571.181	5436
571.240	3970
571.299	3014
571.357	4648
571.416	3976
571.475	3827
571.533	4045
571.592	3600
571.650	3964
571.709	4298
571.768	5275
571.826	5313
571.885	3765
571.943	3529
572.002	3140
572.060	4167
572.119	3411
572.177	4230
572.236	3533
572.294	3817
572.352	3733
572.411	4497
572.469	3925
572.528	3764
572.586	4643
572.644	5467
572.703	8753
572.761	5860
572.819	2798
572.877	3017
572.936	3004
572.994	3888
573.052	3716
573.110	4438
573.169	4214
573.227	3507
573.285	3210
573.343	4221
573.401	4327
573.459	3639
573.517	2743
573.576	3985
573.634	3808
573.692	4505
573.750	3323
573.808	3792
573.866	3663
573.924	3693
573.982	4224
574.040	3330
574.098	3854
574.155	3033
574.213	3637
574.271	4351
574.329	3840
574.387	3501
574.445	2245
574.503	2722
574.560	2873
574.618	3478
574.676	3317
574.734	3502
574.792	3629
574.849	2937
574.907	2192
574.965	2321
575.022	1561
575.080	2149
575.138	2469
575.195	3409
575.253	3913
575.311	4014
575.368	3520
575.426	2874
575.483	3486
575.541	3216
575.598	2726
575.656	1927
575.713	3153
575.771	3759
575.828	3755
575.886	2668
575.943	3956
576.001	2308
576.058	1920
576.115	2531
576.173	2453
576.230	4385
576.287	6045
576.345	4740
576.402	3165
576.459	3627
576.517	2369
576.574	3354
576.631	3938
576.688	2146
576.746	2085
576.803	2715
576.860	2143
576.917	3512
576.974	2640
577.031	2478
577.089	2979
577.146	3336
577.203	2990
577.260	3006
577.317	3175
577.374	3888
577.431	2880
577.488	3646
577.545	2135
577.602	2678
577.659	2427
577.716	1693
577.773	2216
577.830	2674
577.886	3048
577.943	2384
578.000	2180
578.057	3922
578.114	2930
578.171	2958
578.227	2020
578.284	2636
578.341	2752
578.398	3827
578.454	3093
578.511	2546
578.568	3242
578.625	2573
578.681	1981
578.738	2338
578.794	2146
578.851	3059
578.908	2784
578.964	2733
579.021	2575
579.077	2804
579.134	2956
579.190	2669
579.247	1887
579.303	1993
579.360	2309
579.416	2539
579.473	2891
579.529	1799
579.586	2359
579.642	2858
579.698	2648
579.755	2369
579.811	2318
579.867	3223
579.924	2670
579.980	1999
580.036	2834
580.093	2425
580.149	2041
580.205	2920
580.261	2787
580.317	2541
580.374	2532
580.430	3467
580.486	2746
580.542	3154
580.598	2675
580.619	2770
580.654	2936
580.692	3035
580.710	3080
580.765	3423
580.767	3432
580.823	2517
580.838	2682
580.879	3101
580.911	2865
580.935	2691
580.984	3060
580.991	3112
581.047	4228
581.057	4004
581.103	2996
581.130	3072
581.159	3160
581.203	3130
581.215	3116
581.270	2859
581.276	2877
581.326	3034
581.349	3054
581.382	3052
581.422	3421
581.438	3565
581.494	2880
581.494	2881
581.550	2866
581.567	2971
581.606	3174
581.640	3723
581.661	4018
581.713	4693
581.717	4753
581.773	3216
581.786	3260
581.829	3374
581.859	3691
581.885	3971
581.932	3980
581.940	3963
581.996	3665
582.004	3683
582.052	3826
582.077	3587
582.107	3294
582.150	3131
582.163	3088
582.219	3948
582.223	3928
582.274	3651
582.296	3976
582.330	4414
582.368	3805
582.386	3623
582.441	4212
582.441	4210
582.497	3526
582.514	3596
582.552	3817
582.587	3862
582.608	3852
582.659	3494
582.663	3472
582.719	4335
582.732	4332
582.774	4321
582.805	4332
582.830	4368
582.877	4322
582.885	4285
582.941	4019
582.950	4139
582.996	4917
583.023	4954
583.052	4906
583.095	5052
583.107	5098
583.162	4276
583.168	4361
583.218	5144
583.240	4954
583.273	4548
583.313	4757
583.328	4950
583.384	4525
583.385	4512
583.439	3755
583.458	3913
583.494	4306
583.531	4236
583.549	4309
583.603	5329
583.605	5357
583.660	5851
583.676	5697
583.715	5109
583.748	5317
583.770	5551
583.820	5299
583.825	5279
583.881	5447
583.893	5346
583.936	5072
583.965	5155
583.991	5096
584.038	5515
584.046	5612
584.101	5792
584.110	5743
584.156	5544
584.183	5461
584.211	5346
584.255	5820
584.266	5985
584.321	6088
584.328	6067
584.376	5775
584.400	5940
584.431	6322
584.472	6279
584.486	6181
584.541	6887
584.545	6889
584.596	7176
584.617	7271
584.651	7534
584.689	7513
584.706	7451
584.761	7308
584.762	7307
584.816	8217
584.834	8417
584.871	8788
584.906	8934
584.926	8931
584.978	9070
584.980	9099
585.035	10132
585.051	10377
585.090	11397
585.123	13025
585.145	13913
585.195	14649
585.200	14803
585.254	18081
585.267	18776
585.309	20761
585.340	22938
585.364	25055
585.412	28842
585.419	29457
585.473	35323
585.484	36785
585.528	46102
585.556	55223
585.583	76708
585.628	125761
585.637	146022
585.692	307988
585.700	338510
585.747	444929
585.772	400536
585.801	261864
585.845	82113
585.856	62380
585.910	30888
585.917	27901
585.965	20891
585.989	18649
586.019	17129
586.061	15119
586.074	14758
586.128	14222
586.133	14234
586.183	14514
586.205	14257
586.237	13805
586.277	12874
586.292	12708
586.346	13236
586.349	13209
586.401	13032
586.421	13163
586.455	13510
586.493	13526
586.509	13894
586.564	15236
586.565	15273
586.618	19080
586.637	19819
586.672	19862
586.709	19431
586.727	19646
586.781	21551
586.781	21580
586.835	16982
586.853	15719
586.889	14673
586.925	13857
586.944	13767
586.996	13630
586.998	13680
587.052	15010
587.068	15046
587.106	14465
587.140	14246
587.161	14507
587.212	15384
587.215	15437
587.269	15778
587.284	15632
587.323	15910
587.356	16238
587.377	16322
587.427	17327
587.431	17459
587.485	17818
587.499	17788
587.539	17804
587.571	18377
587.593	19121
587.643	20032
587.648	20106
587.702	20232
587.715	20249
587.755	20809
587.786	21245
587.810	21342
587.858	21099
587.864	21296
587.917	23257
587.930	23700
587.971	24854
588.001	25303
588.025	25693
588.073	26100
588.079	26453
588.133	29574
588.145	30212
588.187	32162
588.217	33615
588.241	35494
588.288	39211
588.295	39856
588.348	44703
588.360	45650
588.402	50244
588.431	53836
588.456	57798
588.503	65526
588.510	66922
588.564	78188
588.575	80450
588.617	91648
588.646	99989
588.671	110669
588.718	131933
588.725	138999
588.778	197689
588.789	211473
588.832	354583
588.861	461622
588.886	643590
588.932	1015588
588.939	1042329
588.993	1191356
589.004	1195498
589.047	801663
589.075	533437
589.100	402510
589.147	196520
589.154	188911
589.207	141813
589.218	132689
589.261	126300
589.290	123015
589.314	128623
589.361	141917
589.368	150625
589.421	225974
589.433	244034
589.475	446680
589.504	599710
589.528	759676
589.576	1072803
589.582	1044316
589.635	666377
589.647	580164
589.689	315412
589.718	149772
589.742	123054
589.790	76651
589.795	74911
589.849	59031
589.861	55501
589.902	50596
589.932	46849
589.955	44388
590.004	39079
590.009	38917
590.062	36298
590.075	35508
590.115	34215
590.146	33199
590.168	32788
590.218	31334
590.222	31332
590.275	30182
590.289	29808
590.328	29972
590.360	29843
590.381	30022
590.431	30078
590.435	30114
590.488	29076
590.503	28683
590.541	29051
590.574	29206
590.594	29631
590.645	30382
590.647	30475
590.700	30008
590.716	29733
590.753	30130
590.787	30361
590.806	30604
590.859	31058
590.859	31177
590.912	31418
590.930	31408
590.965	31615
591.001	31507
591.018	31413
591.071	30872
591.072	30751
591.124	30880
591.143	30803
591.177	31647
591.214	32126
591.230	32345
591.283	32941
591.285	32838
591.336	32590
591.356	32376
591.389	32844
591.427	33031
591.442	32885
591.495	31820
591.498	31626
591.547	31426
591.569	31183
591.600	31529
591.640	31759
591.653	32014
591.706	32464
591.711	32393
591.759	33002
591.782	33138
591.811	34692
591.853	36658
591.864	36581
591.917	35359
591.924	35060
591.969	35452
591.995	35390
592.022	35468
592.066	35367
592.075	35741
592.127	37172
592.137	37281
592.180	38251
592.208	38678
592.233	38583
592.279	37903
592.285	38104
592.338	38620
592.350	38581
592.390	38751
592.421	38622
592.443	38929
592.491	39134
592.495	39333
592.548	39984
592.562	40012
592.600	39653
592.633	39055
592.653	39087
592.704	38569
592.705	38838
592.775	41204
592.846	40540
592.916	42119
592.987	42596
593.058	43428
593.128	41685
593.199	43388
593.270	42691
593.341	43368
593.411	44568
593.482	45849
593.553	46440
593.623	46475
593.694	49199
593.764	48844
593.835	47220
593.906	49766
593.976	49626
594.047	51180
594.117	54370
594.188	54674
594.258	53199
594.329	53473
594.399	54008
594.470	55933
594.540	57852
594.611	58472
594.681	58678
594.751	58390
594.822	61993
594.892	64111
594.963	64744
595.033	67180
595.103	67712
595.174	68769
595.244	71318
595.314	77088
595.384	74029
595.455	75483
595.525	78786
595.595	79776
595.665	80848
595.736	78288
595.806	80667
595.876	81361
595.946	80948
596.016	84258
596.087	88537
596.157	87694
596.227	89001
596.297	91748
596.367	98417
596.437	105061
596.507	105070
596.577	106349
596.647	107835
596.717	113173
596.787	113768
596.857	111700
596.927	114566
596.997	115615
597.067	115992
597.137	118929
597.207	118951
597.277	120348
597.347	117319
597.417	112235
597.487	111842
597.557	114873
597.626	119228
597.696	120696
597.766	119687
597.836	114329
597.906	105617
597.975	103732
598.045	105244
598.115	109464
598.185	116836
598.254	132377
598.324	144451
598.394	147685
598.464	142275
598.533	139941
598.603	130652
598.672	127877
598.742	129072
598.812	128068
598.881	133768
598.951	133528
599.020	133678
599.090	138748
599.159	143049
599.229	136286
599.299	131150
599.368	136751
599.437	135659
599.507	123553
599.576	118193
599.646	117573
599.715	116642
599.785	115369
599.854	113751
599.924	110711
599.993	109884
600.062	112972
600.132	115615
600.201	122508
600.270	143587
600.340	151926
600.409	147617
600.478	146772
600.547	151362
600.617	136606
600.686	109701
600.755	98962
600.824	95004
600.894	92190
600.963	92187
601.032	91379
601.101	88202
601.170	85610
601.239	83775
601.308	83034
601.378	82852
601.447	83651
601.516	85141
601.585	86809
601.654	90780
601.723	87822
601.792	89417
601.861	91813
601.930	97437
601.999	99303
602.068	97406
602.137	102263
602.206	103135
602.275	102432
602.343	104698
602.412	105709
602.481	103785
602.550	104583
602.619	107242
602.688	109549
602.756	111586
602.825	110746
602.894	113602
602.963	115376
603.032	117777
603.100	117313
603.169	116769
603.238	117891
603.307	119606
603.375	120857
603.444	123107
603.513	122964
603.581	127597
603.650	129704
603.719	125208
603.787	126252
603.856	130061
603.924	135064
603.993	140359
604.061	143163
604.130	149283
604.198	152222
604.267	156591
604.335	159908
604.404	161607
604.472	162870
604.541	165627
604.609	167861
604.678	168157
604.746	168044
604.815	176683
604.883	177202
604.951	176008
605.020	180164
605.088	179644
605.156	184189
605.225	186782
605.293	186581
605.361	186407
605.429	189260
605.498	194427
605.566	198606
605.634	208279
605.702	215491
605.771	223174
605.839	221743
605.907	217735
605.975	209155
606.043	206045
606.111	205696
606.180	205441
606.248	201849
606.316	199664
606.384	200541
606.452	202030
606.520	208717
606.588	210942
606.656	211641
606.724	208246
606.792	194693
606.860	175728
606.928	156900
606.996	152296
607.064	148123
607.132	152795
607.200	162444
607.267	169470
607.335	172002
607.403	175330
607.471	169953
607.539	163188
607.607	167691
607.674	145880
607.742	147280
607.810	146278
607.878	146046
607.946	147845
608.013	154725
608.081	160033
608.149	161009
608.216	165087
608.284	171669
608.352	170879
608.419	169594
608.487	166033
608.555	161801
608.622	166635
608.690	177388
608.757	197463
608.825	203803
608.893	198488
608.960	190093
609.028	185016
609.095	176549
609.163	174287
609.230	156066
609.298	141341
609.365	149560
609.432	162345
609.500	177755
609.567	202313
609.635	235416
609.702	251108
609.769	238118
609.837	183838
609.904	153905
609.971	157582
610.039	174732
610.106	223575
610.173	415939
610.241	951946
610.308	533890
610.375	197298
610.442	169250
610.509	158841
610.577	160123
610.644	163160
610.711	167604
610.778	173772
610.845	180013
610.912	193177
610.980	201260
611.047	201761
611.114	199995
611.181	191937
611.248	188335
611.315	200672
611.382	205599
611.449	213358
611.516	216580
611.583	213422
611.650	214305
611.717	217342
611.784	222409
611.851	229809
611.918	246038
611.984	280341
612.051	377755
612.118	720442
612.185	1690049
612.252	1084035
612.319	333787
612.386	283317
612.452	258656
612.519	247458
612.586	241356
612.653	247247
612.719	256428
612.786	246453
612.853	226186
612.919	220081
612.986	225270
613.053	211577
613.120	198929
613.186	187900
613.253	191527
613.319	191180
613.386	192350
613.453	197128
613.519	201866
613.586	200968
613.652	209644
613.719	202010
613.785	200461
613.852	200208
613.918	196345
613.985	197525
614.051	208779
614.118	203617
614.184	196790
614.250	196949
614.317	201561
614.383	199087
614.449	203115
614.516	200129
614.582	202026
614.648	199390
614.715	195728
614.781	193549
614.847	190252
614.914	191493
614.980	184612
615.046	184772
615.112	189852
615.179	190608
615.245	194439
615.311	191774
615.377	194937
615.443	198004
615.509	197895
615.575	203148
615.642	201989
615.708	204088
615.774	214692
615.840	225651
615.906	235662
615.972	282604
616.038	415155
616.104	845207
616.170	1878349
616.236	1608919
616.302	445086
616.368	345831
616.434	253485
616.500	235556
616.565	260423
616.631	326074
616.697	262609
616.763	269994
616.829	403291
616.895	721845
616.961	666799
617.026	278549
617.092	206931
617.158	195525
617.224	195540
617.289	178786
617.355	170752
617.421	168612
617.487	166072
617.552	159611
617.618	156293
617.684	158120
617.749	159885
617.815	151338
617.880	147430
617.946	147976
618.012	150718
618.077	153117
618.143	147439
618.208	148183
618.274	161479
618.339	164040
618.405	131441
618.470	129364
618.536	129962
618.601	128776
618.667	119179
618.732	112429
618.798	110481
618.863	110176
618.928	109842
618.994	110681
619.059	112641
619.124	120592
619.190	111512
619.255	108185
619.320	108966
619.386	108893
619.451	107076
619.516	103679
619.581	104913
619.647	108611
619.712	109608
619.777	103085
619.842	104064
619.907	108471
619.972	109074
620.038	108815
620.103	104119
620.168	103541
620.233	105673
620.298	105715
620.363	107427
620.428	111016
620.493	113205
620.558	113836
620.623	115829
620.688	115108
620.753	114220
620.818	117909
620.883	119059
620.948	118557
621.013	116770
621.078	113643
621.143	115821
621.207	119020
621.272	116835
621.337	113351
621.402	111221
621.467	110775
621.532	110130
621.596	112805
621.661	106506
621.726	104796
621.791	105540
621.855	107389
621.920	106610
621.985	107275
622.049	110391
622.114	109711
622.179	112334
622.243	113590
622.308	118311
622.373	123739
622.437	121983
622.502	113710
622.566	112188
622.631	110304
622.695	114696
622.760	111820
622.824	112723
622.889	113748
622.953	115593
623.018	132452
623.082	135165
623.147	120882
623.211	118253
623.276	119279
623.340	112040
623.404	109415
623.469	108758
623.533	109967
623.597	107353
623.662	105491
623.726	99886
623.790	92505
623.854	87879
623.919	91253
623.983	93137
624.047	94307
624.111	95328
624.176	98408
624.240	103175
624.304	108304
624.368	96887
624.432	98227
624.496	101637
624.560	107809
624.625	111669
624.689	106896
624.753	112596
624.817	106908
624.881	103121
624.945	92587
625.009	88746
625.073	91257
625.137	97069
625.201	105346
625.265	104556
625.329	96641
625.393	97914
625.456	98132
625.520	101181
625.584	104499
625.648	108192
625.712	112906
625.776	123599
625.839	121804
625.903	91403
625.967	79008
626.031	89038
626.095	112591
626.158	98057
626.222	72161
626.286	67423
626.349	64477
626.413	59574
626.477	61042
626.540	62148
626.604	60760
626.668	60953
626.731	58234
626.795	60420
626.858	61802
626.922	58322
626.986	58655
627.049	57978
627.113	60441
627.176	60212
627.240	58018
627.303	57785
627.366	56905
627.430	61258
627.493	58356
627.557	57381
627.620	59689
627.684	60660
627.747	61478
627.810	56865
627.874	51707
627.937	47421
628.000	53166
628.064	50241
628.127	43640
628.190	43306
628.253	42413
628.317	40886
628.380	39933
628.443	39786
628.506	39257
628.569	36805
628.632	34220
628.696	34854
628.759	34555
628.822	33326
628.885	31787
628.948	31486
629.011	31297
629.074	31332
629.137	29569
629.200	29220
629.263	31263
629.326	27711
629.389	28967
629.452	28646
629.515	29007
629.578	28842
629.641	31046
629.704	29700
629.767	29175
629.830	26989
629.892	27665
629.955	26956
630.018	29604
630.081	28563
630.144	32646
630.207	27414
630.269	28493
630.332	27167
630.395	26769
630.458	25827
630.520	25547
630.583	26513
630.646	25863
630.708	26248
630.771	25929
630.834	28279
630.896	26634
630.959	27449
631.021	26450
631.084	26277
631.146	26151
631.209	27673
631.272	25773
631.334	27063
631.397	27477
631.459	27998
631.522	29106
631.584	29518
631.646	32274
631.709	32803
631.771	36629
631.834	31398
631.896	30166
631.958	27532
632.021	27502
632.083	25377
632.145	26116
632.208	25456
632.270	26050
632.332	25000
632.395	24917
632.457	27225
632.519	24884
632.581	26191
632.643	25154
632.706	25958
632.768	24292
632.830	25971
632.892	25655
632.954	25563
633.016	26922
633.078	25503
633.141	25865
633.203	25146
633.265	25111
633.327	25015
633.389	26030
633.451	27197
633.513	28046
633.575	28116
633.637	28573
633.698	27500
633.760	27721
633.822	28969
633.884	29218
633.946	29436
634.008	29677
634.070	30096
634.132	31659
634.193	34293
634.255	37707
634.317	38661
634.379	39371
634.441	33234
634.502	29944
634.564	28620
634.626	25734
634.687	24926
634.749	24154
634.811	24498
634.873	23891
634.934	23624
634.996	24448
635.057	23460
635.119	24167
635.181	24974
635.242	25912
635.304	23651
635.365	27918
635.427	24052
635.488	24003
635.550	22838
635.611	24897
635.673	23520
635.734	25908
635.796	27249
635.857	30639
635.918	30721
635.980	35700
636.041	37100
636.102	39910
636.164	40874
636.225	40013
636.286	32430
636.348	30618
636.409	26443
636.470	23843
636.531	23968
636.593	23676
636.654	23310
636.715	21696
636.776	21476
636.838	20404
636.899	21002
636.960	20863
637.021	20579
637.082	20476
637.143	19840
637.204	18597
637.265	18249
637.326	20825
637.387	20339
637.448	18917
637.509	20662
637.570	19805
637.631	20374
637.692	17532
637.753	17632
637.814	18353
637.875	19102
637.936	18991
637.997	17259
638.058	16562
638.119	18594
638.179	18254
638.240	17406
638.301	18239
638.362	17055
638.423	17374
638.483	17335
638.544	14838
638.605	16701
638.666	15373
638.726	16940
638.787	16446
638.848	16725
638.908	15796
638.969	15663
639.030	15134
639.090	14661
639.151	14669
639.211	16586
639.272	18975
639.332	24298
639.393	19432
639.453	16347
639.514	17923
639.574	16484
639.635	14473
639.695	15201
639.756	15444
639.816	15730
639.877	15543
639.937	21681
639.997	25248
640.058	14522
640.118	13529
640.178	14956
640.239	14166
640.299	13873
640.359	13557
640.420	15447
640.480	16598
640.540	19134
640.600	19714
640.661	16063
640.721	15470
640.781	18072
640.841	13667
640.901	15256
640.961	14332
641.021	16110
641.082	16508
641.142	18457
641.202	15302
641.262	12355
641.322	14236
641.382	12957
641.442	13208
641.502	13568
641.562	13476
641.622	13966
641.682	14901
641.742	16775
641.802	16057
641.861	14049
641.921	12859
641.981	14785
642.041	14324
642.101	15352
642.161	12882
642.221	12172
642.280	12140
642.340	12355
642.400	11746
642.460	13017
642.519	13362
642.579	12555
642.639	14103
642.698	10587
642.758	14187
642.818	13042
642.877	12313
642.937	13806
642.997	14451
643.056	17609
643.116	12549
643.175	14058
643.235	13542
643.294	14550
643.354	14517
643.414	16477
643.473	18875
643.532	23568
643.592	33882
643.651	55899
643.711	102216
643.770	206107
643.830	510583
643.889	1097899
643.948	269170
644.008	46085
644.067	27518
644.126	20967
644.186	18556
644.245	15947
644.304	13319
644.363	15896
644.423	12757
644.482	14143
644.541	14469
644.600	12839
644.659	20125
644.719	24403
644.778	38969
644.837	68875
644.896	149269
644.955	365192
645.014	116252
645.073	23759
645.132	17978
645.191	15859
645.250	13917
645.309	16412
645.368	16923
645.427	23943
645.486	40101
645.545	74875
645.604	21896
645.663	14174
645.722	13784
645.781	15258
645.840	17295
645.898	22128
645.957	31646
646.016	51056
646.075	98472
646.134	200798
646.192	546794
646.251	825421
646.310	123675
646.369	33478
646.427	26926
646.486	19575
646.545	16216
646.603	14100
646.662	13496
646.721	11802
646.779	11441
646.838	12806
646.896	17119
646.955	24535
647.014	41255
647.072	79946
647.131	233845
647.189	112364
647.248	16984
647.306	12355
647.365	11430
647.423	8530
647.481	11524
647.540	8263
647.598	9055
647.657	9140
647.715	9523
647.773	8814
647.832	9588
647.890	7414
647.948	8169
648.007	8498
648.065	7497
648.123	7854
648.181	9351
648.240	7808
648.298	7247
648.356	7127
648.414	7858
648.472	8067
648.531	7796
648.589	7290
648.647	6636
648.705	7740
648.763	7503
648.821	8123
648.879	8025
648.937	9588
648.995	11888
649.053	15007
649.111	26276
649.169	46453
649.227	85055
649.285	182052
649.343	551667
649.401	261639
649.459	41995
649.516	24087
649.574	12307
649.632	13482
649.690	14002
649.748	18826
649.806	26059
649.863	54250
649.921	162003
649.979	110232
650.037	13319
650.094	7689
650.152	8309
650.210	6893
650.268	7503
650.325	6154
650.383	6356
650.440	4823
650.498	6610
650.556	5834
650.613	5382
650.671	6084
650.728	6781
650.786	6662
650.843	9594
650.901	6077
650.958	5797
651.016	5557
651.073	5645
651.131	4520
651.188	4407
651.246	4229
651.303	3993
651.360	5464
651.418	5055
651.475	4870
651.532	3996
651.590	4563
651.647	4435
651.704	5036
651.762	4012
651.819	4892
651.876	4239
651.933	4640
651.990	5207
652.048	3506
652.105	3792
652.162	4190
652.219	4627
652.276	4323
652.333	5312
652.390	4131
652.448	4210
652.505	3536
652.562	4691
652.619	4117
652.676	3648
652.733	5307
652.790	3942
652.847	3036
652.904	4447
652.961	3164
653.017	3701
653.074	4925
653.131	4815
653.188	3376
653.245	4427
653.302	4481
653.359	3664
653.415	3933
653.472	3051
653.529	4087
653.586	2746
653.642	2700
653.699	4571
653.756	2930
653.813	3172
653.869	4303
653.926	3488
653.983	3280
654.039	3691
654.096	3466
654.152	4406
654.209	2390
654.266	3463
654.322	2804
654.379	3627
654.435	4523
654.492	4176
654.548	4798
654.605	6894
654.661	5038
654.717	3884
654.774	3259
654.830	3310
654.887	3387
654.943	3460
655.000	3900
655.056	3930
655.112	3066
655.168	2574
655.225	3926
655.281	4344
655.337	3718
655.394	4394
655.450	3829
655.506	4073
655.562	3994
655.618	5053
655.675	2750
655.731	2978
655.787	2797
655.843	3181
655.899	3156
655.955	3536
656.011	3559
656.067	2629
656.123	4003
656.179	3323
656.235	3479
656.291	3089
656.347	4408
656.403	2546
656.459	2928
656.515	3418
656.571	2616
656.627	4276
656.683	3927
656.739	3421
656.795	3116
656.850	3022
656.906	4129
656.962	5088
657.018	3038
657.074	4363
657.129	6410
657.185	10265
657.241	24804
657.297	12921
657.352	4655
657.408	2278
657.464	4538
657.519	2450
657.575	1727
657.630	2689
657.686	2889
657.742	1992
657.797	2906
657.853	1960
657.908	3965
657.964	2645
658.019	2916
658.075	2517
658.130	3488
658.186	2064
658.241	3190
658.297	2878
658.352	2414
658.407	3607
658.463	2103
658.518	2449
658.573	3506
658.629	1932
658.684	1693
658.739	3589
658.795	2011
658.850	2263
658.905	2699
658.960	2519
659.016	2507
659.071	2907
659.126	2685
659.181	3055
659.236	5122
659.291	5266
659.346	3553
659.401	2700
659.457	3307
659.512	2088
659.567	3610
659.622	2503
659.677	2923
659.732	2487
659.787	3421
659.842	2331
659.897	3400
659.952	2881
660.007	2633
660.061	1546
660.116	1626
660.171	1600
660.226	1340
660.281	2520
660.336	1666
660.391	2746
660.445	1637
660.500	2479
660.555	1722
660.610	1628
660.664	2711
660.719	2049
660.774	2402
660.828	2284
660.883	2237
660.938	2345
660.992	2144
661.047	3060
661.101	2199
661.156	1316
661.211	1520
661.265	1384
661.320	2717
661.374	2463
661.429	2142
661.483	3168
661.538	1818
661.592	2052
661.647	2323
661.701	2327
661.755	3076
661.810	2657
661.864	1682
661.919	1931
661.973	2922
662.027	1739
662.081	1896
662.136	2127
662.190	2566
662.244	2703
662.299	2012
662.353	1894
662.407	2506
662.461	2171
662.515	2771
662.569	1841
662.624	2002
662.678	1245
662.732	1547
662.786	1530
662.840	2305
662.894	2687
662.948	1108
663.002	2164
663.056	2027
663.110	1907
663.164	1145
663.218	1993
663.272	1813
663.326	2731
663.380	3069
663.434	3507
663.488	2023
663.542	2318
663.595	1897
663.649	2189
663.703	2165
663.757	2397
663.811	1495
663.864	2226
663.918	1722
663.972	2000
664.026	2084
664.079	1730
664.133	1990
664.187	2011
664.240	1374
664.294	1823
664.348	2005
664.401	2738
664.455	2124
664.508	1272
664.562	1614
664.615	1970
664.669	502
664.722	1607
664.776	1704
664.829	2758
664.883	1637
664.936	1290
664.990	2158
665.043	2241
665.097	1753
665.150	1787
665.203	2348
665.257	2064
665.310	2302
665.363	2433
665.417	2106
665.470	1921
665.523	2148
665.576	2698
665.630	1739
665.683	2583
665.736	2578
665.789	2762
665.842	1520
665.895	2063
665.949	1394
666.002	2002
666.055	1570
666.108	2622
666.161	2478
666.214	2142
666.267	2679
666.320	3695
666.373	2815
666.426	2705
666.479	803
666.532	2433
666.585	2334
666.638	2675
666.691	2013
666.744	2340
666.796	2456
666.849	1991
666.902	2634
666.955	2323
667.008	1665
667.060	1717
667.113	2310
667.166	1856
667.219	2791
667.271	1862
667.324	2064
667.377	2374
667.430	1889
667.482	2113
667.535	1617
667.587	2952
667.640	2664
667.693	2906
667.745	4869
667.798	6104
667.850	1946
667.903	2352
667.955	2589
668.008	2644
668.060	2910
668.113	2183
668.165	2826
668.218	2643
668.270	2229
668.322	2269
668.375	1706
668.427	2382
668.479	1386
668.532	2859
668.584	1681
668.636	2607
668.689	2157
668.741	2583
668.793	2313
668.845	2707
668.898	2481
668.950	2074
669.002	2342
669.054	2231
669.106	1551
669.158	2112
669.211	1898
669.263	1568
669.315	2800
669.367	2073
669.419	1820
669.471	2499
669.523	2673
669.575	2567
669.627	2777
669.679	2391
669.731	2055
669.783	1583
669.835	2792
669.886	2104
669.938	1830
669.990	1476
670.042	1922
670.094	1685
670.146	1983
670.197	2026
670.249	2419
670.301	2384
670.353	3429
670.404	3571
670.456	4968
670.508	8797
670.560	14134
670.611	24971
670.663	44864
670.715	111027
670.766	177612
670.818	40032
670.869	7402
670.921	5296
670.972	4325
671.024	3125
671.075	2711
671.127	2750
671.178	2224
671.230	2521
671.281	3167
671.333	2820
671.384	3926
671.436	4885
671.487	7323
671.538	10850
671.590	17914
671.641	29932
671.692	56673
671.744	116577
671.795	62339
671.846	16783
671.897	8427
671.949	5048
672.000	3993
672.051	3116
672.102	3269
672.153	2359
672.204	2449
672.256	2031
672.307	2575
672.358	2132
672.409	1665
672.460	1882
672.511	2031
672.562	1202
672.613	2125
672.664	2516
672.715	2109
672.766	1849
672.817	1031
672.868	781
672.919	1799
672.970	1304
673.021	1990
673.071	661
673.122	1094
673.173	1739
673.224	1419
673.275	1506
673.326	1173
673.376	1044
673.427	824
673.478	1585
673.528	2512
673.579	861
673.630	1721
673.680	2497
673.731	1101
673.782	551
673.832	1091
673.883	1338
673.934	1461
673.984	1362
674.035	1460
674.085	1887
674.136	1649
674.186	2374
674.237	1684
674.287	2131
674.338	1118
674.388	1410
674.438	752
674.489	1545
674.539	1616
674.589	1752
674.640	1590
674.690	1851
674.740	1336
674.791	875
674.841	1026
674.891	1326
674.942	1372
674.992	1649
675.042	1162
675.092	939
675.142	1464
675.193	1660
675.243	1681
675.293	1078
675.343	937
675.393	1962
675.443	1098
675.493	564
675.543	1607
675.593	1817
675.643	968
675.693	702
675.743	1107
675.793	1731
675.843	794
675.893	581
675.943	1365
675.993	780
676.043	747
676.093	1363
676.142	1042
676.192	519
676.242	677
676.292	734
676.341	340
676.391	530
676.441	411
676.491	69
676.540	120
676.590	477
676.640	309
676.689	101
676.739	496
676.789	823
676.838	532
676.888	653
676.937	406
676.987	314
677.037	504
677.086	-546
677.136	688
677.185	432
677.235	-64
677.284	584
677.333	1012
677.383	134
677.432	-589
677.482	289
677.531	231
677.580	-631
677.630	774
677.679	404
677.728	382
677.778	-215
677.827	855
677.876	148
677.925	-41
677.975	789
678.024	-33
678.073	986
678.122	61
678.171	144
678.220	-76
678.269	1416
678.319	1226
678.368	1372
678.417	864
678.466	1770
678.515	611
678.564	1165
678.613	251
678.662	-84
678.711	943
678.760	343
678.809	69
678.857	619
678.906	621
678.955	22
679.004	986
679.053	0
679.102	279
679.151	317
679.199	-190
679.248	207
679.297	1086
679.346	265
679.394	282
679.443	-22
679.492	1156
679.540	-184
679.589	193
679.638	-1
679.686	195
679.735	1149
679.784	1362
679.832	916
679.881	249
679.929	140
679.978	54
680.026	557
680.075	779
680.123	57
680.172	25
680.220	1013
680.268	460
680.317	438
680.365	1
680.414	-875
680.462	1007
680.510	774
680.559	773
680.607	768
680.655	115
680.703	375
680.752	-933
680.800	-560
680.848	277
680.896	193
680.945	94
680.993	-178
681.041	-498
681.089	290
681.137	-285
681.185	-199
681.233	-86
681.258	-30
681.281	1
681.329	74
681.377	-401
681.380	-345
681.425	311
681.473	270
681.502	178
681.521	70
681.569	677
681.617	-203
681.624	-63
681.665	687
681.713	820
681.745	795
681.761	745
681.809	-149
681.857	997
681.867	1010
681.904	1005
681.952	1085
681.989	621
682.000	443
682.048	321
682.096	186
682.111	440
682.143	929
682.191	483
682.233	1254
682.239	1347
682.286	725
682.334	359
682.354	754
682.382	1251
682.430	1178
682.476	817
682.477	790
682.525	1281
682.572	1498
682.598	1498
682.620	1475
682.667	1219
682.715	1452
682.720	1485
682.763	1641
682.810	1189
682.841	1725
682.857	1939
682.905	1008
682.952	1643
682.963	1704
683.000	1800
683.047	1381
683.085	2374
683.095	2646
683.142	876
683.190	1676
683.206	1635
683.237	1484
683.284	1642
683.328	1655
683.332	1642
683.379	2376
683.426	1522
683.449	1648
683.473	1760
683.521	1731
683.568	1945
683.571	1972
683.615	2135
683.662	2405
683.693	2538
683.709	2535
683.757	2258
683.804	2315
683.814	2322
683.851	2374
683.898	2482
683.936	2822
683.945	2896
683.992	2735
684.039	2830
684.057	2618
684.086	2295
684.133	3154
684.179	3369
684.180	3354
684.227	3024
684.274	3243
684.300	3569
684.321	3785
684.368	2923
684.415	3764
684.422	3660
684.462	2913
684.509	2590
684.543	2497
684.556	2481
684.603	3220
684.649	2945
684.665	2951
684.696	2970
684.743	3313
684.786	3223
684.790	3208
684.837	2960
684.883	3589
684.908	3866
684.930	4064
684.977	3634
685.023	3364
685.029	3390
685.070	3429
685.117	3293
685.150	3345
685.164	3380
685.210	3736
685.257	4637
685.272	4477
685.303	4228
685.350	3992
685.393	4281
685.396	4304
685.443	4506
685.490	5260
685.514	5356
685.536	5103
685.583	4905
685.629	4156
685.636	4120
685.675	4223
685.722	4338
685.757	4502
685.768	4540
685.815	4234
685.861	4562
685.878	4671
685.908	4767
685.954	4117
686.000	4540
686.000	4547
686.047	4745
686.093	4515
686.121	4877
686.139	5004
686.185	4994
686.232	5061
686.242	5104
686.278	5094
686.324	4340
686.363	3955
686.370	3902
686.416	4257
686.463	4576
686.484	4391
686.509	4271
686.555	3844
686.601	4578
686.606	4632
686.647	4992
686.693	4281
686.727	4374
686.739	4421
686.785	4117
686.831	5379
686.848	5140
686.877	4752
686.923	4731
686.969	4935
686.969	4934
687.015	4671
687.061	4733
687.090	4827
687.107	4948
687.153	5167
687.199	4653
687.211	4603
687.245	4417
687.291	4996
687.332	5348
687.336	5387
687.382	5446
687.428	5377
687.453	5270
687.474	5122
687.520	5353
687.565	5548
687.574	5446
687.611	5209
687.657	5425
687.695	5337
687.702	5309
687.748	5723
687.794	5970
687.816	5793
687.839	5642
687.885	5266
687.931	5593
687.937	5653
687.976	5938
688.022	5713
688.058	5675
688.067	5671
688.113	5840
688.158	5675
688.179	5851
688.204	6014
688.249	6045
688.295	6017
688.300	5991
688.340	6088
688.386	5818
688.421	6385
688.431	6479
688.477	6141
688.522	6149
688.542	6096
688.567	6231
688.613	5752
688.658	6323
688.663	6364
688.703	6485
688.749	6478
688.784	6478
688.794	6487
688.839	6467
688.884	6119
688.905	6289
688.930	6429
688.975	5940
689.020	5678
689.026	5733
689.065	6550
689.110	6262
689.146	6170
689.155	6097
689.201	6029
689.246	6039
689.267	6413
689.291	6932
689.336	6278
689.381	6186
689.388	6215
689.426	6359
689.471	6966
689.509	6795
689.516	6739
689.561	6576
689.606	6560
689.630	6495
689.651	6614
689.696	6420
689.741	6870
689.750	6911
689.785	6981
689.830	6598
689.871	6867
689.875	6912
689.920	6868
689.965	7094
689.992	6997
690.010	6828
690.054	6867
690.099	6750
690.112	6660
690.144	6706
690.189	6752
690.233	6343
690.233	6353
690.278	6994
690.323	7080
690.354	7213
690.367	7205
690.412	6914
690.457	6809
690.474	6790
690.501	6945
690.546	6485
690.590	6720
690.595	6703
690.635	6573
690.680	6711
690.716	6610
690.724	6622
690.769	6681
690.813	7286
690.836	7103
690.857	6963
690.902	7066
690.946	7246
690.957	7184
690.991	7216
691.035	7907
691.077	7808
691.080	7810
691.124	8170
691.168	8031
691.198	8439
691.213	8553
691.257	8330
691.301	8271
691.318	8083
691.346	7874
691.390	7709
691.434	7781
691.439	7761
691.478	7892
691.522	8180
691.559	8067
691.567	8120
691.611	8819
691.655	9173
691.680	9434
691.699	9343
691.743	8891
691.787	8630
691.800	8395
691.831	8080
691.875	7985
691.919	8293
691.921	8264
691.964	8004
692.008	8594
692.041	8483
692.052	8443
692.096	8219
692.139	8440
692.162	8324
692.183	8345
692.227	8554
692.271	8461
692.282	8576
692.315	8798
692.359	8247
692.402	8307
692.403	8328
692.447	8399
692.490	8325
692.523	8523
692.534	8650
692.578	8984
692.622	8946
692.643	9047
692.666	8922
692.709	8450
692.753	8248
692.763	8185
692.797	8506
692.840	8669
692.884	8877
692.884	8896
692.928	8827
692.971	8650
693.004	8345
693.015	8325
693.059	8531
693.102	8981
693.124	8943
693.146	8990
693.189	8969
693.233	9145
693.245	9189
693.276	9275
693.320	9562
693.363	9401
693.365	9373
693.407	9023
693.450	8951
693.485	8640
693.493	8676
693.537	9190
693.580	9344
693.605	9503
693.624	9490
693.667	9254
693.710	9087
693.725	9039
693.753	9142
693.797	8968
693.840	9011
693.845	9027
693.883	9328
693.926	9296
693.966	9425
693.970	9458
694.013	9521
694.056	9352
694.086	9401
694.099	9502
694.142	9570
694.185	9657
694.206	9772
694.229	10046
694.272	10380
694.315	10563
694.326	10629
694.358	11171
694.401	12011
694.444	12539
694.446	12541
694.487	12325
694.530	12000
694.566	11885
694.573	11784
694.616	10599
694.659	9847
694.686	9117
694.702	9187
694.745	9668
694.787	9979
694.806	10072
694.830	9987
694.873	9659
694.916	9257
694.926	9300
694.959	10054
695.002	10217
695.044	10769
695.046	10764
695.087	10839
695.130	10720
695.166	10653
695.172	10677
695.215	10648
695.258	10681
695.286	10637
695.301	10586
695.343	10502
695.386	10020
695.406	10025
695.428	10484
695.471	10957
695.514	11543
695.526	11672
695.556	11979
695.599	12431
695.641	12631
695.646	12675
695.684	12569
695.726	11903
695.766	11364
695.769	11359
695.811	10877
695.854	10535
695.886	10171
695.896	10384
695.938	10999
695.981	11864
696.005	12284
696.023	12386
696.065	12601
696.108	12772
696.125	12757
696.150	12676
696.192	12672
696.235	12466
696.245	12444
696.277	12595
696.319	12555
696.361	12555
696.365	12523
696.404	12518
696.446	12504
696.485	12356
696.488	12380
696.530	12257
696.572	12233
696.604	12129
696.614	12193
696.656	12411
696.698	12625
696.724	12666
696.740	12647
696.783	12597
696.825	12516
696.844	12399
696.867	12579
696.909	12895
696.951	13281
696.964	13383
696.992	13297
697.034	12898
697.076	12648
697.083	12579
697.118	13070
697.160	13554
697.202	14028
697.203	14003
697.244	14037
697.286	14107
697.323	13992
697.327	14024
697.369	14112
697.411	14255
697.442	14214
697.453	14222
697.494	14068
697.536	14058
697.562	13924
697.578	14047
697.620	14329
697.661	14635
697.682	14725
697.703	15070
697.744	15728
697.786	16448
697.801	16625
697.828	16880
697.869	17231
697.911	17537
697.921	17587
697.952	16691
697.994	15416
698.035	14099
698.040	13900
698.077	13919
698.118	13938
698.160	13950
698.160	13911
698.201	14315
698.243	14686
698.279	14963
698.284	15038
698.325	15335
698.367	15671
698.399	15862
698.408	15873
698.449	15744
698.491	15616
698.518	15483
698.532	15597
698.573	15799
698.614	16023
698.638	16107
698.656	16160
698.697	16169
698.738	16176
698.757	16138
698.779	16025
698.820	15729
698.862	15420
698.877	15271
698.903	15702
698.944	16303
698.985	16916
698.996	17041
699.026	17019
699.067	16924
699.116	16768
699.235	14485
699.354	14955
699.474	14969
699.593	15106
699.713	16346
699.832	15905
699.951	17129
700.070	16424
700.190	14443
700.309	16121
700.428	14507
700.547	14555
700.667	14353
700.786	15946
700.905	14129
701.024	14328
701.143	14144
701.262	14783
701.381	13587
701.500	15461
701.619	18036
701.738	14334
701.857	13059
701.976	13551
702.095	13424
702.214	15503
702.333	17024
702.452	15226
702.571	14142
702.690	14552
702.809	14031
702.928	13308
703.047	12830
703.165	13540
703.284	12921
703.403	12131
703.522	13819
703.640	13809
703.759	15581
703.878	16528
703.997	12748
704.115	14047
704.234	13004
704.353	13691
704.471	12179
704.590	11927
704.708	11609
704.827	11172
704.946	11706
705.064	12360
705.183	11648
705.301	12120
705.420	13996
705.538	12744
705.656	11729
705.775	10973
705.893	12818
706.012	12423
706.130	11630
706.249	12278
706.367	11795
706.485	12413
706.604	10926
706.722	12102
706.840	14195
706.958	14079
707.077	11939
707.195	11831
707.313	11295
707.431	11557
707.549	10548
707.668	10207
707.786	11383
707.904	11680
708.022	10787
708.140	10754
708.258	11136
708.376	12193
708.494	10761
708.612	12024
708.730	13226
708.848	13080
708.966	13637
709.084	14217
709.202	11989
709.320	10797
709.438	11779
709.556	11863
709.674	11734
709.791	11124
709.909	11021
710.027	10562
710.145	10154
710.263	10856
710.380	11079
710.498	10422
710.616	10649
710.733	11305
710.851	10705
710.969	11514
711.086	10602
711.204	10412
711.322	10730
711.439	10647
711.557	10434
711.674	10403
711.792	10686
711.909	10002
712.027	9861
712.144	10518
712.262	10110
712.379	10759
712.497	11043
712.614	12580
712.732	10779
712.849	10983
712.966	12436
713.084	16140
713.201	12530
713.318	11864
713.436	11186
713.553	12419
713.670	13108
713.787	14043
713.905	12511
714.022	12979
714.139	13571
714.256	20489
714.373	30014
714.490	59770
714.608	169525
714.725	754124
714.842	825035
714.959	61228
715.076	24164
715.193	17770
715.310	14985
715.427	11950
715.544	11683
715.661	12389
715.778	10874
715.895	11986
716.011	12261
716.128	12007
716.245	11471
716.362	15013
716.479	14681
716.596	10567
716.713	10443
716.829	9084
716.946	9030
717.063	8935
717.180	8971
717.296	9220
717.413	8618
717.530	9335
717.646	8873
717.763	8973
717.880	9280
717.996	9264
718.113	9318
718.229	9258
718.346	8425
718.462	9825
718.579	13635
718.695	28113
718.812	15886
718.928	11404
719.045	9161
719.161	9084
719.277	9509
719.394	8917
719.510	9840
719.626	10648
719.743	14234
719.859	24626
719.975	54060
720.092	235250
720.208	595286
720.324	65325
720.440	15222
720.557	12951
720.673	21484
720.789	20320
720.905	24646
721.021	11321
721.137	8624
721.253	8350
721.369	8230
721.486	9049
721.602	10309
721.718	7706
721.834	8088
721.950	8354
722.066	8465
722.181	8131
722.297	8926
722.413	7924
722.529	7283
722.645	8056
722.761	7567
722.877	7597
722.993	8513
723.108	11595
723.224	8948
723.340	8052
723.456	6534
723.571	7083
723.687	6591
723.803	7532
723.918	6754
724.034	6937
724.150	7118
724.265	7624
724.381	10318
724.497	13113
724.612	6968
724.728	6901
724.843	6393
724.959	7401
725.074	11907
725.190	12604
725.305	6412
725.421	6646
725.536	7200
725.651	6576
725.767	6414
725.882	6861
725.997	5850
726.113	7017
726.228	6166
726.343	5424
726.459	5692
726.574	6198
726.689	4953
726.804	5892
726.920	5954
727.035	5767
727.150	6805
727.265	5821
727.380	6071
727.495	6257
727.610	5607
727.725	6167
727.841	5718
727.956	5577
728.071	6909
728.186	6082
728.301	5295
728.416	7235
728.531	6851
728.645	5539
728.760	6134
728.875	8538
728.990	7116
729.105	6956
729.220	8028
729.335	7784
729.449	6563
729.564	5356
729.679	5500
729.794	5859
729.908	6533
730.023	6246
730.138	5271
730.253	6328
730.367	5204
730.482	5446
730.596	5371
730.711	7504
730.826	7893
730.940	6104
731.055	6842
731.169	7162
731.284	6316
731.398	6545
731.513	6980
731.627	7948
731.742	8643
731.856	10532
731.970	10878
732.085	15082
732.199	22115
732.313	41742
732.428	114322
732.542	363586
732.656	220411
732.771	34545
732.885	16961
732.999	13311
733.113	12474
733.227	11238
733.342	9872
733.456	10209
733.570	8697
733.684	8423
733.798	8747
733.912	7907
734.026	7653
734.140	7818
734.254	8473
734.368	10188
734.482	10949
734.596	8157
734.710	8294
734.824	7598
734.938	7387
735.052	7529
735.166	8406
735.280	7603
735.393	7470
735.507	7282
735.621	7534
735.735	10723
735.849	7726
735.962	6451
736.076	7446
736.190	7593
736.303	7893
736.417	9406
736.531	7207
736.644	7145
736.758	6203
736.872	6705
736.985	6892
737.099	7316
737.212	6339
737.326	6741
737.439	6409
737.553	6595
737.666	7013
737.780	6308
737.893	5908
738.007	6630
738.120	6692
738.233	6159
738.347	6401
738.460	7245
738.573	7800
738.687	6497
738.800	7363
738.913	10090
739.026	6759
739.140	6332
739.253	5836
739.366	6312
739.479	5148
739.592	5699
739.705	5849
739.818	5999
739.932	6068
740.045	6350
740.158	6735
740.271	7185
740.384	5948
740.497	6591
740.610	6925
740.723	6497
740.836	6836
740.949	7117
741.062	9284
741.174	8316
741.287	5723
741.400	5318
741.513	6217
741.626	7283
741.739	6541
741.851	6163
741.964	5489
742.077	5589
742.189	6216
742.302	6977
742.415	7218
742.527	5425
742.640	5219
742.753	6199
742.865	4931
742.978	5488
743.090	5281
743.203	5637
743.316	5114
743.428	4874
743.541	4966
743.653	5092
743.766	5123
743.878	5328
743.990	5932
744.103	6532
744.215	5326
744.327	5938
744.440	7463
744.552	11612
744.664	6584
744.777	5860
744.889	4880
745.001	4691
745.113	4399
745.226	5031
745.338	4609
745.450	4765
745.562	4575
745.674	4590
745.786	5083
745.898	5383
746.010	4820
746.122	5610
746.234	4940
746.347	4482
746.459	6033
746.570	4505
746.682	4891
746.794	4720
746.906	3612
747.018	3782
747.130	4385
747.242	4061
747.354	4105
747.466	6519
747.577	4380
747.689	4717
747.801	4705
747.913	4834
748.024	3769
748.136	3623
748.248	4905
748.359	5086
748.471	4381
748.583	4037
748.694	4024
748.806	5234
748.918	5218
749.029	5485
749.141	4610
749.252	5727
749.364	6556
749.475	13597
749.587	6834
749.698	4389
749.809	4478
749.921	3478
750.032	3976
750.144	4098
750.255	3487
750.366	3366
750.478	4171
750.589	4122
750.700	4004
750.811	5237
750.923	6155
751.034	15436
751.145	15047
751.256	4457
751.367	3530
751.479	3807
751.590	3903
751.701	4127
751.812	2758
751.923	4017
752.034	4492
752.145	4183
752.256	3764
752.367	4006
752.478	2936
752.589	3976
752.700	3564
752.811	3544
752.922	3396
753.032	5345
753.143	5849
753.254	3666
753.365	4452
753.476	4600
753.586	3391
753.697	2656
753.808	4323
753.919	2952
754.029	3083
754.140	2603
754.251	3028
754.361	2794
754.472	4028
754.582	4077
754.693	3456
754.804	4126
754.914	2334
755.025	2880
755.135	2795
755.246	4176
755.356	3093
755.466	4011
755.577	2648
755.687	3790
755.798	3000
755.908	3641
756.018	2966
756.129	3494
756.239	2316
756.349	4749
756.460	3356
756.570	5394
756.680	4093
756.790	3351
756.900	5030
757.011	3105
757.121	3621
757.231	3094
757.341	2854
757.451	3714
757.561	3674
757.671	3344
757.781	2414
757.891	3560
758.001	2619
758.111	4491
758.221	4134
758.331	5995
758.441	4953
758.551	7246
758.661	6346
758.771	4925
758.880	3843
758.990	4578
759.100	3641
759.210	4043
759.320	3889
759.429	3498
759.539	4535
759.649	5118
759.758	6102
759.868	6971
759.978	6219
760.087	7108
760.197	6677
760.307	7140
760.416	5158
760.526	5271
760.635	5873
760.745	6298
760.854	6111
760.964	7934
761.073	7922
761.182	7068
761.292	6220
761.401	5994
761.511	3591
761.620	3852
761.729	3744
761.839	3649
761.948	4279
762.057	4315
762.166	3927
762.276	3082
762.385	4064
762.494	3438
762.603	3303
762.712	3667
762.822	2945
762.931	2940
763.040	1810
763.149	3012
763.258	2369
763.367	3895
763.476	2859
763.585	2431
763.694	3129
763.803	3454
763.912	2312
764.021	3460
764.130	2791
764.238	3042
764.347	3086
764.456	3627
764.565	3977
764.674	2685
764.783	2818
764.891	2329
765.000	2244
765.109	3413
765.217	3190
765.326	4185
765.435	3596
765.543	4147
765.652	3620
765.761	3227
765.869	3860
765.978	4800
766.086	6813
766.195	10957
766.303	32528
766.412	135305
766.520	131632
766.629	12546
766.737	5071
766.846	4224
766.954	2722
767.062	4681
767.171	2490
767.279	3796
767.387	2314
767.496	3177
767.604	2882
767.712	3193
767.820	2496
767.928	3741
768.037	1836
768.145	3805
768.253	3088
768.361	2992
768.469	2447
768.577	2737
768.685	3063
768.793	2812
768.901	2916
769.009	3752
769.117	2409
769.225	3276
769.333	2885
769.441	4486
769.549	4999
769.657	10400
769.765	38668
769.873	119045
769.981	27597
770.088	4365
770.196	2912
770.304	3719
770.412	3828
770.519	2685
770.627	3378
770.735	2704
770.842	3237
770.950	4503
771.058	3702
771.165	3543
771.273	3550
771.380	3539
771.488	3858
771.595	4220
771.703	4160
771.810	4321
771.918	3680
772.025	4523
772.133	4617
772.240	5250
772.348	4974
772.455	4731
772.562	3882
772.670	4268
772.777	4170
772.884	5627
772.991	4596
773.099	5036
773.206	4509
773.313	5619
773.420	3621
773.528	4622
773.635	4024
773.742	4823
773.849	4514
773.956	3272
774.063	3526
774.170	4731
774.277	4287
774.384	4453
774.491	3649
774.598	4706
774.705	4794
774.812	5730
774.919	4813
775.026	4352
775.133	4034
775.239	3521
775.346	3677
775.453	4306
775.560	3459
775.667	4641
775.773	3236
775.880	3999
775.987	3412
776.093	4354
776.200	4389
776.307	3066
776.413	3844
776.520	3975
776.627	4086
776.733	3275
776.840	1655
776.946	5297
777.053	4142
777.159	4309
777.266	1932
777.372	4492
777.478	3477
777.585	4352
777.691	3202
777.798	3408
777.904	3859
778.010	6302
778.117	5389
778.223	3524
778.329	3760
778.435	2528
778.542	4679
778.648	3104
778.754	2127
778.860	3800
778.966	3093
779.072	2791
779.178	3059
779.284	3023
779.391	3000
779.497	2868
779.603	4050
779.708	2710
779.815	2777
779.920	3666
780.026	3157
780.132	3305
780.238	2222
780.344	3180
780.450	3996
780.556	2995
780.661	2745
780.767	4619
780.873	2652
780.979	3258
781.085	2154
781.190	3121
781.296	2486
781.402	2764
781.507	2912
781.613	2858
781.719	2922
781.824	2803
781.930	2620
782.035	3186
782.141	3186
782.246	1352
782.352	2210
782.457	3564
782.563	2343
782.668	2695
782.773	2288
782.879	1841
782.984	2524
783.090	3671
783.195	5422
783.300	5329
783.405	2652
783.511	2613
783.616	3125
783.721	2810
783.826	2364
783.932	2722
784.037	2033
784.142	3097
784.247	1879
784.352	2136
784.457	1900
784.562	3412
784.667	2051
784.772	2628
784.877	2048
784.982	2291
785.087	1121
785.192	2922
785.297	1874
785.402	2143
785.507	2504
785.611	2901
785.716	2294
785.821	3333
785.926	1871
786.031	1862
786.135	940
786.240	1891
786.345	1258
786.450	2253
786.554	2400
786.659	1785
786.763	1034
786.868	2721
786.973	3712
787.077	2320
787.182	1469
787.286	1826
787.391	2132
787.495	1306
787.600	2200
787.704	1482
787.809	1819
787.913	2387
788.017	2424
788.122	2591
788.226	2377
788.330	850
788.435	1260
788.539	2432
788.643	1409
788.747	1513
788.852	1434
788.956	1741
789.060	1704
789.164	2709
789.268	1766
789.372	1958
789.476	1689
789.580	2168
789.684	1727
789.788	2409
789.892	1419
789.996	1770
790.100	1394
790.204	2597
790.308	1795
790.412	1640
790.516	1711
790.620	1176
790.724	2114
790.828	2057
790.931	1164
791.035	3015
791.139	1399
791.242	1576
791.346	2766
791.450	2377
791.554	1716
791.657	602
791.761	1719
791.864	2184
791.968	1800
792.072	3122
792.175	1966
792.279	1735
792.382	1664
792.486	2706
792.589	922
792.693	2352
792.796	1201
792.899	2667
793.003	2651
793.106	668
793.209	1747
793.313	3115
793.416	583
793.519	2914
793.623	4366
793.726	8176
793.829	1875
793.932	1870
794.035	1387
794.138	2508
794.242	2133
794.345	1991
794.448	2243
794.551	4685
794.654	5537
794.757	2626
794.860	1854
794.963	2460
795.066	1122
795.169	2567
795.272	1274
795.375	2113
795.477	569
795.580	1584
795.683	590
795.786	1621
795.889	580
795.991	2491
796.094	1802
796.197	1450
796.300	2006
796.402	1421
796.505	1300
796.608	1366
796.710	2098
796.813	2510
796.915	1777
797.018	1903
797.120	1474
797.223	429
797.326	2373
797.428	533
797.530	1203
797.633	2245
797.735	2761
797.838	2094
797.940	2334
798.042	858
798.145	683
798.247	2159
798.349	542
798.452	2144
798.554	1336
798.656	2237
798.758	3067
798.860	1462
798.962	1416
799.065	848
799.167	884
799.269	2527
799.371	3189
799.473	4280
799.575	1769
799.677	2577
799.779	3573
799.881	4468
799.983	3211
800.085	1667
800.187	914
800.289	761
800.390	802
800.492	2039
800.594	1975
800.696	1123
800.798	1438
800.899	1345
801.001	1408
801.103	1602
801.205	884
801.306	1955
801.408	1507
801.509	633
801.611	992
801.713	1590
801.814	57
801.916	880
802.017	1718
802.119	1121
802.220	1447
802.322	148
802.423	2691
802.525	424
802.626	110
802.727	1955
802.829	1465
802.930	361
803.031	2840
803.133	532
803.234	584
803.335	1706
803.436	82
803.538	1365
803.639	476
803.740	2259
803.841	1072
803.942	1099
804.043	1449
804.144	412
804.245	943
804.346	1264
804.447	550
804.548	3062
804.649	3615
804.750	1175
804.851	423
804.952	750
805.053	144
805.154	-23
805.255	1760
805.355	699
805.456	726
805.557	640
805.658	231
805.758	1433
805.859	293
805.960	1335
806.061	976
806.161	547
806.262	445
806.362	1022
806.463	47
806.564	907
806.664	147
806.765	1229
806.865	1550
806.966	997
807.066	208
807.166	1603
807.267	1160
807.367	650
807.468	1241
807.568	333
807.668	924
807.769	1274
807.869	405
807.969	1757
808.069	1136
808.170	1250
808.270	618
808.370	1290
808.470	2839
808.570	1320
808.670	-45
808.770	1278
808.870	200
808.970	1046
809.070	404
809.170	702
809.271	1076
809.370	785
809.470	496
809.570	518
809.670	-403
809.770	1229
809.870	989
809.970	627
810.070	315
810.169	1741
810.269	-193
810.369	1693
810.469	582
810.568	394
810.668	240
810.768	496
810.867	714
810.967	-95
811.066	949
811.166	1243
811.265	1075
811.365	434
811.464	15
811.564	1951
811.663	933
811.763	174
811.862	213
811.962	1343
812.061	800
812.160	490
812.260	-139
812.359	624
812.458	249
812.557	1546
812.657	1038
812.756	995
812.855	414
812.954	1150
813.053	305
813.153	959
813.252	372
813.351	1423
813.450	675
813.549	187
813.648	1013
813.747	46
813.846	394
813.945	883
814.044	447
814.143	680
814.242	1825
814.341	55
814.439	1241
814.538	1726
814.637	868
814.736	701
814.835	1469
814.933	1104
815.032	827
815.131	1860
815.229	3165
815.328	3151
815.427	2075
815.525	2694
815.624	2285
815.722	1665
815.821	1477
815.919	2845
816.018	1708
816.116	3738
816.215	1550
816.313	2858
816.412	2977
816.510	3574
816.609	3898
816.707	4497
816.805	2574
816.904	3498
817.002	4072
817.100	5240
817.198	5191
817.296	3953
817.395	3612
817.493	4450
817.591	3226
817.689	4835
817.787	4729
817.885	6344
817.983	9404
818.081	19054
818.179	43104
818.277	118333
818.375	111730
818.473	27840
818.571	10326
818.669	7914
818.767	6947
818.865	6774
818.963	7335
819.061	10586
819.158	16684
819.256	38982
819.354	91528
819.452	226849
819.549	157677
819.647	37847
819.745	12876
819.842	10611
819.940	7532
820.038	5470
820.135	4256
820.233	5353
820.330	1923
820.428	2785
820.525	4109
820.623	2868
820.720	1958
820.818	2948
820.915	3560
821.012	2782
821.110	946
821.207	3135
821.304	1289
821.402	3347
821.499	2847
821.596	2603
821.693	2376
821.791	3501
821.888	4430
821.985	8322
822.082	6252
822.179	3832
822.276	3056
822.373	1807
822.470	1260
822.567	1893
822.664	1029
822.761	2319
822.858	1050
822.955	2507
823.052	1951
823.149	2468
823.246	2175
823.343	1169
823.440	2274
823.536	1531
823.633	1291
823.730	2424
823.827	1656
823.923	1662
824.020	2286
824.117	1616
824.213	776
824.310	1962
824.407	253
824.503	1641
824.600	1431
824.696	2143
824.793	2321
824.889	1381
824.986	1378
825.082	1352
825.179	1555
825.275	1856
825.371	1321
825.468	2296
825.564	479
825.660	1694
825.757	1369
825.853	2204
825.949	790
826.045	1485
826.142	881
826.238	1394
826.334	1991
826.430	778
826.526	1716
826.622	751
826.718	1702
826.814	1502
826.910	2225
827.006	790
827.102	258
827.198	1271
827.294	807
827.390	1732
827.486	1356
827.582	767
827.678	40
827.774	2797
827.869	658
827.965	2037
828.061	455
828.157	1572
828.252	2148
828.348	1244
828.444	871
828.539	1003
828.635	795
828.731	1124
828.826	287
828.922	2212
829.017	1547
829.113	2334
829.208	583
829.304	928
829.399	3062
829.495	1054
829.590	1220
829.685	900
829.781	1367
829.876	1391
829.971	794
830.066	597
830.162	999
830.257	290
830.352	116
830.447	2353
830.543	886
830.638	921
830.733	1896
830.828	1587
830.923	2019
831.018	1009
831.113	880
831.208	1037
831.303	334
831.398	-41
831.493	561
831.588	1437
831.683	-515
831.778	932
831.873	520
831.967	1477
832.062	947
832.157	960
832.252	1995
832.346	1788
832.441	2558
832.536	2930
832.631	6053
832.725	5767
832.820	1148
832.914	1285
833.009	63
833.104	1425
833.198	2666
833.293	1102
833.387	1458
833.482	1483
833.576	213
833.670	2415
833.765	847
833.859	2565
833.954	2504
834.048	1560
834.142	1056
834.237	994
834.331	587
834.425	1145
834.519	145
834.613	2023
834.708	-252
834.802	1005
834.896	-223
834.990	514
835.084	719
835.178	2129
835.272	-90
835.366	965
835.460	384
835.554	1247
835.648	714
835.742	547
835.836	451
835.930	456
836.024	508
836.117	1347
836.211	874
836.305	758
836.399	884
836.493	-169
836.586	1804
836.680	480
836.774	-680
836.867	2012
836.961	-427
837.055	-206
837.148	-67
837.242	366
837.335	-27
837.429	810
837.522	474
837.616	1021
837.709	726
837.803	1351
837.896	915
837.989	750
838.083	450
838.176	1048
838.269	383
838.363	1772
838.456	52
838.549	2433
838.642	3041
838.735	7998
838.829	3006
838.922	-224
839.015	-134
839.108	-776
839.201	370
839.294	481
839.387	742
839.480	405
839.573	-143
839.666	542
839.759	-219
839.852	107
839.945	695
840.038	416
840.131	-64
840.223	593
840.316	966
840.409	390
840.502	257
840.594	1186
840.687	-582
840.780	654
840.873	-222
840.965	721
841.058	543
841.150	1296
841.243	467
841.336	1289
841.428	143
841.521	315
841.613	215
841.706	76
841.798	283
841.890	900
841.983	-676
842.075	777
842.167	12
842.260	68
842.352	1687
842.444	766
842.537	1777
842.629	2214
842.721	43
842.813	761
842.905	-325
842.997	251
843.090	-58
843.182	394
843.274	109
843.366	3138
843.458	5392
843.550	4520
843.642	243
843.734	807
843.826	233
843.918	241
844.009	303
844.101	76
844.193	483
844.285	310
844.377	591
844.469	812
844.560	-286
844.652	-101
844.744	682
844.835	492
844.927	234
845.019	100
845.110	218
845.202	13
845.293	7
845.385	190
845.476	-143
845.568	1469
845.659	-684
845.751	1309
845.842	-908
845.934	-362
846.025	159
846.116	1003
846.208	-93
846.299	421
846.390	-456
846.482	491
846.573	1001
846.664	908
846.755	1049
846.846	2478
846.937	-1462
847.029	790
847.120	349
847.211	133
847.302	1156
847.393	-656
847.484	885
847.575	470
847.666	-755
847.757	-278
847.847	700
847.938	1142
848.029	-685
848.120	-515
848.211	-14
848.302	324
848.392	-218
848.483	1402
848.574	-785
848.664	530
848.755	285
848.846	713
848.936	-525
849.027	1001
849.118	1216
849.208	737
849.299	3079
849.389	5773
849.480	11727
849.570	27782
849.661	52606
849.751	100477
849.841	39301
849.932	4691
850.022	1640
850.112	935
850.203	1147
850.293	557
850.383	574
850.474	42
850.564	152
850.654	568
850.744	14
850.834	348
850.924	406
851.014	972
851.104	858
851.194	604
851.284	545
851.374	2253
851.464	803
851.554	931
851.644	248
851.734	1244
851.824	406
851.914	-531
852.004	854
852.094	0
852.183	271
852.273	-23
852.363	386
852.452	1313
852.542	1030
852.632	392
852.721	649
852.811	1058
852.901	1013
852.990	1106
853.080	1489
853.169	1736
853.259	1604
853.348	2171
853.438	2616
853.527	4758
853.617	7026
853.706	14723
853.795	27916
853.885	61615
853.974	119885
854.063	214278
854.152	337211
854.242	153923
854.331	32979
854.420	12588
854.509	7926
854.598	5946
854.687	4293
854.777	4020
854.866	3164
854.955	2753
855.044	1344
855.133	1771
855.222	755
855.311	758
855.400	75
855.488	1084
855.577	484
855.666	697
855.755	343
855.844	269
855.933	-175
856.021	602
856.110	947
856.199	-206
856.288	-642
856.376	-51
856.465	-456
856.554	355
856.642	86
856.731	376
856.819	647
856.908	452
856.996	-527
857.085	-39
857.173	-775
857.262	52
857.350	303
857.438	1019
857.527	49
857.615	-492
857.703	518
857.792	281
857.880	-231
857.968	-179
858.056	121
858.145	-49
858.233	185
858.321	1068
858.409	1011
858.497	-59
858.585	-450
858.673	650
858.761	-277
858.849	30
858.937	-788
859.025	-106
859.113	-408
859.201	-417
859.289	697
859.377	-122
859.465	-150
859.552	-93
859.640	-936
859.728	382
859.816	30
859.903	599
859.991	-421
860.079	502
860.166	-329
860.254	3
860.342	-373
860.429	-44
860.517	-785
860.604	531
860.692	145
860.779	912
860.867	-749
860.954	99
861.042	-79
861.129	925
861.216	-130
861.304	332
861.391	-278
861.478	752
861.565	231
861.653	332
861.740	-626
861.827	505
861.914	224
862.001	750
862.089	-77
862.176	836
862.263	-44
862.350	433
862.437	-761
862.524	-80
862.611	-536
862.698	-273
862.785	663
862.871	150
862.958	-18
863.045	218
863.132	298
863.219	375
863.306	-774
863.392	56
863.479	210
863.566	-286
863.652	223
863.739	-68
863.826	1191
863.912	778
863.999	129
864.086	36
864.172	207
864.259	504
864.345	782
864.432	66
864.518	-326
864.604	1148
864.691	256
864.777	640
864.863	870
864.950	1089
865.036	921
865.122	3791
865.209	3241
865.295	2944
865.381	3710
865.467	4992
865.553	5958
865.639	9374
865.726	16062
865.812	32639
865.898	65808
865.984	101043
866.070	178626
866.156	212253
866.242	65689
866.328	15809
866.414	7229
866.499	5484
866.585	4515
866.671	4334
866.757	3277
866.843	4055
866.928	2248
867.014	1801
867.100	2889
867.186	2341
867.271	2650
867.357	3151
867.442	3157
867.528	1890
867.614	2277
867.699	1483
867.785	1261
867.870	1943
867.956	792
868.041	1857
868.127	1599
868.212	1311
868.297	1665
868.383	2135
868.468	2473
868.553	4891
868.639	4726
868.724	10054
868.809	9749
868.894	3042
868.979	1911
869.065	1879
869.150	-150
869.235	1126
869.320	705
869.405	600
869.490	1451
869.575	1176
869.660	756
869.745	1708
869.830	1398
869.915	908
870.000	1133
870.085	1039
870.169	1257
870.254	2128
870.339	355
870.424	1206
870.509	492
870.593	889
870.678	1493
870.763	390
870.847	390
870.932	1890
871.016	1055
871.101	1037
871.186	769
871.270	958
871.355	314
871.439	891
871.523	787
871.608	1335
871.692	749
871.777	1246
871.861	1462
871.945	617
872.030	-122
872.114	729
872.198	667
872.282	1237
872.367	1009
872.451	1018
872.535	998
872.619	914
872.703	-118
872.787	917
872.871	550
872.955	59
873.039	2
873.123	869
873.207	922
873.291	692
873.375	160
873.459	1053
873.543	323
873.627	-17
873.711	426
873.794	1742
873.878	963
873.962	333
874.045	109
874.129	917
874.137	853
874.213	216
874.245	644
874.296	1331
874.352	678
874.380	362
874.460	1687
874.464	1740
874.547	-375
874.568	-72
874.631	810
874.676	241
874.714	-229
874.784	589
874.798	755
874.881	1991
874.892	1722
874.965	-152
874.999	249
875.048	777
875.107	759
875.131	769
875.215	592
875.215	591
875.298	459
875.323	389
875.381	194
875.430	729
875.465	1119
875.538	709
875.548	650
875.631	391
875.646	446
875.714	788
875.753	744
875.798	633
875.861	106
875.881	-72
875.964	545
875.968	526
876.047	410
876.076	620
876.130	911
876.183	1110
876.213	1245
876.291	826
876.296	793
876.379	114
876.398	134
876.462	168
876.506	163
876.545	259
876.613	227
876.628	184
876.711	-212
876.721	-155
876.794	338
876.828	260
876.877	187
876.935	-158
876.960	-308
877.043	-13
877.043	-11
877.125	388
877.150	561
877.208	1036
877.258	395
877.291	-101
877.365	-254
877.374	-269
877.456	193
877.472	136
877.539	-48
877.579	118
877.622	359
877.687	-168
877.704	-328
877.787	653
877.794	604
877.869	45
877.901	206
877.952	455
878.008	26
878.034	-169
878.115	185
878.117	191
878.199	61
878.222	177
878.282	620
878.329	853
878.364	922
878.437	853
878.447	863
878.529	-229
878.544	-122
878.611	412
878.651	179
878.694	-252
878.758	262
878.776	540
878.858	624
878.865	631
878.941	294
878.972	107
879.023	-144
879.078	331
879.105	589
879.185	634
879.187	631
879.269	537
879.292	419
879.351	365
879.399	635
879.433	756
879.506	188
879.516	127
879.598	585
879.613	562
879.680	228
879.720	323
879.762	666
879.827	552
879.844	424
879.926	332
879.933	409
880.007	1225
880.040	1098
880.089	1152
880.147	2163
880.171	2496
880.253	5729
880.254	5749
880.335	7927
880.360	8661
880.417	10693
880.467	16097
880.499	19513
880.574	24008
880.580	24183
880.662	7225
880.680	5798
880.744	1511
880.787	762
880.825	322
880.893	326
880.907	297
880.989	389
881.000	329
881.070	72
881.106	38
881.152	59
881.213	470
881.233	570
881.315	271
881.319	270
881.396	102
881.426	-18
881.478	-27
881.532	221
881.559	316
881.639	16
881.641	12
881.722	309
881.745	308
881.803	148
881.852	42
881.885	19
881.958	199
881.966	247
882.047	757
882.064	852
882.129	822
882.171	824
882.210	1015
882.277	1432
882.291	1501
882.372	987
882.383	908
882.454	244
882.489	153
882.535	205
882.596	237
882.616	132
882.697	188
882.702	141
882.778	225
882.808	550
882.859	422
882.914	188
882.940	292
883.020	110
883.021	107
883.102	43
883.127	23
883.183	314
883.233	257
883.264	41
883.339	192
883.345	240
883.426	48
883.445	273
883.507	558
883.551	108
883.587	-53
883.657	415
883.668	482
883.749	397
883.763	421
883.830	376
883.869	159
883.910	38
883.975	252
883.991	280
884.072	262
884.081	242
884.152	126
884.187	78
884.233	198
884.292	677
884.314	663
884.394	-155
884.398	-167
884.475	60
884.504	85
884.555	253
884.610	242
884.636	227
884.716	524
884.716	524
884.797	397
884.821	150
884.877	103
884.927	287
884.958	295
885.033	316
885.038	325
885.118	257
885.139	314
885.199	82
885.244	-222
885.279	-211
885.350	-85
885.359	-55
885.439	302
885.456	262
885.520	-201
885.561	-190
885.600	58
885.667	322
885.680	369
885.760	813
885.773	809
885.840	216
885.878	48
885.920	79
885.984	103
886.000	186
886.080	507
886.089	530
886.160	404
886.195	380
886.240	370
886.300	313
886.320	375
886.400	673
886.406	697
886.480	423
886.511	296
886.560	389
886.616	303
886.640	205
886.720	139
886.722	127
886.800	51
886.827	218
886.879	244
886.932	-50
886.959	109
887.038	1045
887.039	1046
887.119	428
887.143	350
887.198	800
887.248	978
887.278	884
887.354	736
887.358	734
887.437	546
887.459	547
887.517	386
887.564	135
887.596	74
887.669	-63
887.676	-43
887.755	219
887.774	285
887.835	347
887.880	473
887.914	572
887.985	573
887.994	569
888.073	507
888.090	505
888.153	415
888.195	395
888.232	391
888.300	241
888.311	251
888.391	359
888.405	388
888.470	452
888.510	428
888.549	477
888.615	640
888.628	653
888.708	658
888.720	666
888.787	275
888.825	14
888.866	120
888.930	354
888.945	243
889.024	-415
889.035	-495
889.103	389
889.140	828
889.182	710
889.245	580
889.261	499
889.340	105
889.349	59
889.419	-75
889.454	-150
889.498	93
889.559	457
889.577	507
889.656	712
889.664	733
889.735	354
889.768	175
889.814	369
889.873	627
889.978	669
890.083	436
890.187	158
890.292	28
890.397	603
890.501	-95
890.606	679
890.710	165
890.815	246
890.919	324
891.024	-154
891.128	476
891.233	483
891.337	514
891.442	281
891.546	239
891.650	527
891.755	360
891.859	2203
891.963	185
892.068	724
892.172	787
892.276	718
892.380	-356
892.484	11
892.589	396
892.693	1065
892.797	658
892.901	911
893.005	847
893.109	517
893.213	330
893.317	875
893.421	-51
893.525	671
893.629	-91
893.733	105
893.837	-193
893.941	83
894.045	38
894.148	456
894.252	743
894.356	454
894.460	569
894.564	427
894.667	403
894.771	396
894.875	223
894.978	803
895.082	-260
895.186	1025
895.289	761
895.393	777
895.496	-16
895.600	-102
895.703	131
895.807	763
895.910	-709
896.014	1316
896.117	-465
896.221	512
896.324	582
896.427	185
896.531	403
896.634	-46
896.737	446
896.840	368
896.944	212
897.047	761
897.150	-119
897.253	-202
897.356	119
897.460	-296
897.563	339
897.666	-303
897.769	22
897.872	621
897.975	-271
898.078	165
898.181	706
898.284	207
898.387	483
898.490	933
898.593	163
898.695	-176
898.798	-40
898.901	244
899.004	-86
899.107	181
899.209	-73
899.312	79
899.415	-276
899.518	272
899.620	159
899.723	-285
899.826	436
899.928	832
900.031	-487
900.133	-544
900.236	511
900.338	-205
900.441	418
900.543	640
900.646	175
900.748	-25
900.851	505
900.953	-69
901.055	-160
901.158	135
901.260	-221
901.362	247
901.465	-172
901.567	143
901.669	88
901.771	859
901.873	-625
901.976	799
902.078	109
902.180	191
902.282	-305
902.384	-264
902.486	212
902.588	234
902.690	-727
902.792	-129
902.894	299
902.996	211
903.098	368
903.200	-258
903.302	48
903.404	-12
903.505	131
903.607	-131
903.709	648
903.811	-166
903.913	60
904.014	549
904.116	-557
904.218	273
904.319	235
904.421	-354
904.523	-117
904.624	-185
904.726	470
904.827	-247
904.929	64
905.030	355
905.132	-330
905.233	-98
905.335	-544
905.436	463
905.537	-706
905.639	674
905.740	410
905.841	201
905.943	79
906.044	119
906.145	790
906.247	101
906.348	350
906.449	381
906.550	263
906.651	-173
906.752	191
906.854	-48
906.955	-753
907.056	-330
907.157	-194
907.258	225
907.359	-566
907.460	-70
907.561	-182
907.662	-689
907.762	-551
907.863	-348
907.964	-578
908.065	261
908.166	-408
908.267	425
908.367	-140
908.468	520
908.569	-50
908.670	131
908.770	105
908.871	469
908.971	495
909.072	83
909.173	-657
909.273	73
909.374	-739
909.474	-182
909.575	181
909.675	-28
909.776	182
909.876	-413
909.977	-394
910.077	-516
910.177	64
910.278	-410
910.378	-401
910.478	375
910.579	-390
910.679	160
910.779	428
910.879	395
910.980	-274
911.080	103
911.180	-691
911.280	-356
911.380	173
911.480	440
911.580	-529
911.680	457
911.780	73
911.880	289
911.980	63
912.080	-544
912.180	-29
912.280	-366
912.380	124
912.480	212
912.580	-308
912.679	-1127
912.779	517
912.879	-349
912.979	370
913.078	-319
913.178	-463
913.278	-239
913.377	-425
913.477	-62
913.577	-709
913.676	467
913.776	-1382
913.875	-26
913.975	460
914.074	404
914.174	-487
914.273	-9
914.373	289
914.472	-331
914.572	155
914.671	477
914.770	-223
914.870	89
914.969	-372
915.068	-495
915.167	-78
915.267	-398
915.366	-365
915.465	-221
915.564	179
915.663	-281
915.763	-101
915.862	-804
915.961	-791
916.060	221
916.159	-784
916.258	-1144
916.357	514
916.456	293
916.555	-202
916.654	-238
916.752	-525
916.851	210
916.950	83
917.049	-492
917.148	-380
917.247	512
917.345	-630
917.444	16
917.543	-99
917.642	-49
917.740	-512
917.839	-8
917.937	-115
918.036	9
918.135	-697
918.233	-556
918.332	-723
918.430	433
918.529	-876
918.627	-693
918.726	151
918.824	200
918.923	-109
919.021	-682
919.119	36
919.218	-809
919.316	-613
919.414	-21
919.512	-377
919.611	248
919.709	-272
919.807	195
919.905	195
920.003	1
920.102	161
920.200	-387
920.298	-64
920.396	-497
920.494	177
920.592	-242
920.690	-157
920.788	-62
920.886	-563
920.984	400
921.082	-665
921.180	1039
921.277	87
921.375	162
921.473	-246
921.571	135
921.669	399
921.766	-79
921.864	-178
921.962	514
922.060	-726
922.157	213
922.255	543
922.352	202
922.450	306
922.548	-50
922.645	279
922.743	1194
922.840	-441
922.938	575
923.035	388
923.133	427
923.230	-162
923.327	172
923.425	1006
923.522	435
923.619	1154
923.717	186
923.814	1132
923.911	919
924.008	1122
924.106	-3
924.203	132
924.300	-29
924.397	56
924.494	1160
924.591	702
924.688	973
924.786	352
924.883	994
924.979	232
925.077	902
925.173	213
925.270	1162
925.367	-50
925.464	796
925.561	1062
925.658	167
925.755	487
925.852	1014
925.948	672
926.045	605
926.142	-387
926.239	955
926.335	390
926.432	617
926.529	238
926.625	542
926.722	-324
926.818	945
926.915	327
927.011	66
927.108	782
927.204	286
927.301	712
927.397	716
927.494	435
927.590	113
927.687	487
927.783	695
927.879	796
927.976	736
928.072	412
928.168	272
928.264	208
928.361	247
928.457	364
928.553	1014
928.649	646
928.745	1520
928.841	150
928.937	933
929.033	246
929.129	1056
929.225	160
929.321	1119
929.417	281
929.513	198
929.609	744
929.705	-1
929.801	350
929.897	1292
929.993	404
930.089	379
930.184	828
930.280	166
930.376	471
930.471	-303
930.567	453
930.663	1152
930.758	72
930.854	524
930.950	-23
931.045	893
931.141	481
931.236	694
931.332	628
931.427	301
931.523	512
931.618	730
931.714	232
931.809	208
931.905	535
932.000	296
932.095	274
932.191	1137
932.286	203
932.381	74
932.476	113
932.572	529
932.667	224
932.762	49
932.857	914
932.952	43
933.047	924
933.142	-95
933.237	164
933.332	725
933.427	724
933.522	742
933.617	689
933.712	1114
933.807	-30
933.902	-84
933.997	434
934.092	758
934.187	523
934.282	572
934.376	948
934.471	834
934.566	295
934.661	216
934.755	695
934.850	282
934.945	-154
935.039	-175
935.134	512
935.228	543
935.323	900
935.417	227
935.512	240
935.606	104
935.701	167
935.795	510
935.890	461
935.984	373
936.079	-21
936.173	-20
936.267	178
936.362	-50
936.456	-345
936.550	781
936.644	588
936.738	-180
936.833	434
936.927	-15
937.021	187
937.115	236
937.209	-611
937.303	485
937.397	140
937.491	363
937.585	162
937.679	2
937.773	503
937.867	348
937.961	524
938.055	650
938.149	406
938.243	471
938.337	22
938.430	679
938.524	380
938.618	-73
938.712	187
938.805	13
938.899	758
938.993	51
939.086	-378
939.180	-180
939.274	203
939.367	216
939.461	-231
939.554	220
939.648	1204
939.741	316
939.835	621
939.928	482
940.022	325
940.115	447
940.208	-499
940.302	903
940.395	505
940.488	137
940.582	610
940.675	-177
940.768	91
940.861	591
940.954	-40
941.048	258
941.141	626
941.234	370
941.327	269
941.420	594
941.513	-112
941.606	-55
941.699	1183
941.792	439
941.885	778
941.978	578
942.071	-200
942.164	-138
942.257	226
942.349	-24
942.442	29
942.535	426
942.628	-54
942.721	202
942.813	-1405
942.906	183
942.999	130
943.091	699
943.184	-502
943.277	-250
943.369	-208
943.462	-340
943.554	525
943.647	374
943.739	508
943.832	-591
943.924	-456
944.017	-165
944.109	-90
944.201	-220
944.294	857
944.386	-190
944.478	312
944.571	-764
944.663	-141
944.755	861
944.847	108
944.940	635
945.032	-343
945.124	362
945.216	844
945.308	180
945.400	188
945.492	198
945.584	582
945.676	464
945.768	759
945.860	516
945.952	231
946.044	177
946.136	-146
946.228	202
946.320	-1047
946.412	-106
946.503	-113
946.595	21
946.687	-1188
946.779	117
946.870	247
946.962	-10
947.054	-403
947.145	362
947.237	-294
947.329	333
947.420	-599
947.512	284
947.603	-491
947.695	296
947.786	-344
947.878	14
947.969	624
948.061	-758
948.152	253
948.243	393
948.335	-93
948.426	-788
948.517	-954
948.609	62
948.700	-23
948.791	-332
948.882	-459
948.973	-172
949.065	-203
949.156	-169
949.247	-317
949.338	578
949.429	-432
949.520	-608
949.611	-689
949.702	-31
949.793	-237
949.884	409
949.975	-481
950.066	-274
950.157	-1498
950.247	21
950.338	-148
950.429	-317
950.520	560
950.611	-363
950.701	134
950.792	-466
950.883	250
950.973	-237
951.064	184
951.155	-474
951.245	78
951.336	461
951.427	140
951.517	-187
951.608	264
951.698	501
951.788	-508
951.879	98
951.969	-465
952.060	-225
952.150	-156
952.240	658
952.331	-701
952.421	897
952.511	-182
952.602	-385
952.692	-178
952.782	-6
952.872	-698
952.962	-499
953.052	-959
953.143	-342
953.233	-592
953.323	-223
953.413	-581
953.503	449
953.593	280
953.683	447
953.773	-440
953.863	-366
953.953	-705
954.042	-413
954.132	-905
954.222	-303
954.312	-367
954.402	-907
954.492	-773
954.581	-38
954.671	-624
954.761	-546
954.850	762
954.940	-465
955.030	-884
955.119	-538
955.209	-88
955.298	-846
955.388	64
955.477	247
955.567	-922
955.656	172
955.746	118
955.835	110
955.925	481
956.014	-25
956.103	158
956.193	-112
956.282	-437
956.371	914
956.461	-285
956.550	-553
956.639	-166
956.728	-589
956.817	-487
956.906	-349
956.995	-803
957.085	-328
957.174	322
957.263	-334
957.352	333
957.441	-607
957.530	-669
957.619	170
957.708	-766
957.796	-750
957.885	-850
957.974	-1055
958.063	491
958.152	11
958.241	-219
958.329	-1026
958.418	-870
958.507	-822
958.596	705
958.684	-430
958.773	295
958.861	-279
958.950	-277
959.039	125
959.127	-514
959.216	-481
959.304	-612
959.393	-541
959.481	-252
959.570	-25
959.658	-506
959.746	-533
959.835	-351
959.923	-289
960.011	-594
960.100	-245
960.188	-1127
960.276	-935
960.365	-142
960.453	-275
960.541	-876
960.629	-492
960.717	-722
960.805	-1640
960.893	-954
960.981	-590
961.069	30
961.158	-978
961.245	-252
961.333	-11
961.421	-1334
961.509	105
961.597	-292
961.685	257
961.773	-787
961.861	-645
961.949	-168
962.036	-256
962.124	-585
962.212	-79
962.299	-72
962.387	-996
962.475	498
962.562	86
962.650	-76
962.738	-706
962.825	-835
962.913	-514
963.000	-773
963.088	-126
963.175	-779
963.263	-435
963.350	-305
963.438	-125
963.525	-922
963.612	-961
963.700	45
963.787	101
963.874	-122
963.962	291
964.049	-61
964.136	11
964.223	-755
964.310	-275
964.398	-866
964.485	-132
964.572	29
964.659	-1154
964.746	-670
964.833	-626
964.920	38
965.007	-73
965.094	-6
965.181	-1036
965.268	-1050
965.355	-720
965.441	-858
965.528	-696
965.615	177
965.702	419
965.789	-1266
965.875	2
965.962	-475
966.049	-929
966.136	-743
966.222	-610
966.309	-114
966.395	-723
966.482	-293
966.569	-1142
966.655	-571
966.742	-597
966.828	261
966.915	-1353
967.001	27
967.087	-16
967.174	-658
967.260	-628
967.347	-403
967.433	-686
967.519	-1048
967.605	-325
967.692	-401
967.778	-411
967.864	-939
967.950	-867
968.036	-700
968.123	-917
968.209	-628
968.295	-384
968.381	546
968.467	556
968.553	-1371
968.639	-186
968.725	-588
968.811	-650
968.897	-1477
968.983	-1011
969.069	-878
969.154	171
969.240	336
969.326	-504
969.412	-1503
969.497	8
969.583	-518
969.669	-673
969.755	-739
969.840	-786
969.926	-728
970.012	-1518
970.097	-12
970.183	-652
970.268	-676
970.354	-370
970.439	-2154
970.525	552
970.610	-1009
970.696	579
970.781	-734
970.866	-1237
970.952	-379
971.037	-606
971.122	-554
971.208	-1042
971.293	-499
971.378	-1212
971.463	-817
971.549	-988
971.634	232
971.719	-490
971.804	-558
971.889	119
971.974	-1473
972.059	122
972.144	215
972.229	-602
972.314	-995
972.399	258
972.484	-1626
972.569	111
972.654	209
972.739	-38
972.824	-1125
972.908	-518
972.993	-1468
973.078	-109
973.163	-600
973.247	-954
973.332	-1706
973.417	637
973.501	-943
973.586	-57
973.671	-881
973.755	-595
973.840	-692
973.924	722
974.009	-409
974.093	-1093
974.178	296
974.262	-101
974.346	-907
974.431	-682
974.515	-66
974.600	-1038
974.684	135
974.768	-393
974.852	-365
974.937	-942
975.021	-711
975.105	-326
975.189	-932
975.273	171
975.358	-1246
975.442	-1027
975.526	-641
975.610	-468
975.694	-820
975.778	553
975.862	-1065
975.946	-1949
976.030	-47
976.114	-196
976.198	-583
976.281	-224
976.365	-52
976.449	-601
976.533	-484
976.617	-1199
976.700	-300
976.784	-833
976.868	-899
976.951	-587
977.035	-895
977.119	440
977.202	-437
977.286	-131
977.369	-649
977.453	-190
977.536	0
977.620	-660
977.703	-890
977.787	-1115
977.870	-423
977.953	105
978.037	-1143
978.120	701
978.203	-827
978.287	-816
978.370	-729
978.453	-901
978.536	-690
978.620	79
978.703	-429
978.786	-799
978.869	-1271
978.952	-959
979.035	935
979.118	512
979.201	-786
979.284	-533
979.367	-594
979.450	-151
979.533	-1545
979.616	-257
979.699	-1470
979.782	-663
979.865	-703
979.948	-192
980.030	-1171
980.113	-121
980.196	-865
980.279	674
980.361	-1133
980.444	-376
980.526	-847
980.609	-439
980.692	-763
980.774	518
980.857	-1233
980.939	509
981.022	-258
981.104	-988
981.187	-849
981.269	-451
981.352	-1219
981.434	-773
981.516	-1334
981.599	148
981.681	311
981.763	-118
981.846	-487
981.928	-230
982.010	-568
982.092	-609
982.174	-767
982.256	-223
982.339	-504
982.421	0
982.503	-620
982.585	-659
982.667	-261
982.749	-416
982.831	-333
982.913	-491
982.995	127
983.077	-875
983.158	664
983.240	-668
983.322	-786
983.404	-613
983.486	-257
983.568	-378
983.649	-1268
983.731	745
983.813	-663
983.894	-118
983.976	-1352
984.058	-673
984.139	-236
984.221	-1657
984.302	64
984.384	809
984.465	-560
984.547	1138
984.628	-1589
984.710	212
984.791	156
984.872	-182
984.954	-700
985.035	389
985.116	-770
985.198	-923
985.279	304
985.360	-444
985.441	-192
985.522	1556
985.604	-970
985.685	-1336
985.766	1086
985.847	424
985.928	-1445
986.009	-1063
986.090	-846
986.171	-683
986.252	-1254
986.333	-414
986.414	-301
986.495	-594
986.576	-1041
986.656	-861
986.737	-979
986.818	-1587
986.899	-465
986.980	-697
987.060	-490
987.141	-886
987.222	-804
987.302	-650
987.383	-303
987.464	-468
987.544	-463
987.625	-424
987.705	-88
987.786	-341
987.866	-679
987.947	-748
988.027	-486
988.108	-264
988.188	97
988.268	-80
988.349	-798
988.429	-854
988.509	-492
988.589	-208
988.670	-1881
988.750	-70
988.830	-440
988.910	-823
988.990	-444
989.070	-62
989.151	86
989.231	-1676
989.311	168
989.391	-277
989.471	233
989.551	-530
989.631	-870
989.711	-420
989.791	-1374
989.870	-753
989.950	306
990.030	72
990.110	-467
990.190	-109
990.269	-435
990.349	-1064
990.429	-258
990.509	-326
990.588	-1219
990.668	1090
990.747	-243
990.827	-870
990.907	-506
990.986	-100
991.066	-721
991.145	-711
991.225	-546
991.304	-1276
991.383	-458
991.463	-621
991.542	-149
991.622	-1027
991.701	-751
991.780	-658
991.859	-293
991.939	-373
992.018	-20
992.097	-571
992.176	-866
992.256	-431
992.335	-1724
992.414	-696
992.493	-590
992.572	-1173
992.651	3
992.730	-315
992.809	-746
992.888	-257
992.967	-419
993.046	-453
993.125	-1950
993.203	-771
993.282	-552
993.361	-731
993.440	161
993.519	-1133
993.597	45
993.676	-1168
993.755	-77
993.834	-802
993.912	-1894
993.991	-767
994.069	-1136
994.148	-782
994.226	-942
994.305	129
994.384	-1660
994.462	105
994.540	-1464
994.619	-1352
994.697	-293
994.776	-1007
994.854	334
994.932	-412
995.011	-306
995.089	-867
995.167	-1297
995.245	-473
995.324	-1383
995.402	-73
995.480	-1809
995.558	-755
995.636	-1619
995.714	-732
995.792	243
995.870	-1050
995.948	-734
996.026	329
996.104	-1741
996.182	-9
996.260	-1780
996.338	-764
996.416	-1589
996.494	-815
996.572	-521
996.649	-1167
996.727	-1924
996.805	-547
996.883	-1282
996.960	-783
997.038	-599
997.116	-818
997.193	-2207
997.271	-884
997.348	-723
997.426	-571
997.504	-651
997.581	-395
997.658	-623
997.736	-1444
997.813	-1048
997.891	7
997.968	-788
998.046	-723
998.123	-1349
998.200	-1039
998.277	-1594
998.355	-836
998.432	-1804
998.509	184
998.586	-614
998.663	-407
998.741	-1163
998.818	-1300
998.895	-735
998.972	-149
999.049	-1004
999.126	-1566
999.203	-262
999.280	-770
999.357	-2127
999.434	-839
999.511	-568
999.587	-470
999.664	-1987
999.741	-623
999.818	-435
999.895	-1735
999.971	-1160
1000.048	-879
1000.125	-640
1000.202	-392
1000.278	-741
1000.355	-417
1000.431	-1026
1000.508	-1376
1000.584	-767
1000.661	-1210
1000.738	-1617
1000.814	-503
1000.890	-250
1000.967	-1140
1001.043	-526
1001.120	-1717
1001.196	-1089
1001.272	-1567
1001.349	-1167
1001.425	135
1001.501	-1084
1001.577	-1906
1001.654	-1550
1001.730	-986
1001.806	-1184
1001.882	-1752
1001.958	-203
1002.034	-991
1002.110	-1109
1002.186	-2361
1002.262	-1551
1002.338	-1960
1002.414	-1670
1002.490	-126
1002.566	-1925
1002.642	-1393
1002.718	-524
1002.794	-1361
1002.870	-1454
1002.945	-685
1003.021	-1129
1003.097	-1500
1003.173	-742
1003.248	-983
1003.324	-1022
1003.400	-966
1003.475	-1149
1003.551	-384
1003.626	-1212
1003.702	-1661
1003.777	-1594
1003.853	-1556
1003.928	-1443
1004.004	-793
1004.079	-996
1004.155	-709
1004.230	-2052
1004.305	-325
1004.381	-1563
1004.456	-568
1004.531	-1676
1004.607	-591
1004.682	-1265
1004.757	-922
1004.832	-1310
1004.907	-1280
1004.982	-709
1005.057	-732
1005.133	-1121
1005.208	-2308
1005.283	-1509
1005.358	-932
1005.433	-929
1005.508	-846
1005.583	-1655
1005.657	-617
1005.732	-829
1005.807	-1920
1005.882	-1734
1005.957	-1433
1006.032	-533
1006.106	-1144
1006.181	-1258
1006.256	-1436
1006.331	-1800
1006.405	-1858
1006.480	-1650
1006.554	-1555
1006.629	-934
1006.704	-1294
1006.778	-730
1006.853	-1663
1006.927	-1434
1007.002	-2143
1007.076	-858
1007.150	-255
1007.225	-1548
1007.299	-904
1007.373	-2186
1007.448	-931
1007.522	-630
1007.596	-1662
1007.671	-1376
1007.745	-838
1007.819	-1326
1007.893	-893
1007.967	-1261
1008.041	-1624
1008.115	-253
1008.190	-2035
1008.264	-649
1008.338	-2176
1008.412	-1836
1008.486	-981
1008.560	-1287
1008.633	-1861
1008.707	-1110
1008.781	-1357
1008.855	-1474
1008.929	-2100
1009.003	-1236
1009.076	-957
1009.150	-927
1009.224	-1330
1009.298	-1156
1009.371	-1680
1009.445	-357
1009.519	-1255
1009.592	-930
1009.666	-1046
1009.739	-1749
1009.813	-2240
1009.886	-772
1009.960	-1589
1010.033	-418
1010.107	-1582
1010.180	-1886
1010.253	-651
1010.327	-1818
1010.400	-1784
1010.473	-1376
1010.547	-238
1010.620	-1328
1010.693	-1503
1010.766	-920
1010.840	-914
1010.913	-762
1010.986	-1185
1011.059	-1678
1011.132	-1543
1011.205	-1149
1011.278	-873
1011.351	-1275
1011.424	-1126
1011.497	-1795
1011.570	-34
1011.643	-1193
1011.716	-1446
1011.789	-1548
1011.862	-1887
1011.934	-1449
1012.007	-1722
1012.080	-1168
1012.153	-1120
1012.225	-61
1012.298	-1281
1012.371	-1513
1012.443	-930
1012.516	-2648
1012.588	-1799
1012.661	-1163
1012.733	-1301
1012.806	-871
1012.879	-1147
1012.951	-989
1013.023	-1387
1013.096	-997
1013.168	-1761
1013.241	-700
1013.313	-1537
1013.385	-1677
1013.458	-1936
1013.530	-1698
1013.602	-2336
1013.674	-996
1013.746	-1373
1013.819	-1816
1013.891	-1145
1013.963	-1600
1014.035	-1163
1014.107	-976
1014.179	-976
1014.251	-2436
1014.323	-1507
1014.395	-1539
1014.467	-1546
1014.539	-1195
1014.611	-2018
1014.683	-1173
1014.754	-1244
1014.826	-1240
1014.898	-1206
1014.970	-1779
1015.042	-1460
1015.113	-1534
1015.185	-587
1015.257	-2469
1015.328	-775
1015.400	-1409
1015.471	-1111
1015.543	-2032
1015.615	-1177
1015.686	-1688
1015.757	-1060
1015.829	-1072
1015.901	-2087
1015.972	-1874
1016.043	-1430
1016.115	-1057
1016.186	-707
1016.257	-1918
1016.328	-635
1016.400	-609
1016.471	-2245
1016.542	-1778
1016.613	-1110
1016.685	-1609
1016.756	-1654
1016.827	-1976
1016.898	-1841
1016.969	-729
1017.040	-1504
1017.111	-1334
1017.182	-1346
1017.253	-1610
1017.324	-1624
1017.395	-1250
1017.466	-1255
1017.537	-1793
1017.608	-1766
1017.678	-1261
1017.749	-1735
1017.820	-1219
1017.891	-2092
1017.961	-1049
1018.032	-1287
1018.103	-1536
1018.173	-1405
1018.244	-1379
1018.315	-816
1018.385	-1033
1018.456	-582
1018.526	-1184
1018.597	-798
1018.667	-1666
1018.738	-1541
1018.808	-1653
1018.878	-1262
1018.949	-1527
1019.019	-935
1019.089	-1408
1019.160	-1072
1019.230	-1759
1019.300	-1346
1019.371	-2210
1019.441	-1109
1019.511	-1301
1019.581	-1382
1019.651	-1121
1019.721	-2096
1019.791	-1757
1019.861	-1988
1019.931	-1511
1020.001	-1147
1020.071	-1209
1020.141	-1107
1020.211	-617
1020.281	-2039
1020.351	-2052
1020.421	-1088
1020.491	-983
1020.560	-1382
1020.630	-1265
1020.700	-1221
1020.770	-1647
1020.839	-1530
1020.909	-1143
1020.979	-1488
1021.048	-2228
1021.118	-996
1021.187	-1087
1021.257	-1005
1021.326	-1204
1021.396	-1619
1021.465	-984
1021.535	-1624
1021.604	-1508
1021.674	-1228
1021.743	-2027
1021.812	-1222
1021.882	-1790
1021.951	-1925
1022.020	-1607
1022.089	-1074
1022.159	-1308
1022.228	-1438
1022.297	-1470
1022.366	-1007
1022.435	-1989
1022.504	-1545
1022.573	-1449
1022.642	-881
1022.711	-1352
1022.781	-1223
1022.849	-977
1022.918	-1082
1022.987	-1238
1023.056	-1358
1023.125	-1396
1023.194	-1614
1023.263	-1664
1023.331	-214
1023.400	-2289
1023.469	-1654
1023.538	-854
1023.606	-1092
1023.675	-2352
1023.744	-1097
1023.812	-1681
1023.881	-1115
1023.949	-1134
1024.018	-1607
1024.086	-1143
1024.155	-966
1024.223	-1068
1024.292	-998
1024.360	-2013
1024.429	-2074
1024.497	-1854
1024.565	-1159
1024.634	-1919
1024.702	-1032
1024.770	-2069
1024.838	-1704
1024.907	-1782
1024.975	-1534
1025.043	-1573
1025.111	-1547
1025.179	-1371
1025.247	-1411
1025.315	-2328
1025.383	-1323
1025.451	-592
1025.519	-1168
1025.587	-2097
1025.655	-1710
1025.723	-1404
1025.791	-1605
1025.859	-1224
1025.927	-1452
1025.995	-2081
1026.062	-906
1026.130	-1268
1026.198	-2774
1026.266	-1855
1026.333	-717
1026.401	-1621
1026.469	-833
1026.536	-1800
1026.604	-1427
1026.671	-1624
1026.739	-1138
1026.806	-1712
1026.874	-1794
1026.941	-1460
1027.009	-1434
1027.076	-2179
1027.144	-900
1027.211	-1093
1027.278	-1296
1027.345	-2085
1027.413	-792
1027.480	-1269
1027.547	-1218
1027.614	-1329
1027.682	-2187
1027.749	-2066
1027.816	-1433
1027.883	-826
1027.950	-1292
1028.017	-1958
1028.084	-660
1028.151	-1812
1028.218	-1428
1028.285	-1586
1028.352	-1690
1028.419	-1441
1028.486	-1170
1028.553	-1658
1028.619	-1064
1028.686	-1678
1028.753	-1919
1028.820	-1584
1028.886	-1503
1028.953	-806
1029.020	-1309
1029.086	-1974
1029.153	-1322
1029.220	-1177
1029.286	-1182
1029.353	-1832
1029.419	-1394
1029.486	-1028
1029.552	-1804
1029.619	-1405
1029.685	-930
1029.751	-1399
1029.818	-886
1029.884	-2288
1029.951	-1244
1030.017	-907
1030.083	-2209
1030.149	-1521
1030.216	-1437
1030.282	-1653
1030.348	-1677
1030.414	-2512
1030.480	-1733
1030.546	-1354
1030.612	-1120
1030.678	-2309
1030.744	-1360
1030.810	-2325
1030.876	-1519
1030.942	-1659
1031.008	-1362
1031.074	-2144
1031.140	-1394
1031.206	-1022
1031.272	-1357
1031.337	-1817
1031.403	-1131
1031.469	-2704
1031.534	-2357
1031.600	-1578
1031.666	-2182
1031.731	-2209
1031.797	-586
1031.863	-1426
1031.928	-854
1031.994	-1518
1032.059	-1474
1032.125	-1537
1032.190	-1426
1032.256	-1900
1032.321	-1904
1032.386	-1422
1032.452	-1691
1032.517	-792
1032.582	-1879
1032.647	-1773
1032.713	-1313
1032.778	-1530
1032.843	-1375
1032.908	-2012
1032.974	-1446
1033.039	-1588
1033.104	-812
1033.169	-1827
1033.234	-1626
1033.299	-1217
1033.364	-1465
1033.429	-1773
1033.494	-988
1033.559	-2450
1033.624	-1500
1033.688	-1275
1033.753	-2421
1033.818	-1947
1033.883	-1661
1033.948	-2033
1034.013	-2175
1034.077	-2069
1034.142	-1171
1034.207	-1416
1034.271	-1064
1034.336	-1104
1034.400	-1604
1034.465	-926
1034.530	-1226
1034.594	-2148
1034.658	-1822
1034.723	-1834
1034.787	-1070
1034.852	-2074
1034.916	-1895
1034.981	-1932
1035.045	-1329
1035.109	-2398
1035.173	-1447
1035.238	-1936
1035.302	-1248
1035.366	-2101
1035.430	-1438
1035.495	-2417
1035.559	-760
1035.623	-1438
1035.687	-2113
1035.751	-2000
1035.815	-1996
1035.879	-1947
1035.943	-1296
1036.007	-1891
1036.071	-2760
1036.135	-1937
1036.198	-2202
1036.262	-1787
1036.326	-1819
1036.390	-1501
1036.454	-815
1036.517	-1836
1036.581	-1409
1036.645	-814
1036.709	-1108
1036.772	-1839
1036.836	-1632
1036.900	-1328
1036.963	-1903
1037.026	-1913
1037.090	-2434
1037.154	-1445
1037.217	-1796
1037.280	-1515
1037.344	-1010
1037.407	-2096
1037.471	-2287
1037.534	-1822
1037.597	-1917
1037.661	-2026
1037.724	-1922
1037.787	-956
1037.850	-2624
1037.913	-1736
1037.977	-1310
1038.040	-2190
1038.103	-2156
1038.166	-1747
1038.229	-1788
1038.292	-2527
1038.355	-1926
1038.418	-1714
1038.481	-1186
1038.544	-2843
1038.607	-1571
1038.670	-1896
1038.732	-1935
1038.795	-1851
1038.858	-1952
1038.921	-1835
1038.984	-1451
1039.046	-2130
1039.109	-2088
1039.172	-2680
1039.234	-2114
1039.297	-2011
1039.360	-2200
1039.422	-2007
1039.485	-1620
1039.547	-2296
1039.610	-1864
1039.672	-2372
1039.734	-1869
1039.797	-2691
1039.859	-1555
1039.922	-1758
1039.984	-2101
1040.046	-2161
1040.109	-1888
1040.171	-1833
1040.233	-2192
1040.295	-1819
1040.358	-2294
1040.420	-2093
1040.482	-2571
1040.544	-2400
1040.606	-1962
1040.668	-2066
1040.730	-2210
1040.792	-1938
1040.854	-1853
1040.916	-2533
1040.978	-2365
1041.040	-1723
1041.102	-1591
1041.164	-1694
1041.225	-2565
1041.287	-1540
1041.349	-1970
1041.411	-2469
1041.472	-1986
1041.534	-1367
1041.596	-1925
1041.657	-2420
1041.719	-2101
1041.781	-2128
1041.842	-1480
1041.904	-2553
1041.965	-1339
1042.027	-2562
1042.088	-1800
1042.150	-2111
1042.211	-1231
1042.272	-1948
1042.334	-1947
1042.395	-1741
1042.456	-1800
1042.518	-2288
1042.579	-1648
1042.640	-1642
1042.701	-1052
1042.763	-2459
1042.824	-2110
1042.885	-1872
1042.946	-2480
1043.007	-2259
1043.068	-1400
1043.129	-2240
1043.190	-1772
1043.251	-1697
1043.312	-1719
1043.373	-1663
1043.434	-1119
1043.495	-2353
1043.556	-1419
1043.616	-1571
1043.677	-1304
1043.738	-1157
1043.799	-1694
1043.859	-1994
1043.920	-2317
1043.981	-2249
1044.041	-1596
1044.102	-2112
1044.162	-1666
1044.223	-2013
1044.284	-1907
1044.344	-2528
1044.405	-2324
1044.465	-795
1044.525	-2105
1044.586	-1828
1044.646	-1889
1044.707	-1750
1044.767	-1228
1044.827	-1743
1044.887	-2324
1044.948	-1881
1045.008	-1625
1045.068	-1899
1045.128	-1325
1045.188	-1481
1045.249	-1370
1045.309	-1838
1045.369	-1536
1045.429	-2242
1045.489	-1717
1045.549	-1436
1045.609	-1509
1045.669	-2047
1045.729	-2211
1045.789	-1957
1045.848	-1619
1045.908	-1293
1045.968	-1696
1046.028	-1358
1046.088	-1614
1046.147	-1493
1046.207	-1630
1046.267	-2118
1046.326	-928
1046.386	-1490
1046.446	-1054
1046.505	-1895
1046.565	-321
1046.624	-1058
1046.684	-1197
1046.743	-1569
1046.803	235
1046.862	-519
1046.922	0
