'Start Wavelength	183.907
'End Wavelength	1046.922
'Gate Delay	5.000
'Gate Width (ms)	1.050
'Laser Output Level	0.000
'X Position	0.000
'Y Position	0.000
'Z Position	0.000
'Grid Point Number	1.000
'Shot Number	100.000
183.907	127.000
183.977	288.000
184.047	-705
184.116	240
184.186	664
184.256	246
184.325	-179
184.395	-933
184.465	884
184.534	-534
184.604	-239
184.674	136
184.743	169
184.813	375
184.883	837
184.952	537
185.022	549
185.092	-137
185.161	389
185.231	-342
185.301	-46
185.370	175
185.440	-296
185.509	-530
185.579	-82
185.649	67
185.718	722
185.788	319
185.857	437
185.927	-139
185.996	142
186.066	159
186.136	-164
186.205	424
186.275	247
186.344	382
186.414	139
186.483	-12
186.553	1046
186.622	970
186.692	-266
186.761	-323
186.831	-393
186.900	576
186.970	842
187.039	890
187.109	627
187.178	33
187.248	150
187.317	923
187.387	502
187.456	649
187.526	737
187.595	784
187.664	101
187.734	590
187.803	118
187.873	480
187.942	183
188.012	455
188.081	476
188.150	891
188.220	450
188.289	501
188.358	445
188.428	924
188.497	803
188.567	917
188.636	83
188.705	123
188.775	240
188.844	-70
188.913	797
188.983	399
189.052	168
189.121	468
189.191	624
189.260	749
189.329	520
189.399	807
189.468	151
189.537	387
189.606	306
189.676	122
189.745	-279
189.814	443
189.883	162
189.953	728
190.022	764
190.091	1548
190.161	1487
190.230	1092
190.299	203
190.368	437
190.437	-466
190.507	-329
190.576	-340
190.645	661
190.714	61
190.783	-369
190.853	704
190.922	447
190.991	-218
191.060	593
191.129	-281
191.198	457
191.268	-210
191.337	219
191.406	188
191.475	347
191.544	-101
191.613	566
191.682	339
191.752	406
191.821	585
191.890	524
191.959	638
192.028	392
192.097	555
192.166	-1
192.235	518
192.304	449
192.373	303
192.442	84
192.511	191
192.580	477
192.650	158
192.719	311
192.788	437
192.857	-146
192.926	-9
192.995	639
193.064	438
193.133	536
193.202	388
193.271	-157
193.340	477
193.409	715
193.478	1326
193.547	301
193.615	873
193.684	1531
193.753	504
193.822	1288
193.891	814
193.960	164
194.029	16
194.098	484
194.167	-186
194.236	504
194.305	828
194.374	306
194.443	276
194.512	1198
194.580	222
194.649	783
194.718	1623
194.787	435
194.856	-483
194.925	291
194.994	653
195.062	948
195.131	984
195.200	903
195.269	1097
195.338	1267
195.407	467
195.475	170
195.544	1274
195.613	278
195.682	1032
195.751	960
195.819	1080
195.888	760
195.957	1806
196.026	942
196.094	446
196.163	1237
196.232	463
196.301	501
196.369	1050
196.438	712
196.507	926
196.576	61
196.644	809
196.713	574
196.782	527
196.850	771
196.919	1038
196.988	739
197.056	479
197.125	747
197.194	756
197.262	308
197.331	364
197.400	1062
197.468	778
197.537	-16
197.606	356
197.674	1659
197.743	1753
197.812	265
197.880	1835
197.949	1375
198.017	1603
198.086	403
198.155	1047
198.223	784
198.292	1294
198.360	1460
198.429	548
198.497	-46
198.566	1422
198.635	2397
198.703	1659
198.772	561
198.840	3005
198.909	1168
198.977	90
199.046	686
199.114	-194
199.183	1119
199.251	51
199.320	675
199.388	454
199.457	704
199.525	586
199.594	664
199.662	536
199.731	275
199.799	1079
199.867	161
199.936	-112
200.004	730
200.073	498
200.141	467
200.210	743
200.278	-141
200.346	658
200.415	821
200.483	1889
200.552	719
200.620	462
200.688	601
200.757	269
200.825	207
200.893	-105
200.962	625
201.030	-303
201.098	418
201.167	504
201.235	715
201.303	587
201.372	865
201.440	571
201.508	1159
201.577	743
201.645	361
201.713	761
201.781	629
201.850	1363
201.918	940
201.986	986
202.055	721
202.123	497
202.191	334
202.259	762
202.327	645
202.396	880
202.464	382
202.532	1714
202.600	3071
202.669	1555
202.737	674
202.805	1027
202.873	851
202.941	506
203.009	758
203.078	322
203.146	726
203.214	70
203.282	510
203.350	356
203.418	101
203.487	323
203.555	470
203.623	361
203.691	618
203.759	385
203.827	70
203.895	576
203.963	258
204.031	793
204.099	777
204.168	601
204.236	794
204.304	278
204.372	310
204.440	332
204.508	267
204.576	145
204.644	430
204.712	430
204.780	40
204.848	330
204.916	243
204.984	307
205.052	308
205.120	-230
205.188	-193
205.256	421
205.324	715
205.392	-26
205.460	1061
205.528	841
205.596	337
205.664	759
205.732	525
205.799	2687
205.867	4009
205.935	464
206.003	1777
206.071	903
206.139	970
206.207	721
206.275	7
206.343	556
206.411	1247
206.478	75
206.546	476
206.614	647
206.682	132
206.750	611
206.818	1151
206.885	1471
206.953	476
207.021	1344
207.089	759
207.157	386
207.225	714
207.292	346
207.360	970
207.428	941
207.496	638
207.563	662
207.631	1020
207.699	44
207.767	754
207.834	-130
207.902	1556
207.970	1208
208.038	1016
208.105	188
208.173	859
208.241	455
208.309	1700
208.376	2087
208.444	2359
208.512	1289
208.579	374
208.647	1538
208.715	1574
208.782	795
208.850	852
208.918	549
208.985	924
209.053	902
209.120	985
209.188	540
209.256	1264
209.323	962
209.391	1118
209.459	1726
209.526	1252
209.594	542
209.661	1105
209.729	1253
209.796	1042
209.864	1548
209.932	1132
209.999	1317
210.067	977
210.134	1299
210.202	667
210.269	2069
210.337	2058
210.404	1233
210.472	571
210.539	1240
210.607	690
210.674	2134
210.742	1464
210.809	1347
210.877	894
210.944	1996
211.012	158
211.079	1934
211.146	269
211.214	841
211.281	2458
211.349	1889
211.416	1747
211.484	1337
211.551	1693
211.618	373
211.686	1144
211.753	528
211.821	1291
211.888	1410
211.955	1350
212.023	1236
212.090	947
212.157	1197
212.225	444
212.292	3047
212.359	4202
212.427	10778
212.494	4541
212.561	1984
212.629	1713
212.696	1503
212.763	850
212.831	1244
212.898	1078
212.965	535
213.032	800
213.100	2050
213.167	549
213.234	1663
213.301	1520
213.369	812
213.436	1068
213.503	905
213.570	1189
213.638	1723
213.705	1326
213.772	420
213.839	1253
213.906	1898
213.973	2426
214.041	818
214.108	1331
214.175	1104
214.242	718
214.309	817
214.376	1307
214.444	1085
214.511	1282
214.578	1682
214.645	1780
214.712	1183
214.779	1464
214.846	787
214.913	2031
214.980	1841
215.048	2659
215.115	2547
215.182	2099
215.249	1613
215.316	800
215.383	2294
215.450	1238
215.517	1503
215.584	1245
215.651	1214
215.718	1484
215.785	1790
215.852	1497
215.919	3263
215.986	2359
216.053	1341
216.120	879
216.187	1931
216.254	1992
216.321	1597
216.388	1762
216.455	1769
216.522	1694
216.589	2444
216.656	3922
216.722	3634
216.789	2833
216.856	2395
216.923	1775
216.990	1777
217.057	1623
217.124	2380
217.191	1937
217.258	2887
217.324	2851
217.391	3395
217.458	2179
217.525	2014
217.592	2146
217.659	1490
217.725	1737
217.792	3358
217.859	2585
217.926	1169
217.993	1189
218.059	840
218.126	1969
218.193	906
218.260	1451
218.327	1065
218.393	1605
218.460	924
218.527	810
218.594	1099
218.660	2358
218.727	2816
218.794	1561
218.860	1086
218.927	760
218.994	667
219.061	1209
219.127	1819
219.194	3147
219.261	1216
219.327	1059
219.394	1828
219.461	763
219.527	363
219.594	2188
219.661	823
219.727	379
219.794	452
219.860	909
219.927	67
219.994	2323
220.060	4690
220.127	2850
220.193	1504
220.260	1500
220.326	2662
220.393	3180
220.460	5204
220.526	2489
220.593	1853
220.659	2394
220.726	2997
220.792	5478
220.859	4089
220.925	6205
220.992	8730
221.058	8954
221.125	7912
221.191	6040
221.258	1312
221.324	1482
221.391	1432
221.457	1215
221.524	1383
221.590	1599
221.657	7197
221.723	5040
221.789	5186
221.856	4096
221.922	2094
221.989	1737
222.055	1335
222.121	814
222.188	3524
222.254	1831
222.321	837
222.387	960
222.453	1668
222.520	903
222.586	1169
222.652	1318
222.719	348
222.785	1000
222.851	644
222.918	459
222.984	93
223.050	845
223.116	490
223.183	1423
223.249	-81
223.315	445
223.382	560
223.448	1267
223.514	199
223.580	96
223.647	515
223.713	816
223.779	769
223.845	710
223.911	1235
223.978	680
224.044	757
224.110	842
224.176	887
224.242	1197
224.309	792
224.375	1509
224.441	715
224.507	971
224.573	389
224.639	910
224.705	676
224.772	825
224.838	719
224.904	1584
224.970	1218
225.036	718
225.102	768
225.168	1675
225.234	1275
225.300	859
225.366	1329
225.432	1051
225.499	873
225.565	1361
225.631	1041
225.697	1190
225.763	1760
225.829	2136
225.895	2360
225.961	3081
226.027	2368
226.093	2381
226.159	2391
226.225	3110
226.291	7391
226.357	12998
226.423	6265
226.489	3535
226.554	2780
226.620	2329
226.686	3317
226.752	4443
226.818	5698
226.884	16856
226.950	15034
227.016	6228
227.082	3634
227.148	2991
227.214	3223
227.279	3465
227.345	1832
227.411	2651
227.477	3374
227.543	6563
227.609	6140
227.674	3108
227.740	2520
227.806	2211
227.872	1479
227.938	1676
228.003	2924
228.069	960
228.135	1092
228.201	917
228.267	1245
228.332	2067
228.398	2495
228.464	2360
228.530	958
228.595	1587
228.661	-9
228.727	2679
228.792	1567
228.858	1204
228.924	959
228.990	3379
229.055	2145
229.121	3082
229.187	1665
229.252	1773
229.318	739
229.384	1714
229.449	1505
229.515	215
229.581	636
229.646	1997
229.712	2203
229.777	3953
229.843	3696
229.909	3535
229.974	2545
230.040	3220
230.105	2487
230.171	2281
230.236	3018
230.302	4895
230.368	3776
230.433	2256
230.499	1657
230.564	1993
230.630	1324
230.695	1426
230.761	2139
230.826	853
230.892	3120
230.957	928
231.023	1274
231.088	806
231.154	502
231.219	1497
231.284	2401
231.350	2688
231.415	1176
231.481	1478
231.546	1104
231.612	2150
231.677	770
231.742	514
231.808	2335
231.873	898
231.939	364
232.004	3859
232.069	2932
232.135	817
232.200	1288
232.265	1161
232.331	1136
232.396	619
232.461	995
232.527	1318
232.592	450
232.657	1773
232.723	3127
232.788	2106
232.853	1483
232.918	847
232.984	1232
233.049	1328
233.114	2956
233.179	3104
233.245	4019
233.310	5248
233.375	1772
233.440	1572
233.506	454
233.571	1093
233.636	1553
233.701	1511
233.766	3135
233.832	3671
233.897	1870
233.962	1266
234.027	2995
234.092	2166
234.157	1181
234.222	2088
234.288	3428
234.353	8960
234.418	9064
234.483	4927
234.548	2727
234.613	3228
234.678	2709
234.743	2774
234.808	10082
234.873	6047
234.938	3712
235.004	2675
235.069	1295
235.134	1813
235.199	2074
235.264	1294
235.329	1391
235.394	1481
235.459	2916
235.524	2220
235.589	1541
235.654	1143
235.719	974
235.784	2637
235.849	2224
235.913	5135
235.978	5497
236.043	6416
236.108	2664
236.173	1891
236.238	2876
236.303	1670
236.368	1402
236.433	2875
236.498	5498
236.563	3243
236.627	6309
236.692	22951
236.757	15336
236.822	6633
236.887	5298
236.952	4279
237.017	2506
237.081	4277
237.146	4702
237.211	8842
237.276	21373
237.341	38585
237.405	16286
237.470	7242
237.535	5597
237.600	4080
237.664	2808
237.729	2102
237.794	2859
237.859	5849
237.923	4814
237.988	2637
238.053	4194
238.118	5035
238.182	13089
238.247	10704
238.312	4989
238.376	4309
238.441	2381
238.506	3425
238.570	283
238.635	2634
238.700	1958
238.764	1597
238.829	5880
238.893	6721
238.958	3840
239.023	3462
239.087	1894
239.152	2817
239.216	2267
239.281	2049
239.346	1782
239.410	2286
239.475	2201
239.539	12097
239.604	8312
239.668	3862
239.733	1708
239.797	4066
239.862	11011
239.926	11992
239.991	4980
240.055	2445
240.120	2229
240.184	2430
240.249	1414
240.313	2051
240.378	1423
240.442	8048
240.507	11041
240.571	4261
240.635	4945
240.700	7213
240.764	3375
240.829	2741
240.893	538
240.957	3069
241.022	7358
241.086	12547
241.151	5647
241.215	1626
241.279	4193
241.344	6602
241.408	3048
241.472	3050
241.537	3539
241.601	2664
241.665	1215
241.730	2452
241.794	2843
241.858	1482
241.922	3000
241.987	2278
242.051	1109
242.115	1300
242.179	2022
242.244	970
242.308	2531
242.372	2124
242.436	2079
242.501	2347
242.565	1162
242.629	1608
242.693	2508
242.757	1921
242.822	1606
242.886	2719
242.950	3529
243.014	2304
243.078	3279
243.142	3881
243.206	2083
243.271	2371
243.335	1884
243.399	4263
243.463	14893
243.527	36696
243.591	11466
243.655	6507
243.719	2751
243.783	4582
243.847	6679
243.911	7936
243.975	10058
244.040	6405
244.104	4135
244.168	3097
244.232	4998
244.296	6841
244.360	7104
244.424	3758
244.488	3440
244.552	3672
244.615	2039
244.679	2618
244.743	3567
244.807	3894
244.871	2494
244.935	2568
244.999	1155
245.063	2244
245.127	3189
245.191	4746
245.255	5156
245.319	5005
245.383	3290
245.446	3548
245.510	2203
245.574	2895
245.638	3179
245.702	2376
245.766	8425
245.829	4582
245.893	2765
245.957	2804
246.021	2905
246.085	3384
246.149	3913
246.212	11017
246.276	13598
246.340	7381
246.404	4815
246.467	5728
246.531	7567
246.595	4987
246.659	5362
246.722	4280
246.786	5516
246.850	6846
246.913	7434
246.977	2705
247.041	3583
247.104	3801
247.168	4050
247.232	10999
247.295	19701
247.359	9515
247.423	5107
247.486	9143
247.550	5951
247.614	4522
247.677	6454
247.741	4690
247.804	3306
247.868	4170
247.932	9260
247.995	18268
248.059	7252
248.122	3089
248.186	5583
248.249	9630
248.313	30868
248.376	29113
248.440	19313
248.503	7297
248.567	7215
248.630	10210
248.694	13364
248.757	17143
248.821	31726
248.884	19214
248.948	17848
249.011	25091
249.075	37935
249.138	32491
249.202	12828
249.265	8788
249.328	10500
249.392	7706
249.455	6878
249.519	5075
249.582	5777
249.645	11508
249.709	7287
249.772	4970
249.835	5171
249.899	5695
249.962	5338
250.025	4881
250.089	12567
250.152	17098
250.215	8424
250.279	6716
250.342	6309
250.405	6085
250.468	4447
250.532	6967
250.595	11089
250.658	37229
250.721	55569
250.785	21160
250.848	12782
250.911	7325
250.974	7411
251.038	9738
251.101	19274
251.164	9029
251.227	11983
251.290	10310
251.354	13906
251.417	50006
251.480	46328
251.543	33750
251.606	87405
251.669	62305
251.732	25897
251.795	27381
251.859	28039
251.922	55954
251.985	31892
252.048	13860
252.111	10020
252.174	10049
252.237	18647
252.300	38904
252.363	41311
252.426	71908
252.489	30741
252.552	16798
252.615	11759
252.678	13846
252.741	28273
252.804	35713
252.867	72294
252.930	46044
252.993	25637
253.056	16795
253.119	10577
253.182	9444
253.245	14586
253.308	12411
253.371	11935
253.434	10957
253.497	10544
253.559	19469
253.622	13195
253.685	18756
253.748	19226
253.811	8597
253.874	11361
253.937	10023
254.000	7969
254.062	13309
254.125	19353
254.188	17824
254.251	15376
254.314	8371
254.376	14762
254.439	17435
254.502	14519
254.565	14335
254.628	23389
254.690	16142
254.753	9085
254.816	8171
254.878	8789
254.941	14794
255.004	14386
255.067	7144
255.129	7103
255.192	5112
255.255	4399
255.317	5765
255.380	4246
255.443	2392
255.505	3084
255.568	2795
255.631	3123
255.693	4526
255.756	1770
255.819	4265
255.881	2424
255.944	2863
256.006	2194
256.069	2983
256.132	2634
256.194	4728
256.257	10799
256.319	7057
256.382	7577
256.444	4669
256.507	3957
256.569	2802
256.632	2763
256.694	5556
256.757	12404
256.819	32859
256.882	11975
256.944	6755
257.007	6641
257.069	6010
257.132	3311
257.194	2766
257.257	3698
257.319	3595
257.381	3241
257.444	9133
257.506	40761
257.569	42360
257.631	30564
257.693	14655
257.756	6739
257.818	7144
257.880	3818
257.943	4295
258.005	2768
258.067	3159
258.130	2786
258.192	4714
258.254	11155
258.317	5339
258.379	4550
258.441	12131
258.503	10566
258.566	13531
258.628	17440
258.690	4730
258.753	5517
258.815	10459
258.877	4268
258.939	3281
259.001	3321
259.064	2910
259.126	4053
259.188	6014
259.250	4353
259.312	6078
259.375	18476
259.437	10593
259.499	3719
259.561	4384
259.623	3930
259.685	3673
259.747	3378
259.809	13338
259.872	22837
259.934	34657
259.996	27111
260.058	8200
260.120	3560
260.182	3621
260.244	3756
260.306	2272
260.368	3888
260.430	2904
260.492	5456
260.554	14853
260.616	13213
260.678	20491
260.740	24338
260.802	6438
260.864	6109
260.926	4200
260.988	5073
261.050	3910
261.112	6198
261.174	21190
261.236	17280
261.298	6001
261.359	11437
261.421	15033
261.483	4917
261.545	4056
261.607	1892
261.669	3718
261.731	7869
261.793	18802
261.854	7476
261.916	5363
261.978	3597
262.040	3885
262.102	4607
262.164	7767
262.225	5736
262.287	3032
262.349	10923
262.411	8325
262.472	4140
262.534	7931
262.596	16420
262.658	5271
262.719	3251
262.781	5291
262.843	15852
262.904	6681
262.966	4767
263.028	6021
263.090	29225
263.151	64652
263.213	19804
263.275	11392
263.336	5977
263.398	4611
263.459	3236
263.521	2912
263.583	10077
263.644	6487
263.706	3140
263.767	2099
263.829	2744
263.891	1348
263.952	1677
264.014	1039
264.075	2164
264.137	5179
264.198	4325
264.260	1414
264.321	2272
264.383	6683
264.444	9582
264.506	3359
264.567	2525
264.629	3067
264.690	4367
264.752	3755
264.813	2774
264.875	981
264.936	2384
264.998	1679
265.059	1516
265.120	2466
265.182	3565
265.243	17048
265.305	13836
265.366	3723
265.427	2898
265.489	2798
265.550	1250
265.611	3036
265.673	2685
265.734	1582
265.795	1682
265.857	1555
265.918	652
265.979	5107
266.040	28938
266.102	20748
266.163	6689
266.224	5552
266.286	3813
266.347	1983
266.408	3021
266.469	2848
266.530	2536
266.592	1694
266.653	6258
266.714	10984
266.775	3268
266.836	2202
266.898	1409
266.959	2710
267.020	2487
267.081	2500
267.142	1392
267.203	1576
267.264	1384
267.326	2947
267.387	1329
267.448	1136
267.509	2298
267.570	2652
267.631	1435
267.692	912
267.753	2495
267.814	1249
267.875	5625
267.936	12681
267.997	4804
268.058	4102
268.119	2652
268.180	3508
268.241	1985
268.302	1880
268.363	1647
268.424	2509
268.485	2766
268.546	1283
268.607	1242
268.668	2067
268.729	291
268.790	2826
268.851	2689
268.912	8581
268.972	10755
269.033	5316
269.094	2353
269.155	2770
269.216	1987
269.277	1668
269.338	1603
269.398	1993
269.459	3401
269.520	4386
269.581	6989
269.642	8386
269.702	4669
269.763	3112
269.824	2164
269.885	4396
269.945	7327
270.006	2197
270.067	1456
270.128	1148
270.188	1896
270.249	1544
270.310	737
270.370	2105
270.431	1216
270.492	665
270.553	2643
270.613	6987
270.674	14453
270.734	5320
270.795	2757
270.856	5739
270.916	3824
270.977	1813
271.038	3689
271.098	3995
271.159	6016
271.219	6035
271.280	2781
271.340	3211
271.401	3284
271.462	10099
271.522	5475
271.583	3150
271.643	3117
271.704	3625
271.764	4316
271.825	10058
271.885	32068
271.946	38839
272.006	14044
272.066	18767
272.127	30666
272.187	10316
272.248	6314
272.308	6428
272.369	22344
272.429	11689
272.489	10103
272.550	9596
272.610	11292
272.671	8057
272.731	7757
272.791	12648
272.852	7000
272.912	6170
272.972	3562
273.033	4232
273.093	5250
273.153	6419
273.214	4881
273.274	4375
273.334	15884
273.394	32139
273.455	14573
273.515	14126
273.575	29453
273.635	12490
273.696	17180
273.756	30239
273.816	13131
273.876	8122
273.936	15843
273.997	26154
274.057	7245
274.117	5724
274.177	9945
274.237	39989
274.297	32416
274.358	24346
274.418	26144
274.478	19479
274.538	8755
274.598	7315
274.658	23615
274.718	28514
274.778	11110
274.838	5614
274.898	13810
274.958	40071
275.018	32772
275.078	20304
275.138	10041
275.198	5276
275.258	4162
275.318	6355
275.378	11637
275.438	12327
275.498	7981
275.558	19058
275.618	37224
275.678	23497
275.738	15319
275.798	10445
275.858	4619
275.918	3419
275.978	5136
276.038	4705
276.098	3349
276.157	9363
276.217	26614
276.277	11361
276.337	9114
276.397	5174
276.457	6286
276.517	4060
276.576	2788
276.636	3086
276.696	6461
276.756	15619
276.815	11290
276.875	5721
276.935	6931
276.995	5084
277.055	4045
277.114	4159
277.174	6672
277.234	20616
277.293	9291
277.353	5600
277.413	3982
277.472	4299
277.532	5153
277.592	5656
277.651	18475
277.711	33782
277.771	11727
277.830	42824
277.890	32702
277.950	22742
278.009	59663
278.069	21535
278.128	24736
278.188	35320
278.248	15858
278.307	37958
278.367	21444
278.426	7660
278.486	5764
278.545	4179
278.605	4716
278.664	3960
278.724	4750
278.783	13626
278.843	32343
278.902	10654
278.962	6754
279.021	7419
279.081	8807
279.140	8325
279.199	6624
279.259	6881
279.318	6735
279.378	9171
279.437	19394
279.496	63129
279.556	152313
279.615	116202
279.675	35474
279.734	21502
279.793	32082
279.853	47043
279.912	18960
279.971	11238
280.031	10823
280.090	19384
280.149	33579
280.208	25804
280.268	100756
280.327	101094
280.386	27331
280.445	23043
280.505	21153
280.564	9630
280.623	8002
280.682	13997
280.742	19721
280.801	6822
280.860	5540
280.919	4276
280.978	4095
281.037	3929
281.097	3952
281.156	3605
281.215	3598
281.274	6498
281.333	24978
281.392	17604
281.451	5207
281.510	4883
281.569	3646
281.628	2933
281.688	3217
281.747	4347
281.806	3575
281.865	2805
281.924	2947
281.983	3848
282.042	2593
282.101	2854
282.160	3019
282.219	2623
282.278	4299
282.337	15223
282.396	10354
282.454	4672
282.513	5647
282.572	23126
282.631	12859
282.690	4656
282.749	3547
282.808	5183
282.867	4360
282.926	5736
282.985	3452
283.043	3051
283.102	3878
283.161	4024
283.220	10434
283.279	23437
283.338	7876
283.396	5223
283.455	5125
283.514	5608
283.573	8439
283.631	6222
283.690	4557
283.749	4213
283.808	10788
283.866	12786
283.925	4417
283.984	4585
284.043	6901
284.101	7752
284.160	4320
284.219	5429
284.277	5329
284.336	9477
284.395	30602
284.453	26806
284.512	9719
284.570	12643
284.629	12326
284.688	10871
284.746	11516
284.805	14216
284.863	18098
284.922	22179
284.981	24049
285.039	34782
285.098	60166
285.156	133269
285.215	199226
285.273	193625
285.332	137159
285.390	76513
285.449	47855
285.507	33614
285.566	24323
285.624	19403
285.683	15287
285.741	11795
285.799	10320
285.858	9081
285.916	8308
285.975	7192
286.033	5753
286.091	4736
286.150	4405
286.208	5215
286.267	6167
286.325	6140
286.383	10231
286.442	8684
286.500	4790
286.558	4111
286.616	3928
286.675	6379
286.733	5988
286.791	5185
286.850	5594
286.908	8072
286.966	14049
287.024	5542
287.083	3719
287.141	3476
287.199	4019
287.257	7168
287.315	5040
287.374	6084
287.432	14487
287.490	9564
287.548	5301
287.606	3765
287.664	4348
287.723	6391
287.781	7402
287.839	4954
287.897	5604
287.955	6047
288.013	10345
288.071	24695
288.129	86873
288.187	212860
288.245	97664
288.303	33816
288.361	19419
288.419	14415
288.477	10003
288.535	7853
288.593	5846
288.651	5007
288.709	4319
288.767	4668
288.825	4003
288.883	3008
288.941	1972
288.999	2418
289.057	2857
289.115	2448
289.173	3103
289.231	3651
289.289	2963
289.346	3927
289.404	4214
289.462	8517
289.520	8869
289.578	4101
289.636	2071
289.694	1953
289.751	1905
289.809	3146
289.867	2855
289.925	3846
289.983	5574
290.040	2736
290.098	2110
290.156	3339
290.214	4460
290.271	2675
290.329	2177
290.387	2484
290.444	2351
290.502	1046
290.560	1513
290.617	1648
290.675	2409
290.733	2232
290.790	4214
290.848	2571
290.906	2966
290.963	3258
291.021	3110
291.078	2927
291.136	2720
291.194	9805
291.251	22580
291.309	7343
291.366	3088
291.424	3151
291.481	3164
291.539	3923
291.596	2756
291.654	1810
291.711	2080
291.769	3073
291.826	9323
291.884	5649
291.941	3029
291.999	3109
292.056	3866
292.114	4426
292.171	3186
292.228	3934
292.286	4981
292.343	9481
292.401	11924
292.458	7527
292.515	5383
292.573	6631
292.630	6495
292.687	6141
292.745	3703
292.802	4895
292.859	11351
292.917	28316
292.974	17617
293.031	6585
293.089	3555
293.146	3635
293.203	3088
293.260	2920
293.318	5195
293.375	4765
293.432	2613
293.489	2826
293.546	2559
293.604	6203
293.661	16726
293.718	39730
293.775	21298
293.832	12249
293.889	9800
293.947	10800
294.004	8046
294.061	7880
294.118	14454
294.175	24739
294.232	20054
294.289	9400
294.346	6363
294.403	5300
294.460	4401
294.517	4799
294.574	4968
294.631	3451
294.688	5269
294.745	13055
294.802	41246
294.859	36988
294.916	19098
294.973	12519
295.030	10667
295.087	9779
295.144	5404
295.201	4414
295.258	4749
295.315	6516
295.372	19352
295.429	35799
295.486	16418
295.542	8720
295.599	11598
295.656	19394
295.713	19705
295.770	31456
295.827	13700
295.883	6624
295.940	7390
295.997	10837
296.054	13109
296.111	6947
296.167	5241
296.224	3531
296.281	3103
296.338	3227
296.394	2933
296.451	5511
296.508	15606
296.564	28284
296.621	19872
296.678	38458
296.734	52162
296.791	20806
296.848	11283
296.904	12490
296.961	28799
297.018	42240
297.074	29352
297.131	10993
297.187	8112
297.244	14101
297.301	37337
297.357	64241
297.414	25654
297.470	10510
297.527	7084
297.583	5936
297.640	6282
297.696	4848
297.753	3815
297.809	3437
297.866	3161
297.922	3100
297.979	3378
298.035	4600
298.092	10403
298.148	23554
298.204	24489
298.261	12901
298.317	18126
298.374	44446
298.430	29530
298.486	14459
298.543	9752
298.599	8161
298.656	9015
298.712	17409
298.768	41013
298.824	29356
298.881	10934
298.937	6556
298.993	5135
299.050	8207
299.106	6859
299.162	5663
299.218	5599
299.275	5341
299.331	6931
299.387	13384
299.443	42861
299.500	50844
299.556	24670
299.612	11035
299.668	9631
299.724	15025
299.780	18510
299.837	10977
299.893	14228
299.949	42221
300.005	52692
300.061	42825
300.117	61929
300.173	33537
300.229	15681
300.285	17475
300.341	21327
300.397	12934
300.453	7958
300.510	6360
300.566	7372
300.622	11439
300.678	31208
300.734	53973
300.790	44196
300.845	47702
300.901	35329
300.957	48497
301.013	37469
301.069	16168
301.125	10805
301.181	11239
301.237	8115
301.293	5585
301.349	5268
301.405	4553
301.461	4384
301.516	4902
301.572	6406
301.628	14315
301.684	13593
301.740	17549
301.796	27654
301.851	21491
301.907	32166
301.963	37169
302.019	50207
302.074	115750
302.130	117198
302.186	57133
302.242	24745
302.297	15219
302.353	16420
302.409	28056
302.464	25935
302.520	22266
302.576	46927
302.631	55268
302.687	34891
302.743	15570
302.798	8511
302.854	6701
302.910	7143
302.965	9251
303.021	17209
303.076	17708
303.132	22301
303.187	26001
303.243	14044
303.299	7858
303.354	5105
303.410	4896
303.465	4875
303.521	4419
303.576	5357
303.632	7617
303.687	13258
303.743	36576
303.798	32509
303.853	14945
303.909	8479
303.964	8181
304.020	12211
304.075	21664
304.130	19497
304.186	32206
304.241	34352
304.297	27665
304.352	15086
304.358	14421
304.407	9039
304.449	8584
304.463	8439
304.518	8758
304.539	8236
304.573	7415
304.629	8459
304.630	8549
304.684	12792
304.720	23701
304.739	29274
304.794	43536
304.811	38015
304.850	24899
304.902	11839
304.905	10988
304.960	7139
304.992	6716
305.015	6416
305.071	5887
305.083	5647
305.126	4830
305.173	3257
305.181	2982
305.236	3462
305.264	3967
305.292	4509
305.347	5999
305.354	6040
305.402	6373
305.445	6798
305.457	6899
305.512	8287
305.535	8992
305.567	9953
305.622	9873
305.626	10125
305.678	14969
305.716	29457
305.733	35247
305.788	43297
305.807	38035
305.843	28310
305.897	33376
305.898	33425
305.953	35344
305.988	24532
306.008	18355
306.063	11709
306.078	10646
306.118	8049
306.168	5813
306.173	5594
306.228	3843
306.259	4088
306.283	4386
306.338	3227
306.349	3254
306.393	3269
306.440	3680
306.448	3777
306.503	4001
306.530	4697
306.558	5503
306.613	10352
306.620	11405
306.668	18998
306.711	30310
306.723	32789
306.778	29299
306.801	23506
306.833	15976
306.888	7799
306.892	7546
306.943	5175
306.982	4315
306.997	3903
307.052	3631
307.072	3476
307.107	3242
307.162	3549
307.163	3566
307.217	4752
307.253	5213
307.272	5341
307.327	5710
307.343	5527
307.381	5132
307.434	5665
307.436	5755
307.491	9890
307.524	15756
307.546	18887
307.600	25885
307.614	23366
307.655	14501
307.704	7604
307.710	6994
307.765	5446
307.795	6252
307.819	7055
307.874	9980
307.885	9837
307.929	8462
307.975	7748
307.984	7722
308.038	9131
308.065	12020
308.093	17609
308.148	37169
308.156	43689
308.202	80026
308.246	99098
308.257	100390
308.312	58093
308.336	45550
308.366	34556
308.421	24378
308.426	23358
308.475	14116
308.517	9907
308.530	8715
308.585	7102
308.607	6673
308.639	6052
308.694	5437
308.697	5513
308.748	7922
308.787	10762
308.803	11179
308.857	9181
308.877	8342
308.912	7037
308.967	6759
308.967	6813
309.021	10205
309.058	14195
309.076	16865
309.130	30383
309.148	36637
309.185	58204
309.238	99614
309.239	99832
309.293	133564
309.328	120971
309.348	106190
309.402	53570
309.418	42518
309.457	27516
309.508	18381
309.511	17884
309.566	17140
309.598	18523
309.620	20891
309.674	31473
309.688	34604
309.729	36334
309.778	28929
309.783	28142
309.837	19489
309.868	16521
309.892	16300
309.946	20358
309.959	23072
310.001	31961
310.049	38337
310.055	37718
310.109	24740
310.139	16636
310.163	11880
310.218	6599
310.229	6024
310.272	4641
310.319	3929
310.326	3738
310.381	2690
310.409	2340
310.435	2299
310.489	2310
310.499	2351
310.543	2183
310.589	2058
310.598	1931
310.652	1266
310.679	1051
310.706	1269
310.760	1621
310.769	1667
310.814	1310
310.859	1107
310.868	1079
310.923	1172
310.948	1182
310.977	1283
311.031	1473
311.038	1555
311.085	1745
311.128	1628
311.139	1574
311.193	1465
311.218	1398
311.247	1310
311.301	1184
311.308	1195
311.356	1263
311.398	1344
311.410	1357
311.464	1384
311.488	1450
311.518	1036
311.572	365
311.578	318
311.626	1539
311.668	2606
311.680	2496
311.734	1958
311.758	1715
311.788	1636
311.842	1657
311.847	1681
311.896	1714
311.937	1794
311.950	1730
312.004	1535
312.027	1468
312.058	1274
312.112	999
312.117	993
312.165	1154
312.207	1338
312.297	782
312.386	753
312.476	1727
312.566	3203
312.656	1536
312.745	1487
312.835	1522
312.925	1229
313.015	529
313.104	828
313.194	900
313.284	771
313.374	1139
313.463	1400
313.553	1413
313.643	492
313.732	506
313.822	458
313.912	891
314.001	1320
314.091	1025
314.180	1428
314.270	2403
314.360	2003
314.449	1384
314.539	543
314.628	714
314.718	1516
314.808	1474
314.897	1593
314.987	1545
315.076	2066
315.166	1794
315.255	1916
315.345	2102
315.434	1620
315.524	917
315.613	1485
315.703	2785
315.792	5491
315.881	19820
315.971	6388
316.060	3572
316.150	3613
316.239	2858
316.328	1292
316.418	635
316.507	1214
316.597	2498
316.686	1226
316.775	1610
316.865	3315
316.954	1836
317.043	498
317.133	888
317.222	1165
317.311	971
317.400	944
317.490	2448
317.579	2339
317.668	2254
317.757	3566
317.847	10042
317.936	34835
318.025	12800
318.114	6267
318.203	3749
318.293	3604
318.382	5521
318.471	4790
318.560	4901
318.649	5333
318.738	1685
318.828	1135
318.917	1765
319.006	1520
319.095	4106
319.184	8901
319.273	7546
319.362	5448
319.451	850
319.540	2346
319.629	4219
319.718	7046
319.807	2664
319.896	3069
319.985	11223
320.074	6077
320.163	1423
320.252	2516
320.341	1595
320.430	1903
320.519	2056
320.608	1886
320.697	1150
320.786	1138
320.875	2183
320.964	3079
321.053	4956
321.142	6698
321.230	7581
321.319	5572
321.408	11252
321.497	5316
321.586	4990
321.675	3528
321.764	3613
321.852	3232
321.941	6160
322.030	4433
322.119	3947
322.207	11901
322.296	6151
322.385	2698
322.474	5891
322.562	15773
322.651	8394
322.740	5840
322.829	7688
322.917	4645
323.006	4109
323.095	3595
323.183	2215
323.272	2416
323.361	5175
323.449	13723
323.538	4615
323.626	9328
323.715	5894
323.804	1926
323.892	8231
323.981	6110
324.069	1582
324.158	3867
324.246	4383
324.335	2033
324.424	4679
324.512	1342
324.601	1601
324.689	2895
324.778	4284
324.866	4205
324.954	1188
325.043	911
325.131	2461
325.220	3719
325.308	3425
325.397	3236
325.485	2194
325.574	1483
325.662	974
325.750	1291
325.839	1790
325.927	692
326.015	951
326.104	292
326.192	1458
326.280	377
326.369	657
326.457	1141
326.545	2803
326.634	730
326.722	1033
326.810	634
326.898	1034
326.987	1639
327.075	2577
327.163	2809
327.251	1467
327.340	1845
327.428	2828
327.516	692
327.604	543
327.692	637
327.781	92
327.869	1104
327.957	635
328.045	1750
328.133	491
328.221	492
328.309	734
328.397	555
328.485	1917
328.574	2481
328.662	8855
328.750	3827
328.838	1023
328.926	890
329.014	788
329.102	1271
329.190	2205
329.278	2486
329.366	998
329.454	377
329.542	777
329.630	209
329.718	207
329.806	839
329.893	1017
329.981	934
330.069	1048
330.157	3205
330.245	7995
330.333	4012
330.421	1082
330.509	2695
330.597	9369
330.684	5678
330.772	645
330.860	795
330.948	1306
331.036	824
331.123	128
331.211	952
331.299	246
331.387	1172
331.475	2110
331.562	829
331.650	-179
331.738	226
331.825	831
331.913	-55
332.001	26
332.089	220
332.176	1330
332.264	2864
332.352	1556
332.439	650
332.527	1012
332.614	-176
332.702	761
332.790	62
332.877	1821
332.965	3819
333.052	1938
333.140	1904
333.228	3789
333.315	1078
333.403	563
333.490	1147
333.578	1956
333.665	6746
333.753	2493
333.840	120
333.928	1383
334.015	2271
334.103	4110
334.190	10786
334.278	3633
334.365	3170
334.452	2815
334.540	1384
334.627	504
334.715	2070
334.802	3212
334.889	14468
334.977	19371
335.064	5261
335.151	967
335.239	1246
335.326	1276
335.413	5016
335.501	6879
335.588	1737
335.675	569
335.762	696
335.850	2228
335.937	2432
336.024	5129
336.111	18963
336.199	13455
336.286	3196
336.373	1340
336.460	833
336.547	497
336.635	861
336.722	1697
336.809	728
336.896	1420
336.983	3413
337.070	7716
337.157	12117
337.245	8616
337.332	7023
337.419	808
337.506	433
337.593	546
337.680	1835
337.767	5262
337.854	2593
337.941	2228
338.028	2379
338.115	1084
338.202	1137
338.289	2008
338.376	8842
338.463	3130
338.550	2717
338.637	2695
338.724	1427
338.811	2842
338.898	-82
338.984	551
339.071	553
339.158	1840
339.245	3891
339.332	2934
339.419	1575
339.506	2082
339.593	797
339.679	1166
339.766	493
339.853	678
339.940	3025
340.027	514
340.113	593
340.200	1436
340.287	460
340.374	784
340.460	3009
340.547	996
340.634	2593
340.720	9794
340.807	6135
340.894	519
340.980	903
341.067	1095
341.154	974
341.240	1402
341.327	4705
341.414	1986
341.500	839
341.587	932
341.674	951
341.760	3212
341.847	3619
341.933	1084
342.020	-191
342.106	644
342.193	748
342.279	2004
342.366	1443
342.452	2867
342.539	1777
342.625	3540
342.712	10889
342.798	4043
342.885	1549
342.971	241
343.058	113
343.144	300
343.230	710
343.317	-47
343.403	-275
343.490	818
343.576	375
343.662	-430
343.749	1059
343.835	1466
343.921	3897
344.008	24820
344.094	61740
344.180	13486
344.267	4731
344.353	13946
344.439	13531
344.525	4906
344.612	1426
344.698	841
344.784	861
344.870	949
344.957	812
345.043	1724
345.129	801
345.215	2393
345.301	783
345.387	515
345.474	392
345.560	462
345.646	-559
345.732	740
345.818	579
345.904	1366
345.990	1616
346.076	1512
346.162	1221
346.249	1647
346.335	291
346.421	154
346.507	5920
346.593	23609
346.679	4845
346.765	484
346.851	1457
346.937	486
347.023	1766
347.108	1356
347.194	321
347.280	905
347.366	1369
347.452	7036
347.538	28082
347.624	20463
347.710	14471
347.796	1640
347.882	342
347.967	192
348.053	655
348.139	150
348.225	605
348.311	554
348.397	231
348.482	1175
348.568	1379
348.654	-143
348.740	2030
348.825	782
348.911	3444
348.997	12218
349.083	26561
349.168	4070
349.254	1073
349.340	398
349.425	573
349.511	665
349.597	501
349.682	3437
349.768	14245
349.854	6240
349.939	843
350.025	459
350.110	-61
350.196	458
350.282	-277
350.367	207
350.453	993
350.538	947
350.624	969
350.709	762
350.795	395
350.880	-5
350.966	1187
351.051	1233
351.137	697
351.222	1440
351.308	3863
351.393	11235
351.479	2165
351.564	-365
351.649	946
351.735	358
351.820	116
351.906	403
351.991	803
352.076	6086
352.162	11096
352.247	2365
352.332	891
352.418	1905
352.503	3148
352.588	16586
352.673	12832
352.759	2353
352.844	1143
352.929	1133
353.014	1824
353.100	1392
353.185	3226
353.270	3413
353.355	3229
353.441	1073
353.526	617
353.611	2512
353.696	3933
353.781	2252
353.866	373
353.952	959
354.037	2595
354.122	8303
354.207	6463
354.292	1412
354.377	579
354.462	558
354.547	871
354.632	202
354.717	2105
354.802	3088
354.887	1017
354.972	134
355.057	259
355.142	728
355.227	1405
355.312	1552
355.397	5094
355.482	11594
355.567	5394
355.652	3888
355.737	4187
355.822	15649
355.907	13325
355.991	2223
356.076	498
356.161	350
356.246	70
356.331	364
356.416	3529
356.501	29326
356.585	31939
356.670	2818
356.755	3363
356.840	3780
356.924	19447
357.009	71610
357.094	27375
357.179	4022
357.263	3084
357.348	2372
357.433	2572
357.517	2393
357.602	1451
357.687	1464
357.771	2447
357.856	1475
357.941	2417
358.025	13666
358.110	67565
358.195	31681
358.279	3883
358.364	3067
358.448	10633
358.533	29746
358.617	21519
358.702	21734
358.787	7621
358.871	3374
358.956	2623
359.040	1046
359.125	192
359.209	-526
359.294	64
359.378	1524
359.462	1957
359.547	1195
359.631	386
359.716	-155
359.800	427
359.885	842
359.969	608
360.053	861
360.138	233
360.222	1445
360.306	3304
360.391	2386
360.475	3302
360.559	7072
360.644	9513
360.728	7242
360.812	14749
360.896	44700
360.981	15250
361.065	5920
361.149	1738
361.233	1691
361.318	617
361.402	2060
361.486	1948
361.570	821
361.654	1344
361.739	4689
361.823	26345
361.907	45115
361.991	7109
362.075	2838
362.159	5837
362.243	5614
362.327	5143
362.411	10269
362.495	3787
362.580	1387
362.664	415
362.748	1152
362.832	1558
362.916	2320
363.000	15394
363.084	45436
363.168	57435
363.252	10747
363.336	3177
363.420	4241
363.503	8104
363.587	8226
363.671	2258
363.755	1002
363.839	3408
363.923	370
364.007	3956
364.091	2804
364.175	2513
364.258	16405
364.342	16501
364.426	37597
364.510	19886
364.594	6256
364.677	7375
364.761	38000
364.845	28358
364.929	6869
365.013	5567
365.096	3824
365.180	4581
365.264	3917
365.347	14037
365.431	5404
365.515	1151
365.598	-283
365.682	1480
365.766	-229
365.849	736
365.933	987
366.017	1801
366.100	-966
366.184	-19
366.267	195
366.351	413
366.435	-18
366.518	6
366.602	-19
366.685	496
366.769	553
366.852	1473
366.936	2889
367.019	2088
367.103	-677
367.186	855
367.270	-36
367.353	-258
367.436	825
367.520	192
367.603	1257
367.687	1949
367.770	3724
367.853	2210
367.937	10329
368.020	18388
368.104	3233
368.187	3383
368.270	4498
368.353	3605
368.437	3049
368.520	5826
368.603	5474
368.687	10628
368.770	22762
368.853	4789
368.936	3143
369.020	2750
369.103	1381
369.186	89
369.269	-451
369.352	2564
369.436	3650
369.519	1904
369.602	-311
369.685	2077
369.768	759
369.851	260
369.934	-104
370.018	746
370.101	2903
370.184	3516
370.267	1397
370.350	3054
370.433	5102
370.516	19235
370.599	29865
370.682	6501
370.765	11158
370.848	14758
370.931	27047
371.014	9610
371.097	268
371.180	803
371.263	1070
371.346	-405
371.429	614
371.511	-329
371.594	1658
371.677	2583
371.760	2302
371.843	3571
371.926	22274
372.009	56880
372.091	16822
372.174	10823
372.257	29793
372.340	10378
372.423	4072
372.505	4141
372.588	1262
372.671	8613
372.754	28347
372.836	13926
372.919	3289
373.002	6756
373.085	3195
373.167	4373
373.250	11426
373.332	28359
373.415	36220
373.498	78685
373.580	28756
373.663	40939
373.746	56316
373.828	10334
373.911	4044
373.993	2019
374.076	6290
374.159	5262
374.241	5792
374.324	22122
374.406	14481
374.489	21277
374.571	67439
374.654	26530
374.736	11765
374.819	39763
374.901	56902
374.983	59690
375.066	9497
375.148	2410
375.231	5104
375.313	10067
375.395	4988
375.478	1909
375.560	792
375.643	2346
375.725	10410
375.807	49431
375.890	34619
375.972	7108
376.054	4326
376.136	4474
376.219	2708
376.301	12927
376.383	43336
376.465	16067
376.548	7047
376.630	10374
376.712	35713
376.794	16167
376.877	1589
376.959	-48
377.041	1003
377.123	130
377.205	533
377.287	-291
377.369	500
377.452	242
377.534	436
377.616	375
377.698	988
377.780	-78
377.862	620
377.944	567
378.026	-369
378.108	525
378.190	125
378.272	479
378.354	227
378.436	158
378.518	-7
378.600	2872
378.682	4560
378.764	15533
378.846	12217
378.928	2235
379.010	3238
379.091	1766
379.173	971
379.255	-511
379.337	1180
379.419	6779
379.501	23833
379.583	8058
379.664	1786
379.746	4693
379.828	15210
379.910	20281
379.991	19001
380.073	2466
380.155	1793
380.237	1115
380.318	19
380.400	681
380.482	2845
380.564	4348
380.645	4018
380.727	3705
380.809	1892
380.890	851
380.972	209
381.053	931
381.135	1135
381.217	5126
381.298	16509
381.380	7358
381.461	6308
381.543	34220
381.624	43787
381.706	6631
381.787	2117
381.869	2990
381.951	13997
382.032	61126
382.113	38564
382.195	5384
382.276	4481
382.358	10127
382.439	31524
382.521	36548
382.602	59349
382.684	22961
382.765	40859
382.846	40655
382.928	60819
383.009	32389
383.090	18071
383.172	77691
383.253	133481
383.334	43935
383.416	50192
383.497	24961
383.578	7716
383.659	13663
383.741	60455
383.822	189091
383.903	97535
383.984	31539
384.066	57944
384.147	35089
384.228	6319
384.309	4047
384.390	2983
384.471	1639
384.553	1864
384.634	2756
384.715	2919
384.796	1472
384.877	2319
384.958	14230
385.039	17341
385.120	5556
385.201	2242
385.282	1452
385.363	1220
385.444	1453
385.525	5377
385.606	24025
385.687	22391
385.768	4128
385.849	3954
385.930	26400
386.011	49743
386.092	11857
386.173	1689
386.254	470
386.335	1508
386.416	1383
386.496	7567
386.577	14924
386.658	4124
386.739	1503
386.820	1456
386.901	73
386.981	1219
387.062	449
387.143	3029
387.224	15329
387.304	14256
387.385	4427
387.466	859
387.547	2483
387.627	2786
387.708	5801
387.789	29592
387.869	37353
387.950	10088
388.031	-45
388.111	-1242
388.192	950
388.273	2592
388.353	1652
388.434	1488
388.514	5332
388.595	29261
388.676	39515
388.756	16109
388.837	13555
388.917	7701
388.998	118
389.078	1286
389.159	1220
389.239	-1153
389.320	3277
389.400	886
389.480	5808
389.561	17058
389.641	8381
389.722	2494
389.802	3347
389.883	6674
389.963	21468
390.043	11622
390.124	770
390.204	4275
390.284	17204
390.365	9026
390.445	6527
390.525	22062
390.605	23298
390.686	8395
390.766	3445
390.846	1626
390.927	129
391.007	-586
391.087	2725
391.167	939
391.247	809
391.328	1406
391.408	1981
391.488	381
391.568	-141
391.648	1378
391.728	3252
391.808	3224
391.888	2944
391.969	9056
392.049	14720
392.129	6405
392.209	6502
392.289	21439
392.369	10416
392.449	3667
392.529	2339
392.609	4395
392.689	6692
392.769	20942
392.849	18179
392.929	10941
393.009	27337
393.089	24490
393.169	26488
393.248	77565
393.328	284619
393.408	322538
393.488	93811
393.568	26202
393.648	12114
393.728	6691
393.807	4028
393.887	3796
393.967	3244
394.047	2688
394.127	3217
394.206	4404
394.286	16138
394.366	83492
394.446	89837
394.525	15466
394.605	3170
394.685	2828
394.764	4653
394.844	7856
394.924	6697
395.003	3065
395.083	1711
395.163	2211
395.242	1334
395.322	1988
395.402	144
395.481	2147
395.561	3098
395.640	11351
395.720	12753
395.799	10007
395.879	7105
395.958	5033
396.038	20698
396.117	108836
396.197	118563
396.276	23819
396.356	6524
396.435	5292
396.515	5791
396.594	9049
396.673	21635
396.753	81821
396.832	264117
396.912	201673
396.991	47727
397.070	13412
397.150	5687
397.229	5260
397.308	7304
397.388	12070
397.467	5568
397.546	2148
397.625	-444
397.705	2693
397.784	1757
397.863	896
397.942	82
398.022	1452
398.101	1882
398.180	6496
398.259	2586
398.338	1126
398.417	511
398.497	749
398.576	1470
398.655	-597
398.734	1080
398.813	72
398.892	2070
398.971	6598
399.050	3304
399.129	-740
399.208	-382
399.287	797
399.366	-266
399.445	96
399.524	153
399.603	-1545
399.682	1093
399.761	3858
399.840	9082
399.919	6783
399.998	-208
400.077	-1369
400.156	-1519
400.235	1982
400.313	-574
400.392	83
400.471	7301
400.550	14135
400.629	2037
400.708	977
400.786	-294
400.865	85
400.944	56
401.023	1930
401.102	-926
401.180	-761
401.259	-426
401.338	-356
401.416	-119
401.495	-282
401.574	537
401.652	-339
401.731	1184
401.810	-428
401.888	-560
401.967	-475
402.046	379
402.124	753
402.203	-107
402.281	-138
402.360	1432
402.438	1557
402.517	-27
402.596	-557
402.674	-103
402.753	-855
402.831	279
402.910	570
402.988	6328
403.066	25701
403.145	14320
403.223	7109
403.302	20595
403.380	15683
403.459	15068
403.537	4538
403.615	1123
403.694	-768
403.772	321
403.850	-392
403.929	-382
404.007	-176
404.085	1855
404.164	1899
404.242	-501
404.320	374
404.398	1496
404.477	7419
404.555	45084
404.633	39554
404.711	4543
404.789	969
404.868	316
404.946	-880
405.024	-344
405.102	-618
405.180	-1313
405.258	-1708
405.336	112
405.415	-745
405.493	1301
405.571	1800
405.649	-1152
405.727	-1456
405.805	429
405.883	1048
405.961	445
406.039	-248
406.117	-759
406.195	1225
406.273	7556
406.351	37319
406.429	21438
406.507	946
406.585	-466
406.663	552
406.740	681
406.818	-161
406.896	-233
406.974	685
407.052	1436
407.130	20059
407.208	29983
407.285	5761
407.363	-503
407.441	494
407.519	-273
407.596	375
407.674	1079
407.752	5552
407.830	5115
407.907	1193
407.985	-202
408.063	407
408.141	-683
408.218	-791
408.296	-663
408.373	321
408.451	581
408.529	-126
408.606	-651
408.684	-471
408.762	-1147
408.839	-577
408.917	-832
408.994	-690
409.072	-1370
409.149	-356
409.227	776
409.304	1391
409.382	547
409.459	1710
409.537	2952
409.614	2117
409.692	732
409.769	1343
409.846	3356
409.924	3712
410.001	492
410.079	33
410.156	1026
410.233	-2
410.311	-340
410.388	-1237
410.465	225
410.543	-811
410.620	-143
410.697	-78
410.775	1267
410.852	-1513
410.929	666
411.006	1666
411.083	-565
411.161	1181
411.238	1349
411.315	-141
411.392	-1156
411.469	298
411.547	559
411.624	-1713
411.701	-997
411.778	364
411.855	1662
411.932	-75
412.009	-399
412.086	-120
412.163	307
412.240	-486
412.317	-358
412.394	-662
412.471	-38
412.548	-1041
412.625	-680
412.702	-304
412.779	166
412.856	-4
412.933	-741
413.010	-207
413.087	745
413.164	5500
413.241	10502
413.318	996
413.395	685
413.471	704
413.548	-307
413.625	-487
413.702	-1229
413.779	-241
413.855	-492
413.932	-1486
414.009	-1372
414.086	-844
414.162	-568
414.239	414
414.316	6696
414.393	16869
414.469	4961
414.546	-575
414.623	-1221
414.699	-924
414.776	-673
414.853	-886
414.929	-41
415.006	-1316
415.082	-1111
415.159	-717
415.236	-725
415.312	-223
415.389	947
415.465	599
415.542	-117
415.618	-1222
415.695	951
415.771	-261
415.848	-482
415.924	-825
416.000	-288
416.077	-308
416.153	-1527
416.230	-1800
416.306	-1082
416.383	-1134
416.459	-232
416.535	-1710
416.612	-1681
416.688	-1168
416.764	-771
416.841	-1385
416.917	-1271
416.993	-597
417.069	-576
417.146	-555
417.222	-164
417.298	-750
417.374	-1732
417.451	-347
417.527	-984
417.603	-713
417.679	-283
417.755	-911
417.831	-1014
417.908	-815
417.984	-1246
418.060	-942
418.136	1210
418.212	1193
418.288	33
418.364	-477
418.440	-497
418.516	167
418.592	-533
418.668	1941
418.744	4273
418.820	2865
418.896	-255
418.972	-913
419.048	-143
419.124	1362
419.200	-388
419.276	-518
419.352	-1830
419.428	-984
419.504	-1127
419.579	159
419.655	-103
419.731	-525
419.807	2721
419.883	4744
419.959	3423
420.034	840
420.110	1814
420.186	9741
420.262	8618
420.337	9
420.413	-178
420.489	-655
420.565	-4
420.640	-1053
420.716	-372
420.792	-1582
420.867	327
420.943	-724
421.019	396
421.094	-91
421.170	-761
421.245	-274
421.321	517
421.397	-1497
421.472	1244
421.548	1764
421.623	2232
421.699	940
421.774	116
421.850	93
421.925	2062
422.001	1858
422.076	1845
422.152	1484
422.227	3497
422.302	5336
422.378	8355
422.453	15841
422.529	40604
422.604	116171
422.679	186946
422.755	126059
422.830	46887
422.905	17929
422.981	8594
423.056	4779
423.131	3674
423.207	2530
423.282	1873
423.357	3477
423.432	3134
423.508	2976
423.583	5356
423.658	3761
423.733	668
423.808	689
423.883	1343
423.959	978
424.034	113
424.109	753
424.184	-342
424.259	-421
424.334	-157
424.409	-1196
424.484	-588
424.559	-556
424.634	67
424.709	619
424.784	779
424.859	-91
424.934	548
425.009	6914
425.084	12996
425.159	3500
425.234	205
425.309	-1080
425.384	-446
425.459	-1744
425.534	94
425.609	-1303
425.683	-802
425.758	-1099
425.833	-628
425.908	413
425.983	2340
426.058	12731
426.132	5451
426.207	-518
426.282	589
426.357	-1412
426.431	-243
426.506	-311
426.581	-541
426.655	-1226
426.730	-503
426.805	-1345
426.879	-357
426.954	-1331
427.029	320
427.103	11220
427.178	33672
427.253	15514
427.327	162
427.402	-418
427.476	-357
427.551	-510
427.625	-671
427.700	-828
427.774	-694
427.849	-309
427.923	-782
427.998	-1168
428.072	-1653
428.147	1085
428.221	11047
428.296	38472
428.370	20664
428.444	1399
428.519	171
428.593	-607
428.667	-433
428.742	636
428.816	1761
428.890	19213
428.965	34006
429.039	8499
429.113	991
429.188	547
429.262	-1225
429.336	286
429.410	4202
429.485	3005
429.559	-112
429.633	401
429.707	-930
429.781	1132
429.855	18953
429.930	34704
430.004	10271
430.078	5837
430.152	11911
430.226	46564
430.300	53514
430.374	8226
430.448	1102
430.522	1555
430.596	5996
430.670	8397
430.744	38554
430.818	61622
430.892	13152
430.966	946
431.040	-527
431.114	-1133
431.188	-732
431.262	-1198
431.336	-1391
431.410	-39
431.484	334
431.557	1763
431.631	-439
431.705	-125
431.779	5197
431.853	33168
431.927	25943
432.000	2212
432.074	-590
432.148	-1370
432.222	-1352
432.295	-1424
432.369	-1783
432.443	-659
432.516	10649
432.590	35103
432.664	13699
432.737	-48
432.811	-1200
432.885	-2080
432.958	-6
433.032	-1822
433.106	-1218
433.179	-849
433.253	-1208
433.326	-770
433.400	-956
433.473	-1298
433.547	-2496
433.620	-748
433.694	-734
433.767	436
433.841	-1990
433.914	-2171
433.988	-1521
434.061	-600
434.134	-2193
434.208	-1899
434.281	-1728
434.355	-1784
434.428	-1059
434.501	-1202
434.575	-1582
434.648	-1043
434.721	-1662
434.795	-1908
434.868	-1208
434.941	-1479
435.014	-1475
435.088	-1377
435.161	-746
435.234	61
435.307	1112
435.381	-463
435.454	-380
435.527	206
435.600	749
435.673	615
435.746	-330
435.819	-843
435.892	-614
435.966	-1274
436.039	-1262
436.112	-1151
436.185	-1168
436.258	-1697
436.331	-2254
436.404	-1351
436.477	-1841
436.550	-1640
436.623	-1665
436.696	-1594
436.769	-1353
436.842	-1385
436.915	-1681
436.987	-924
437.060	-1225
437.133	-631
437.206	-1464
437.279	-972
437.352	-1698
437.425	-963
437.498	-691
437.570	401
437.643	599
437.716	-926
437.789	-1380
437.861	-658
437.934	1635
438.007	940
438.080	-388
438.152	-239
438.225	734
438.298	14888
438.370	53843
438.443	26161
438.516	3963
438.588	-396
438.661	-1098
438.734	-1693
438.806	-924
438.879	-748
438.951	-425
439.024	588
439.096	-863
439.169	-1378
439.241	-834
439.314	-1976
439.386	-1411
439.459	-974
439.531	-963
439.604	-1045
439.676	-978
439.749	-1389
439.821	-1942
439.893	-1311
439.966	-850
440.038	-1390
440.110	-1187
440.183	-986
440.255	-1829
440.327	237
440.400	4056
440.472	28513
440.544	25656
440.617	2409
440.689	669
440.761	874
440.833	1448
440.905	1278
440.978	-819
441.050	-1675
441.122	-951
441.194	-1407
441.266	-1450
441.338	-2051
441.411	-599
441.483	7598
441.555	15343
441.627	4757
441.699	-200
441.771	-1365
441.843	-1065
441.915	-1549
441.987	-608
442.059	-1225
442.131	-231
442.203	-132
442.275	46
442.347	759
442.419	2133
442.491	14464
442.563	47027
442.635	25262
442.706	4381
442.778	3521
442.850	121
442.922	-851
442.994	-1276
443.066	17
443.137	458
443.209	-147
443.281	-160
443.353	2865
443.425	17712
443.496	79736
443.568	92117
443.640	38825
443.711	6420
443.783	677
443.855	-265
443.926	-743
443.998	-423
444.070	-267
444.141	-938
444.213	304
444.285	1599
444.356	987
444.428	-39
444.499	-493
444.571	-1699
444.642	-999
444.714	-1117
444.785	-34
444.857	371
444.928	-106
445.000	-437
445.071	327
445.143	270
445.214	1394
445.285	1770
445.357	8127
445.428	43160
445.500	122568
445.571	88288
445.642	48953
445.714	16501
445.785	4380
445.856	1350
445.928	1332
445.999	1899
446.070	223
446.141	840
446.213	1455
446.284	266
446.355	-1290
446.426	-1202
446.497	-1354
446.569	-803
446.640	-357
446.711	1620
446.782	-546
446.853	-1681
446.924	-232
446.995	-436
447.066	-1015
447.138	-1485
447.209	-452
447.280	-1493
447.351	-2037
447.422	-1641
447.493	-1392
447.564	-1125
447.635	370
447.706	-42
447.777	-1433
447.847	-2053
447.918	-1081
447.989	-1101
448.060	-879
448.131	-469
448.202	-288
448.273	466
448.344	-930
448.414	-880
448.485	-1493
448.556	-1386
448.627	-1697
448.698	-413
448.768	-1537
448.839	-1026
448.910	-1675
448.981	-407
449.051	-802
449.122	-1480
449.193	-2078
449.263	-1620
449.334	-1479
449.405	-981
449.475	1292
449.546	802
449.616	-473
449.687	-1056
449.758	-1786
449.828	-1697
449.899	-1530
449.969	-1858
450.040	-1874
450.110	-1334
450.181	-1270
450.251	-1400
450.322	-1430
450.392	-873
450.463	-1611
450.533	-958
450.604	-1495
450.674	-2007
450.744	-858
450.815	-1308
450.885	-788
450.955	-1247
451.026	-1675
451.096	-963
451.166	-1939
451.237	-1530
451.307	235
451.377	-46
451.447	-1863
451.518	-2218
451.588	-1326
451.658	-1732
451.728	-1483
451.799	150
451.869	29
451.939	-431
452.009	-1566
452.079	-1086
452.149	-1933
452.219	-712
452.289	111
452.360	-11
452.430	-1162
452.500	-1149
452.570	-10
452.640	1511
452.710	3867
452.780	5809
452.850	4803
452.920	6649
452.990	2828
453.060	-257
453.129	-557
453.199	389
453.269	336
453.339	4846
453.409	9392
453.479	5314
453.549	9047
453.619	10069
453.688	5013
453.758	8
453.828	-2006
453.898	-1450
453.968	-1495
454.037	-1710
454.087	-1324
454.107	-1195
454.168	-1447
454.177	-1527
454.247	-2074
454.249	-2032
454.316	-1922
454.330	-1746
454.386	-1180
454.411	-768
454.456	-511
454.492	56
454.525	468
454.574	553
454.595	611
454.655	-967
454.665	-1230
454.734	-395
454.736	-305
454.804	386
454.817	857
454.873	1548
454.898	1908
454.943	2162
454.979	1217
455.013	535
455.060	259
455.082	358
455.141	1033
455.152	1072
455.221	2416
455.222	2567
455.291	4758
455.303	5061
455.360	5800
455.384	6639
455.430	6032
455.465	5626
455.499	5489
455.546	4187
455.569	3229
455.627	3106
455.638	3122
455.707	223
455.708	257
455.777	-86
455.789	47
455.846	552
455.869	417
455.916	252
455.950	211
455.985	-22
456.031	142
456.054	173
456.112	82
456.124	23
456.193	-52
456.193	-82
456.262	1277
456.274	1309
456.332	1114
456.355	1253
456.401	1169
456.436	870
456.470	594
456.516	555
456.540	531
456.597	683
456.609	679
456.678	913
456.678	883
456.747	783
456.759	822
456.817	1049
456.840	971
456.886	713
456.920	854
456.955	956
457.001	1001
457.024	1133
457.082	2006
457.093	2108
457.162	2698
457.163	2739
457.232	1924
457.243	1968
457.301	1956
457.324	1858
457.370	2101
457.405	2411
457.439	2621
457.485	3171
457.508	3463
457.566	3756
457.577	3998
457.646	6490
457.647	6569
457.715	17763
457.727	19976
457.784	40031
457.808	49484
457.853	57408
457.889	65663
457.922	53865
457.969	32728
457.991	39544
458.050	59255
458.060	64300
458.129	106883
458.130	108313
458.198	80404
458.211	74051
458.267	38709
458.292	21463
458.336	16780
458.372	16285
458.405	27132
458.453	43978
458.474	62690
458.533	119196
458.543	123826
458.611	168658
458.614	170774
458.680	78125
458.694	56124
458.749	27679
458.775	15765
458.818	10383
458.855	8051
458.887	7451
458.936	6701
458.955	6271
459.016	5068
459.024	5051
459.093	5785
459.097	5806
459.162	6435
459.177	6823
459.230	8495
459.257	9206
459.299	8813
459.338	8871
459.368	9155
459.418	9051
459.437	8300
459.499	6414
459.505	6386
459.574	5497
459.579	5501
459.643	5331
459.659	5177
459.711	5474
459.740	5844
459.780	5959
459.820	6134
459.849	5992
459.900	5440
459.917	5307
459.981	5511
459.986	5503
460.054	5204
460.061	5199
460.123	6883
460.141	7266
460.191	9722
460.222	11814
460.260	13847
460.302	15773
460.328	13195
460.382	8009
460.397	7986
460.462	7538
460.465	7676
460.534	10907
460.543	11384
460.602	29679
460.623	36438
460.671	60992
460.703	78046
460.739	67696
460.783	54735
460.808	41325
460.864	8166
460.876	7758
460.944	6541
460.945	6536
461.013	7739
461.024	7881
461.081	8936
461.104	9583
461.150	9110
461.184	8722
461.218	8122
461.264	6973
461.286	6989
461.345	7225
461.355	7096
461.423	6237
461.425	6214
461.491	5665
461.505	5642
461.559	8061
461.585	9191
461.628	14211
461.665	18547
461.696	20362
461.745	23706
461.764	20556
461.825	9876
461.832	9905
461.901	9728
461.905	9752
461.969	8215
461.985	7836
462.037	7028
462.065	6496
462.105	6555
462.145	6708
462.173	8245
462.225	11228
462.241	12397
462.305	17051
462.310	16700
462.378	11018
462.385	10382
462.446	10045
462.465	9850
462.514	9445
462.545	9372
462.582	8720
462.625	7820
462.650	7622
462.705	7372
462.718	7448
462.785	7695
462.786	7723
462.854	8726
462.865	8955
462.922	10937
462.945	11685
462.990	9694
463.025	8045
463.058	7404
463.104	6844
463.126	7052
463.184	7152
463.194	7433
463.262	9398
463.264	9473
463.330	8972
463.344	8818
463.398	9142
463.424	9078
463.466	8576
463.504	8485
463.533	8939
463.583	9347
463.601	9642
463.663	11005
463.669	11353
463.737	15057
463.743	15367
463.805	16501
463.823	16901
463.873	21219
463.903	23706
463.940	25191
463.982	26755
464.008	21827
464.062	11365
464.076	10919
464.142	8495
464.144	8526
464.211	9380
464.221	9514
464.279	11384
464.301	12062
464.347	12394
464.381	12549
464.414	11974
464.461	11285
464.482	11744
464.540	12723
464.550	12549
464.617	11246
464.620	11186
464.685	14768
464.699	15515
464.753	16962
464.779	17700
464.820	16163
464.859	14573
464.888	14197
464.938	13573
464.956	13831
465.018	14408
465.023	14244
465.091	12010
465.098	11762
465.158	11608
465.177	11503
465.226	12157
465.257	12547
465.293	14140
465.336	15920
465.361	17894
465.416	22264
465.428	22584
465.495	24188
465.496	24249
465.563	26683
465.575	27067
465.631	32560
465.654	34842
465.698	24342
465.734	15597
465.765	14250
465.813	12003
465.833	11982
465.893	11943
465.900	11964
465.968	11935
465.972	11913
466.035	11587
466.052	11454
466.102	12875
466.131	13628
466.170	13240
466.210	12750
466.237	13025
466.290	13578
466.304	13707
466.369	14080
466.372	14183
466.439	16298
466.449	16563
466.506	17228
466.528	17453
466.573	21144
466.607	23844
466.641	32617
466.687	44678
466.708	50063
466.766	64606
466.775	60781
466.842	31119
466.845	29635
466.909	22081
466.925	20228
466.977	18354
467.004	17296
467.044	17975
467.083	18591
467.111	19673
467.163	21549
467.178	22222
467.242	24796
467.245	24857
467.312	24910
467.321	24858
467.379	22755
467.400	21916
467.446	23314
467.480	24234
467.559	20519
467.638	19009
467.717	20762
467.796	25395
467.875	31344
467.955	25426
468.034	26492
468.113	47643
468.192	67408
468.271	33877
468.350	33893
468.429	45941
468.508	52016
468.588	35523
468.667	24651
468.746	21835
468.825	21099
468.904	18254
468.983	20490
469.062	26425
469.141	31235
469.220	18895
469.299	17122
469.378	18284
469.456	19780
469.535	20327
469.614	18555
469.693	18487
469.772	21607
469.851	25512
469.930	23378
470.009	20462
470.088	22950
470.166	27578
470.245	43395
470.324	58697
470.403	41264
470.482	27284
470.560	22380
470.639	25536
470.718	32721
470.797	23339
470.875	24179
470.954	29646
471.033	31021
471.111	16598
471.190	15513
471.269	14390
471.347	15043
471.426	16110
471.505	16492
471.583	17478
471.662	16425
471.740	16424
471.819	16714
471.898	14755
471.976	16281
472.055	15378
472.133	17370
472.212	20012
472.290	19555
472.369	15787
472.447	14755
472.526	14088
472.604	17183
472.683	20496
472.761	25164
472.839	20958
472.918	18831
472.996	16762
473.075	17475
473.153	17274
473.231	16852
473.310	19874
473.388	22087
473.466	17627
473.545	23566
473.623	36379
473.701	40329
473.780	20653
473.858	19191
473.936	21670
474.014	18075
474.093	21152
474.171	24699
474.249	25100
474.327	21656
474.405	19276
474.484	16804
474.562	18002
474.640	17127
474.718	16437
474.796	16763
474.874	15358
474.952	14672
475.030	15878
475.108	16251
475.187	18522
475.265	25398
475.343	50191
475.421	63994
475.499	20420
475.577	15724
475.655	17864
475.733	27052
475.811	38398
475.889	36331
475.966	30164
476.044	19312
476.122	33478
476.200	52856
476.278	38291
476.356	15541
476.434	16210
476.512	26621
476.590	46686
476.667	36945
476.745	15368
476.823	17727
476.901	14469
476.979	14894
477.056	15003
477.134	14934
477.212	16783
477.290	16707
477.367	12809
477.445	13210
477.523	13449
477.601	13915
477.678	13145
477.756	14204
477.834	15716
477.911	14744
477.989	15338
478.066	14393
478.144	18177
478.222	29476
478.299	70812
478.377	66537
478.454	17140
478.532	13641
478.609	16847
478.687	19516
478.764	14459
478.842	15979
478.919	20608
478.997	18152
479.074	12946
479.152	13185
479.229	14889
479.307	13194
479.384	10722
479.461	11501
479.539	11734
479.616	13805
479.694	12727
479.771	14531
479.848	14006
479.926	16688
480.003	19248
480.080	14376
480.157	12671
480.235	12437
480.312	13629
480.389	12974
480.467	16205
480.544	20746
480.621	15483
480.698	16183
480.775	16300
480.853	15779
480.930	12872
481.007	12946
481.084	14076
481.161	17252
481.238	15477
481.315	12667
481.392	12693
481.470	12583
481.547	13398
481.624	13197
481.701	12686
481.778	14436
481.855	15092
481.932	19119
482.009	27072
482.086	26121
482.163	22795
482.240	42421
482.317	97236
482.393	75090
482.470	18813
482.547	17172
482.624	15280
482.701	16292
482.778	16626
482.855	14104
482.932	14254
483.009	15071
483.085	18280
483.162	23464
483.239	24292
483.316	20340
483.393	20198
483.469	17562
483.546	16482
483.623	17323
483.699	14629
483.776	14977
483.853	17833
483.930	21595
484.006	35388
484.083	56547
484.160	34965
484.236	48072
484.313	41367
484.389	32055
484.466	29855
484.543	32670
484.619	36347
484.696	39519
484.772	33197
484.849	30072
484.925	26380
485.002	26014
485.078	28113
485.155	29440
485.231	24339
485.308	24597
485.384	24918
485.461	29083
485.537	38365
485.614	45308
485.690	26244
485.766	25050
485.843	29739
485.919	58144
485.995	67681
486.072	25626
486.148	22132
486.224	22613
486.301	23365
486.377	28538
486.453	30564
486.530	27869
486.606	30160
486.682	33437
486.758	37922
486.835	43800
486.911	40052
486.987	60142
487.063	113221
487.139	199180
487.215	130955
487.292	49622
487.368	36504
487.444	45099
487.520	64902
487.596	79962
487.672	132674
487.748	430099
487.824	748975
487.900	247688
487.976	67646
488.052	45394
488.128	51820
488.204	40456
488.280	29883
488.356	30301
488.432	43382
488.508	65384
488.584	37118
488.660	31812
488.736	30998
488.812	35416
488.888	46222
488.964	65097
489.039	175775
489.115	305892
489.191	179469
489.267	32156
489.343	24614
489.418	21185
489.494	19888
489.570	18898
489.646	21674
489.722	20007
489.797	20911
489.873	24566
489.949	44716
490.024	43621
490.100	20587
490.176	22723
490.251	33934
490.327	54974
490.403	26613
490.478	19790
490.554	17441
490.629	17877
490.705	18368
490.781	20800
490.856	19753
490.932	25963
491.007	29577
491.083	24518
491.158	19529
491.234	21292
491.309	35042
491.385	38039
491.460	19504
491.536	22584
491.611	24576
491.686	31102
491.762	45890
491.837	113801
491.913	194604
491.988	252213
492.063	385391
492.139	71250
492.214	26942
492.289	19200
492.365	17947
492.440	24753
492.515	21741
492.590	18705
492.666	15314
492.741	20445
492.816	25461
492.891	17701
492.967	17001
493.042	16486
493.117	15601
493.192	17838
493.267	24154
493.342	55246
493.418	77723
493.493	22551
493.568	15347
493.643	16027
493.718	19777
493.793	31180
493.868	50024
493.943	36045
494.018	20624
494.093	14669
494.168	15220
494.243	14486
494.318	13164
494.393	14168
494.468	13565
494.543	15631
494.618	21477
494.693	17847
494.768	14213
494.842	16233
494.917	13397
494.992	17285
495.067	15866
495.142	14627
495.217	17298
495.292	19034
495.366	23667
495.441	31823
495.516	41932
495.591	62148
495.665	223681
495.740	647435
495.815	275210
495.890	32202
495.964	18866
496.039	18498
496.114	17212
496.188	19975
496.263	20600
496.338	15618
496.412	16895
496.487	20662
496.561	29429
496.636	34148
496.710	19728
496.785	20808
496.860	21232
496.934	18744
497.009	20117
497.083	17967
497.158	16691
497.232	19337
497.307	25945
497.381	21541
497.455	20705
497.530	25267
497.604	20618
497.679	21200
497.753	29847
497.827	40741
497.902	40527
497.976	43378
498.050	74611
498.125	283696
498.199	339590
498.273	83283
498.348	64791
498.422	49271
498.496	48413
498.570	46868
498.645	24944
498.719	23735
498.793	27272
498.867	38150
498.941	44793
499.016	100290
499.090	313117
499.164	124106
499.238	21198
499.312	21301
499.386	33139
499.460	27243
499.534	19808
499.609	23757
499.683	28879
499.757	27685
499.831	43687
499.905	182424
499.979	196998
500.053	34249
500.127	45797
500.201	56461
500.275	27906
500.349	22878
500.422	27175
500.496	44422
500.570	111483
500.644	148170
500.718	211590
500.792	57707
500.866	20223
500.940	21246
501.013	20316
501.087	23435
501.161	56504
501.235	64730
501.309	55735
501.382	155225
501.456	164935
501.530	47001
501.603	53530
501.677	25836
501.751	15244
501.825	17753
501.898	24284
501.972	63087
502.046	45947
502.119	19192
502.193	37500
502.266	75159
502.340	38287
502.413	29096
502.487	58476
502.561	37478
502.634	19048
502.708	24378
502.781	21343
502.855	15686
502.928	11821
503.002	12513
503.075	11380
503.149	12824
503.222	11674
503.295	12843
503.369	15864
503.442	18277
503.516	42299
503.589	112791
503.662	80425
503.736	32182
503.809	62622
503.882	64248
503.956	91554
504.029	122358
504.102	236030
504.175	381641
504.249	132593
504.322	45568
504.395	29798
504.468	20416
504.542	16718
504.615	14492
504.688	12929
504.761	13757
504.834	18534
504.907	27801
504.980	57883
505.053	22949
505.127	31851
505.200	32475
505.273	14849
505.346	11259
505.419	10974
505.492	10741
505.565	9267
505.638	9476
505.711	8227
505.784	8333
505.857	8240
505.930	10970
506.003	9286
506.076	11249
506.149	11253
506.221	13614
506.294	13334
506.367	25865
506.440	87497
506.513	60996
506.586	17509
506.659	12709
506.731	12827
506.804	16464
506.877	32333
506.950	16378
507.022	11054
507.095	11986
507.168	16199
507.241	14614
507.313	12187
507.386	15482
507.459	27521
507.531	17161
507.604	11716
507.677	11695
507.749	8526
507.822	16426
507.894	33328
507.967	36610
508.040	17114
508.112	17178
508.185	17173
508.257	15860
508.330	33524
508.402	16323
508.475	11023
508.547	14633
508.620	12211
508.692	18219
508.765	12272
508.837	10132
508.909	9786
508.982	11209
509.054	14692
509.127	11768
509.199	9853
509.271	9322
509.344	8150
509.416	10260
509.488	9094
509.560	10444
509.633	13473
509.705	18380
509.777	15314
509.849	28998
509.922	18195
509.994	9746
510.066	10072
510.138	10649
510.210	17913
510.283	17100
510.355	13922
510.427	14149
510.499	13174
510.571	14293
510.643	15135
510.715	35858
510.787	33559
510.859	14928
510.931	17371
511.003	32983
511.076	29263
511.148	11418
511.219	10856
511.291	13618
511.363	17175
511.435	11195
511.507	9700
511.579	10582
511.651	11475
511.723	10938
511.795	10902
511.867	11274
511.939	11886
512.010	18748
512.082	17713
512.154	13035
512.226	13131
512.298	19636
512.369	33121
512.441	23649
512.513	28038
512.585	19712
512.656	17538
512.728	23165
512.800	15238
512.871	13205
512.943	14214
513.015	13255
513.086	14957
513.158	19597
513.230	18301
513.301	32848
513.373	44833
513.444	21501
513.516	15269
513.588	16272
513.659	19422
513.731	28575
513.802	23672
513.874	53561
513.945	125883
514.016	35552
514.088	15999
514.159	19839
514.231	26428
514.302	34491
514.374	17093
514.445	14455
514.516	23454
514.588	19019
514.659	14499
514.730	23527
514.802	25007
514.873	19361
514.944	18421
515.016	18208
515.087	26434
515.158	23545
515.229	25884
515.301	16234
515.372	19199
515.443	15619
515.514	13843
515.585	12584
515.656	13527
515.728	13672
515.799	13479
515.870	16656
515.941	17005
516.012	17309
516.083	21838
516.154	27330
516.225	43487
516.296	42635
516.367	37561
516.438	45204
516.509	62711
516.580	84933
516.651	225322
516.722	981764
516.793	480469
516.864	82680
516.935	74025
517.006	84321
517.077	116450
517.148	260429
517.219	848347
517.289	1577509
517.360	274962
517.431	75641
517.502	33710
517.573	30608
517.643	27151
517.714	29715
517.785	31715
517.856	35303
517.926	47728
517.997	60391
518.068	83105
518.138	115878
518.209	161991
518.280	504539
518.350	2119065
518.421	950242
518.492	125976
518.562	70550
518.633	67447
518.703	77220
518.774	138295
518.845	381631
518.915	415584
518.986	115072
519.056	62520
519.127	94006
519.197	118929
519.268	149677
519.338	74916
519.408	32266
519.479	59130
519.549	43556
519.620	23113
519.690	17752
519.760	16355
519.831	18526
519.901	19966
519.971	13943
520.042	14806
520.112	15339
520.182	22660
520.253	31898
520.323	13254
520.393	13532
520.463	19555
520.534	11025
520.604	18202
520.674	13750
520.744	15460
520.814	24227
520.885	31901
520.955	28531
521.025	101990
521.095	46576
521.165	14086
521.235	13152
521.305	12210
521.375	12709
521.445	16381
521.515	29766
521.585	34129
521.655	36509
521.725	22656
521.795	18806
521.865	10458
521.935	15966
522.005	13050
522.075	11125
522.145	13659
522.215	13157
522.285	17810
522.355	21367
522.424	34434
522.494	35439
522.564	30954
522.634	71739
522.704	280812
522.774	111966
522.843	22201
522.913	18705
522.983	30520
523.053	22174
523.122	20685
523.192	32204
523.262	138001
523.331	156321
523.401	22746
523.471	13294
523.540	16589
523.610	11743
523.680	10282
523.749	10491
523.819	11930
523.888	12206
523.958	11216
524.027	11201
524.097	12464
524.166	12327
524.236	17570
524.305	15156
524.375	11291
524.444	10525
524.514	11043
524.583	10733
524.653	12785
524.722	13658
524.791	10782
524.861	12280
524.930	11847
524.999	15171
525.069	22883
525.138	14601
525.207	14401
525.277	13470
525.346	15570
525.415	14500
525.484	17518
525.554	19071
525.623	19467
525.692	22367
525.761	27946
525.830	37300
525.900	48311
525.969	71661
526.038	128176
526.107	234736
526.176	786751
526.245	695697
526.314	197352
526.383	374217
526.452	559290
526.522	781605
526.591	897198
526.660	229788
526.729	125819
526.797	125485
526.867	205592
526.935	807211
527.004	1651849
527.073	1051669
527.142	110086
527.211	45611
527.280	37966
527.349	38489
527.418	18371
527.487	17887
527.555	13941
527.624	14561
527.693	12099
527.762	14593
527.831	12247
527.899	13130
527.968	11710
528.037	12961
528.106	18796
528.174	40486
528.243	24939
528.312	32337
528.380	59881
528.449	16046
528.518	10963
528.586	8493
528.655	9188
528.723	7798
528.792	8920
528.861	10535
528.929	7285
528.998	9289
529.066	8787
529.135	10924
529.203	9483
529.272	9532
529.340	12619
529.409	12391
529.477	10514
529.545	11828
529.614	14237
529.682	13442
529.751	14899
529.819	17249
529.887	15970
529.956	13199
530.024	14313
530.092	13348
530.161	17709
530.229	34015
530.297	19606
530.365	14045
530.434	12852
530.502	12587
530.570	12889
530.638	11261
530.707	15461
530.775	15993
530.843	11394
530.911	13640
530.979	11701
531.047	12467
531.115	13283
531.183	12546
531.252	12126
531.320	12186
531.388	10661
531.456	12728
531.524	11701
531.592	14064
531.660	16697
531.728	13536
531.796	12201
531.864	13028
531.932	15364
532.000	14131
532.067	16621
532.135	19189
532.203	22797
532.271	23356
532.339	37388
532.407	117835
532.475	75303
532.542	34887
532.610	36726
532.678	46175
532.746	157186
532.814	524217
532.881	132998
532.949	26406
533.017	19832
533.084	16945
533.152	14618
533.220	16137
533.287	20760
533.355	16089
533.423	15089
533.490	15098
533.558	15674
533.625	15717
533.693	15727
533.761	16899
533.828	16906
533.896	17208
533.963	37012
534.031	47121
534.098	74342
534.166	34280
534.233	17006
534.300	19249
534.368	18978
534.435	18208
534.503	20878
534.570	22691
534.637	27661
534.705	35719
534.772	39188
534.840	64387
534.907	306523
534.974	475508
535.041	53644
535.109	24572
535.176	17732
535.243	17665
535.310	18622
535.378	17243
535.445	14502
535.512	15155
535.579	15365
535.646	14244
535.714	14260
535.781	16779
535.848	16777
535.915	15472
535.982	14622
536.049	15357
536.116	15712
536.183	15533
536.250	15840
536.317	17378
536.384	21341
536.451	32868
536.518	36162
536.585	24625
536.652	28919
536.719	44777
536.786	39777
536.853	29619
536.920	39016
536.987	64739
537.053	63419
537.120	231552
537.187	233774
537.254	26414
537.321	19176
537.388	18746
537.454	15988
537.521	16024
537.588	14541
537.654	16703
537.721	19360
537.788	20038
537.855	16755
537.921	16816
537.988	18673
538.055	17310
538.121	16836
538.188	19853
538.254	28943
538.321	67914
538.388	43252
538.454	19912
538.521	17539
538.587	16970
538.654	15584
538.720	15327
538.787	15031
538.853	17604
538.920	19003
538.986	19684
539.053	15932
539.119	18503
539.185	19361
539.252	23093
539.318	41267
539.385	28262
539.451	24522
539.517	24589
539.583	26803
539.650	56314
539.716	193400
539.782	52802
539.849	20432
539.915	20011
539.981	20726
540.047	26286
540.114	23097
540.180	22856
540.246	23764
540.312	33944
540.378	64703
540.444	67749
540.510	61617
540.576	218782
540.643	68860
540.709	20905
540.775	19253
540.841	16811
540.907	19630
540.973	22586
541.039	30166
541.105	38098
541.171	21916
541.237	18745
541.303	19423
541.369	22975
541.435	30047
541.500	56486
541.566	36271
541.632	17756
541.698	15275
541.764	15871
541.830	14586
541.896	14889
541.961	16090
542.027	18157
542.093	19094
542.159	20122
542.224	20810
542.290	28763
542.356	52652
542.421	67409
542.487	28136
542.553	19048
542.618	19681
542.684	20345
542.750	21718
542.815	25331
542.881	40451
542.947	166071
543.012	141313
543.078	21461
543.143	18128
543.209	20592
543.274	21233
543.340	23446
543.405	58310
543.471	117019
543.536	23886
543.602	16054
543.667	13888
543.732	16021
543.798	14247
543.863	15311
543.928	13762
543.994	14414
544.059	15173
544.124	15779
544.190	15617
544.255	18396
544.320	19211
544.386	21149
544.451	29693
544.516	35986
544.581	33422
544.646	98001
544.712	182045
544.777	31144
544.842	18539
544.907	18156
544.972	17233
545.037	17812
545.102	19024
545.168	19287
545.233	21004
545.298	23899
545.363	25068
545.428	30939
545.493	52501
545.558	148479
545.623	56682
545.688	21329
545.753	20267
545.818	19548
545.883	20914
545.947	20861
546.012	20962
546.077	21718
546.142	22876
546.207	24516
546.272	33063
546.337	37483
546.401	27152
546.466	24883
546.531	25555
546.596	28428
546.661	31781
546.725	29787
546.790	29388
546.855	31725
546.919	32411
546.984	37607
547.049	39814
547.113	45804
547.178	48009
547.243	53900
547.307	62620
547.372	72166
547.436	72927
547.501	71578
547.565	77986
547.630	80236
547.695	75842
547.759	71825
547.823	69169
547.888	69868
547.952	69545
548.017	74508
548.081	78105
548.146	81032
548.210	79787
548.274	82108
548.339	81237
548.403	73151
548.468	69526
548.532	68977
548.596	69647
548.660	69858
548.725	76431
548.789	86527
548.853	82574
548.917	76330
548.982	74625
549.046	70675
549.110	60173
549.174	62593
549.238	69724
549.303	77826
549.367	82645
549.431	78059
549.495	72784
549.559	73391
549.623	83488
549.687	97285
549.751	109076
549.815	111432
549.879	108309
549.943	102590
550.007	108557
550.071	110250
550.135	109137
550.199	96272
550.263	90133
550.327	84545
550.391	88759
550.455	95155
550.519	101024
550.582	110448
550.646	135816
550.710	140089
550.774	122869
550.838	122689
550.901	127633
550.965	136638
551.029	144046
551.093	157539
551.156	176076
551.220	218442
551.284	269043
551.347	189896
551.411	153278
551.475	145749
551.538	130920
551.602	119583
551.666	112772
551.729	103908
551.793	100182
551.856	100164
551.920	97796
551.983	98117
552.047	96230
552.110	95655
552.174	95904
552.237	99717
552.301	92629
552.364	88327
552.428	85308
552.491	89276
552.554	93243
552.618	92270
552.681	95771
552.745	96504
552.808	115151
552.871	143386
552.934	111653
552.998	95907
553.061	89244
553.124	84714
553.187	84178
553.251	88170
553.314	86353
553.377	87041
553.440	95079
553.503	107855
553.567	120456
553.630	94187
553.693	88351
553.756	90961
553.819	86952
553.882	82379
553.945	83335
554.008	81876
554.071	83034
554.134	84607
554.197	79116
554.260	76395
554.323	79416
554.386	79982
554.449	83111
554.512	83199
554.575	79280
554.638	78640
554.701	77544
554.764	76659
554.827	73230
554.889	71044
554.952	66316
555.015	64844
555.078	66639
555.141	67379
555.203	65728
555.266	65914
555.329	67027
555.391	63554
555.454	64412
555.517	63880
555.580	59735
555.642	56117
555.705	55670
555.768	55484
555.830	54543
555.893	51135
555.955	49183
556.018	50541
556.080	51496
556.143	51989
556.206	51583
556.268	51952
556.330	51990
556.393	50932
556.455	48246
556.518	50449
556.580	50673
556.643	45043
556.705	44409
556.767	42584
556.830	44349
556.892	46629
556.955	63098
557.017	51839
557.079	42001
557.142	42635
557.204	46025
557.266	77339
557.328	64942
557.391	36670
557.453	34248
557.515	35500
557.577	42221
557.639	45296
557.701	38062
557.764	37637
557.826	42003
557.888	45317
557.950	48642
558.012	55047
558.074	71259
558.136	158849
558.198	471617
558.260	166072
558.322	55087
558.384	57414
558.446	65767
558.508	77141
558.570	98453
558.632	140654
558.694	202180
558.756	223601
558.818	598096
558.880	1610188
558.942	580664
559.003	491854
559.065	254339
559.127	91342
559.189	89180
559.251	100415
559.312	134824
559.374	299926
559.436	1100975
559.498	601941
559.559	108519
559.621	93015
559.683	98759
559.744	156889
559.806	504940
559.868	873852
559.929	169376
559.991	95473
560.052	137292
560.114	429764
560.176	291359
560.237	222882
560.299	426616
560.360	89154
560.422	32690
560.483	26502
560.545	22861
560.606	21456
560.667	19693
560.729	19472
560.790	18239
560.852	18215
560.913	18038
560.974	17908
561.036	16745
561.097	18690
561.158	18098
561.220	19347
561.281	19562
561.342	20653
561.403	22973
561.465	30512
561.526	72515
561.587	106224
561.648	27451
561.709	18225
561.771	17119
561.832	16264
561.893	16108
561.954	15234
562.015	15576
562.076	15519
562.137	14728
562.198	14250
562.259	15969
562.320	15569
562.381	17865
562.442	27942
562.503	22421
562.564	14550
562.625	13763
562.686	14097
562.747	15907
562.808	14972
562.869	14017
562.930	14655
562.991	13784
563.051	14144
563.112	13252
563.173	13743
563.234	12790
563.294	12683
563.355	13725
563.416	15283
563.477	13219
563.537	13176
563.598	12869
563.659	13315
563.720	13298
563.780	14307
563.841	15741
563.901	12991
563.962	12712
564.023	12664
564.083	13024
564.144	12793
564.204	11799
564.265	12438
564.325	12309
564.386	17219
564.446	17142
564.507	12337
564.567	12547
564.628	12003
564.688	11587
564.749	11943
564.809	13225
564.869	13997
564.930	12307
564.990	12394
565.050	11745
565.111	11804
565.171	11007
565.231	12131
565.292	12660
565.352	10611
565.412	12966
565.472	13697
565.532	14624
565.593	13290
565.653	11963
565.713	12958
565.773	14539
565.833	19254
565.893	25619
565.953	14271
566.013	11609
566.074	13432
566.134	13813
566.194	17426
566.254	22105
566.314	15091
566.374	11731
566.434	13093
566.494	12668
566.554	11926
566.614	12107
566.673	12326
566.733	13304
566.793	14319
566.853	13634
566.913	13004
566.973	13043
567.033	14890
567.092	15770
567.152	16281
567.212	16070
567.272	13824
567.331	13322
567.391	14315
567.451	15333
567.511	16167
567.570	16512
567.630	13862
567.690	13424
567.749	13534
567.809	14726
567.868	15315
567.928	16751
567.988	16816
568.047	18385
568.107	20678
568.166	24599
568.226	34406
568.285	48085
568.345	41238
568.404	33139
568.464	28924
568.523	26885
568.582	28596
568.642	31612
568.701	36769
568.761	47006
568.820	75087
568.879	72784
568.939	51923
568.998	39074
569.057	30462
569.116	25663
569.176	21783
569.235	19116
569.294	18042
569.353	15657
569.413	15109
569.472	14708
569.531	13239
569.590	12994
569.649	12629
569.708	12292
569.767	13603
569.827	16784
569.886	15411
569.945	12779
570.004	14988
570.063	12581
570.122	14579
570.181	15164
570.240	12903
570.299	14686
570.358	15334
570.417	12443
570.475	11679
570.534	12899
570.593	14997
570.652	13911
570.711	15459
570.770	12039
570.829	14198
570.887	14908
570.946	18511
571.005	13310
571.064	12223
571.122	14652
571.181	15333
571.240	12757
571.299	10870
571.357	10977
571.416	11342
571.475	11335
571.533	12448
571.592	11784
571.650	11594
571.709	11661
571.768	14411
571.826	14008
571.885	11930
571.943	10269
572.002	10180
572.060	10437
572.119	9999
572.177	10206
572.236	10302
572.294	9371
572.352	10965
572.411	10868
572.469	10779
572.528	10403
572.586	10794
572.644	11401
572.703	15779
572.761	11496
572.819	9623
572.877	9541
572.936	9017
572.994	9084
573.052	8413
573.110	10305
573.169	10455
573.227	9437
573.285	9778
573.343	9046
573.401	9896
573.459	9813
573.517	9911
573.576	10057
573.634	10601
573.692	10713
573.750	10530
573.808	8687
573.866	9662
573.924	9949
573.982	10572
574.040	9533
574.098	8930
574.155	9533
574.213	9427
574.271	9208
574.329	11356
574.387	9009
574.445	8849
574.503	8019
574.560	8333
574.618	8792
574.676	9429
574.734	8474
574.792	9405
574.849	8678
574.907	7610
574.965	7571
575.022	7699
575.080	7931
575.138	8361
575.195	9220
575.253	8729
575.311	9792
575.368	8413
575.426	7260
575.483	8548
575.541	8135
575.598	7079
575.656	8309
575.713	7911
575.771	8472
575.828	7868
575.886	7736
575.943	7318
576.001	7846
576.058	7055
576.115	7582
576.173	9488
576.230	10911
576.287	14227
576.345	10904
576.402	8340
576.459	8854
576.517	7948
576.574	8054
576.631	8265
576.688	7938
576.746	6686
576.803	7501
576.860	7197
576.917	7348
576.974	8038
577.031	8028
577.089	7265
577.146	7232
577.203	7666
577.260	8247
577.317	7779
577.374	7853
577.431	8436
577.488	7165
577.545	7451
577.602	7177
577.659	6563
577.716	6616
577.773	7940
577.830	7021
577.886	7327
577.943	7257
578.000	7424
578.057	7249
578.114	7163
578.171	6875
578.227	6615
578.284	6644
578.341	7337
578.398	6767
578.454	7892
578.511	7933
578.568	8211
578.625	6856
578.681	6407
578.738	6637
578.794	7402
578.851	7134
578.908	7024
578.964	7076
579.021	8605
579.077	6951
579.134	7941
579.190	7064
579.247	6193
579.303	7297
579.360	6738
579.416	6312
579.473	7418
579.529	7216
579.586	6968
579.642	6831
579.698	6830
579.755	7219
579.811	7448
579.867	6905
579.924	7386
579.980	6759
580.036	7570
580.093	6576
580.149	7535
580.205	7767
580.261	8029
580.317	8232
580.374	8143
580.430	9128
580.486	8480
580.542	7477
580.598	8488
580.619	8361
580.654	8155
580.692	7687
580.710	7470
580.765	7753
580.767	7775
580.823	7995
580.838	7978
580.879	7972
580.911	8507
580.935	8923
580.984	7696
580.991	7540
581.047	7775
581.057	7755
581.103	7719
581.130	7968
581.159	8250
581.203	7502
581.215	7322
581.270	8237
581.276	8058
581.326	6439
581.349	6989
581.382	7808
581.422	7096
581.438	6826
581.494	7984
581.494	7966
581.550	6874
581.567	7533
581.606	9025
581.640	8166
581.661	7647
581.713	8300
581.717	8364
581.773	7025
581.786	7133
581.829	7450
581.859	7642
581.885	7835
581.932	8112
581.940	8184
581.996	7387
582.004	7492
582.052	8041
582.077	7938
582.107	7788
582.150	7256
582.163	7136
582.219	7544
582.223	7532
582.274	7467
582.296	7506
582.330	7505
582.368	7856
582.386	8088
582.441	7346
582.441	7348
582.497	7372
582.514	7320
582.552	7349
582.587	7413
582.608	7470
582.659	7149
582.663	7128
582.719	7293
582.732	7270
582.774	7211
582.805	7630
582.830	7961
582.877	7856
582.885	7842
582.941	7187
582.950	7361
582.996	8229
583.023	8343
583.052	8523
583.095	8009
583.107	7859
583.162	8313
583.168	8328
583.218	8459
583.240	7961
583.273	7210
583.313	6646
583.328	6473
583.384	6974
583.385	6978
583.439	6941
583.458	6998
583.494	7100
583.531	6625
583.549	6449
583.603	6799
583.605	6805
583.660	6924
583.676	6767
583.715	6346
583.748	6816
583.770	7194
583.820	7477
583.825	7489
583.881	7141
583.893	6997
583.936	6477
583.965	6358
583.991	6279
584.038	6419
584.046	6425
584.101	6300
584.110	6401
584.156	7062
584.183	6719
584.211	6236
584.255	7063
584.266	7318
584.321	6124
584.328	6187
584.376	6334
584.400	6434
584.431	6864
584.472	6977
584.486	6844
584.541	7019
584.545	6990
584.596	6593
584.617	6467
584.651	6506
584.689	7190
584.706	7449
584.761	8036
584.762	8046
584.816	7845
584.834	7661
584.871	7576
584.906	8154
584.926	8368
584.978	8829
584.980	8847
585.035	9714
585.051	10079
585.090	10902
585.123	11427
585.145	11765
585.195	13487
585.200	13619
585.254	16137
585.267	16969
585.309	19682
585.340	21874
585.364	23453
585.412	26736
585.419	27184
585.473	31506
585.484	33142
585.528	40068
585.556	49076
585.583	58696
585.628	94480
585.637	102766
585.692	213633
585.700	241237
585.747	382356
585.772	290688
585.801	174559
585.845	66052
585.856	41850
585.910	23056
585.917	21958
585.965	16468
585.989	14735
586.019	12767
586.061	11761
586.074	11396
586.128	10330
586.133	10354
586.183	10667
586.205	10369
586.237	9572
586.277	8892
586.292	8705
586.346	8860
586.349	8891
586.401	9480
586.421	9617
586.455	9076
586.493	8949
586.509	9202
586.564	9773
586.565	9869
586.618	12496
586.637	12525
586.672	12653
586.709	12622
586.727	12381
586.781	13155
586.781	13118
586.835	9976
586.853	9469
586.889	8763
586.925	8414
586.944	8171
586.996	8421
586.998	8409
587.052	8970
587.068	9028
587.106	8763
587.140	8511
587.161	8331
587.212	8450
587.215	8445
587.269	8762
587.284	8885
587.323	8682
587.356	8473
587.377	8504
587.427	8968
587.431	8976
587.485	9824
587.499	9935
587.539	9754
587.571	9929
587.593	10201
587.643	10927
587.648	10915
587.702	11008
587.715	11060
587.755	11072
587.786	11260
587.810	11388
587.858	11435
587.864	11425
587.917	12577
587.930	12878
587.971	13356
588.001	13740
588.025	13915
588.073	14482
588.079	14552
588.133	16399
588.145	16940
588.187	18196
588.217	19527
588.241	20832
588.288	23969
588.295	24263
588.348	28505
588.360	29679
588.402	33108
588.431	36581
588.456	39554
588.503	46830
588.510	47532
588.564	57231
588.575	59846
588.617	68749
588.646	77560
588.671	84807
588.718	103941
588.725	106697
588.778	145833
588.789	159413
588.832	225871
588.861	295535
588.886	381695
588.932	595595
588.939	619898
588.993	705184
589.004	705836
589.047	519989
589.075	352956
589.100	248278
589.147	136542
589.154	125593
589.207	92753
589.218	89761
589.261	82569
589.290	83015
589.314	83841
589.361	95198
589.368	97235
589.421	132572
589.433	146476
589.475	228569
589.504	315466
589.528	405195
589.576	566085
589.582	560366
589.635	385414
589.647	338005
589.689	165872
589.718	91160
589.742	65176
589.790	41391
589.795	39182
589.849	28569
589.861	27149
589.902	22866
589.932	20693
589.955	18758
590.004	16233
590.009	15843
590.062	13405
590.075	13090
590.115	12374
590.146	12141
590.168	11611
590.218	10573
590.222	10409
590.275	9729
590.289	9783
590.328	9765
590.360	9590
590.381	9172
590.431	8696
590.435	8586
590.488	8071
590.503	8040
590.541	8073
590.574	8221
590.594	7997
590.645	7638
590.647	7554
590.700	7492
590.716	7462
590.753	7324
590.787	7317
590.806	7151
590.859	7243
590.859	7170
590.912	6984
590.930	6974
590.965	6729
591.001	6659
591.018	6529
591.071	6522
591.072	6594
591.124	6469
591.143	6674
591.177	6613
591.214	6432
591.230	6394
591.283	6744
591.285	6831
591.336	6520
591.356	6504
591.389	6441
591.427	6367
591.442	6190
591.495	5876
591.498	5926
591.547	5600
591.569	5635
591.600	5721
591.640	5859
591.653	5830
591.706	6131
591.711	6232
591.759	5693
591.782	5512
591.811	5590
591.853	5956
591.864	5875
591.917	5795
591.924	5851
591.969	5597
591.995	5617
592.022	5630
592.066	5823
592.075	5647
592.127	5101
592.137	5080
592.180	5154
592.208	5320
592.233	5285
592.279	5473
592.285	5428
592.338	5789
592.350	5951
592.390	5588
592.421	5462
592.443	5359
592.491	5444
592.495	5364
592.548	5485
592.562	5607
592.600	5226
592.633	5081
592.653	4862
592.704	4512
592.705	4550
592.775	5325
592.846	4405
592.916	5160
592.987	5231
593.058	5614
593.128	5457
593.199	5429
593.270	4782
593.341	4682
593.411	5628
593.482	5632
593.553	5449
593.623	5071
593.694	5197
593.764	5563
593.835	5387
593.906	5910
593.976	5025
594.047	6155
594.117	6626
594.188	6882
594.258	6468
594.329	6090
594.399	6013
594.470	6836
594.540	7434
594.611	7566
594.681	5865
594.751	7147
594.822	7260
594.892	8042
594.963	7423
595.033	7999
595.103	7957
595.174	8114
595.244	8229
595.314	8759
595.384	8256
595.455	8560
595.525	8802
595.595	9535
595.665	9532
595.736	9530
595.806	9425
595.876	8411
595.946	9661
596.016	9777
596.087	9696
596.157	9754
596.227	9909
596.297	11046
596.367	11128
596.437	12602
596.507	12620
596.577	12868
596.647	13205
596.717	13366
596.787	12596
596.857	13397
596.927	12446
596.997	13550
597.067	13519
597.137	13992
597.207	12968
597.277	13769
597.347	13798
597.417	13086
597.487	13441
597.557	13687
597.626	13597
597.696	13758
597.766	14116
597.836	14279
597.906	11912
597.975	11636
598.045	11366
598.115	12621
598.185	13247
598.254	15315
598.324	16464
598.394	17661
598.464	16788
598.533	16723
598.603	15206
598.672	14303
598.742	14882
598.812	14661
598.881	14766
598.951	15305
599.020	15538
599.090	16454
599.159	15329
599.229	15110
599.299	15085
599.368	15067
599.437	14732
599.507	14569
599.576	13077
599.646	13128
599.715	13051
599.785	13738
599.854	12897
599.924	12297
599.993	12555
600.062	12618
600.132	12835
600.201	13088
600.270	16749
600.340	17854
600.409	16905
600.478	16032
600.547	16625
600.617	15973
600.686	12482
600.755	11181
600.824	10877
600.894	10925
600.963	11404
601.032	10395
601.101	10428
601.170	10059
601.239	8830
601.308	10264
601.378	9461
601.447	10251
601.516	9299
601.585	9430
601.654	10788
601.723	9948
601.792	9561
601.861	10360
601.930	11931
601.999	11822
602.068	11019
602.137	12825
602.206	12026
602.275	11549
602.343	12690
602.412	12580
602.481	10859
602.550	11935
602.619	11835
602.688	11436
602.756	12083
602.825	12721
602.894	12642
602.963	12856
603.032	12787
603.100	13408
603.169	12271
603.238	12706
603.307	13581
603.375	13073
603.444	13613
603.513	13376
603.581	13663
603.650	13895
603.719	12982
603.787	14361
603.856	13855
603.924	14537
603.993	15488
604.061	15774
604.130	16467
604.198	17300
604.267	17424
604.335	16969
604.404	17354
604.472	18782
604.541	17484
604.609	18397
604.678	18563
604.746	17618
604.815	19159
604.883	19335
604.951	19263
605.020	19036
605.088	21028
605.156	20015
605.225	20190
605.293	21193
605.361	20452
605.429	20878
605.498	22169
605.566	22216
605.634	23316
605.702	23761
605.771	25504
605.839	24083
605.907	24432
605.975	23793
606.043	22447
606.111	23388
606.180	22661
606.248	22311
606.316	21494
606.384	21777
606.452	23463
606.520	24650
606.588	24439
606.656	24067
606.724	23122
606.792	21372
606.860	20143
606.928	17865
606.996	16948
607.064	16159
607.132	17746
607.200	18387
607.267	18488
607.335	18712
607.403	19783
607.471	19024
607.539	18672
607.607	18921
607.674	15904
607.742	16293
607.810	16752
607.878	16643
607.946	16720
608.013	17501
608.081	17588
608.149	17539
608.216	16954
608.284	19876
608.352	18648
608.419	18426
608.487	19044
608.555	18527
608.622	18643
608.690	19732
608.757	21011
608.825	23051
608.893	21290
608.960	20815
609.028	20558
609.095	19783
609.163	19980
609.230	17750
609.298	16073
609.365	16618
609.432	17871
609.500	20114
609.567	22245
609.635	26832
609.702	27309
609.769	26477
609.837	21799
609.904	17617
609.971	17106
610.039	21032
610.106	26477
610.173	48959
610.241	114324
610.308	76081
610.375	24222
610.442	18415
610.509	18045
610.577	18452
610.644	17337
610.711	18745
610.778	18790
610.845	20703
610.912	21329
610.980	21864
611.047	22027
611.114	22196
611.181	21323
611.248	20355
611.315	22249
611.382	22667
611.449	22593
611.516	24684
611.583	23340
611.650	24630
611.717	25008
611.784	25765
611.851	26097
611.918	29092
611.984	34014
612.051	49617
612.118	99460
612.185	240837
612.252	178818
612.319	43741
612.386	32686
612.452	29441
612.519	28240
612.586	27782
612.653	28695
612.719	28639
612.786	27921
612.853	25685
612.919	23886
612.986	24988
613.053	23313
613.120	22612
613.186	20674
613.253	23452
613.319	21297
613.386	21277
613.453	22417
613.519	23261
613.586	22844
613.652	24946
613.719	24413
613.785	23678
613.852	22277
613.918	21310
613.985	22647
614.051	23469
614.118	24462
614.184	23758
614.250	21631
614.317	23049
614.383	21277
614.449	22406
614.516	22312
614.582	23181
614.648	22182
614.715	22026
614.781	21539
614.847	22200
614.914	21109
614.980	20119
615.046	21969
615.112	21728
615.179	20920
615.245	22677
615.311	21343
615.377	23012
615.443	22579
615.509	22369
615.575	22940
615.642	23726
615.708	23388
615.774	24572
615.840	26915
615.906	29356
615.972	37483
616.038	56413
616.104	120186
616.170	287515
616.236	283746
616.302	64065
616.368	41407
616.434	30005
616.500	28319
616.565	30992
616.631	37907
616.697	32129
616.763	31379
616.829	47109
616.895	83580
616.961	82725
617.026	35688
617.092	23968
617.158	22301
617.224	22285
617.289	21005
617.355	19225
617.421	18613
617.487	19905
617.552	17668
617.618	17847
617.684	16927
617.749	18744
617.815	17062
617.880	16698
617.946	16292
618.012	16778
618.077	17066
618.143	16901
618.208	16087
618.274	18425
618.339	18339
618.405	15115
618.470	15195
618.536	14623
618.601	14774
618.667	14268
618.732	12959
618.798	12959
618.863	12228
618.928	11949
618.994	12837
619.059	13393
619.124	15392
619.190	14335
619.255	12879
619.320	12836
619.386	11514
619.451	12245
619.516	12044
619.581	11910
619.647	12027
619.712	12500
619.777	12242
619.842	12353
619.907	12308
619.972	12617
620.038	12113
620.103	12266
620.168	11786
620.233	11918
620.298	12636
620.363	11625
620.428	12556
620.493	12548
620.558	13287
620.623	13601
620.688	13058
620.753	13077
620.818	13611
620.883	13009
620.948	13338
621.013	13359
621.078	12422
621.143	11339
621.207	14392
621.272	13199
621.337	12708
621.402	12716
621.467	13152
621.532	12657
621.596	13407
621.661	13098
621.726	11646
621.791	12640
621.855	12348
621.920	12777
621.985	12044
622.049	12742
622.114	12450
622.179	12729
622.243	12612
622.308	13042
622.373	15433
622.437	14131
622.502	12777
622.566	13434
622.631	12273
622.695	13316
622.760	12615
622.824	13897
622.889	13331
622.953	13342
623.018	16271
623.082	17095
623.147	14017
623.211	13494
623.276	13678
623.340	12024
623.404	12284
623.469	12425
623.533	12509
623.597	11962
623.662	12102
623.726	11465
623.790	10014
623.854	9994
623.919	10071
623.983	10154
624.047	10428
624.111	10712
624.176	10945
624.240	10729
624.304	12941
624.368	10386
624.432	11094
624.496	11301
624.560	12073
624.625	12544
624.689	12745
624.753	12352
624.817	11806
624.881	11556
624.945	9939
625.009	9731
625.073	10673
625.137	10695
625.201	12406
625.265	12551
625.329	11086
625.393	11345
625.456	10938
625.520	11846
625.584	12095
625.648	11834
625.712	12571
625.776	14290
625.839	13579
625.903	9715
625.967	8617
626.031	10609
626.095	12188
626.158	11098
626.222	7884
626.286	7862
626.349	7159
626.413	6736
626.477	7001
626.540	5967
626.604	6405
626.668	6889
626.731	6023
626.795	6216
626.858	6411
626.922	6297
626.986	6076
627.049	5753
627.113	6283
627.176	6154
627.240	6199
627.303	6263
627.366	5421
627.430	5731
627.493	5651
627.557	5068
627.620	6235
627.684	6769
627.747	5631
627.810	5169
627.874	5331
627.937	4457
628.000	6035
628.064	5137
628.127	3378
628.190	4104
628.253	4116
628.317	3599
628.380	3370
628.443	3147
628.506	3180
628.569	4027
628.632	2934
628.696	3147
628.759	2845
628.822	3105
628.885	2462
628.948	3342
629.011	2786
629.074	2197
629.137	2381
629.200	2719
629.263	2678
629.326	2085
629.389	1938
629.452	2051
629.515	2475
629.578	1898
629.641	2463
629.704	2678
629.767	2530
629.830	2874
629.892	2319
629.955	1498
630.018	3219
630.081	2004
630.144	3830
630.207	1416
630.269	2295
630.332	1916
630.395	1637
630.458	2716
630.520	561
630.583	2620
630.646	1961
630.708	2233
630.771	1477
630.834	2854
630.896	2002
630.959	2193
631.021	1832
631.084	2448
631.146	1982
631.209	2386
631.272	1873
631.334	2453
631.397	1603
631.459	2326
631.522	2032
631.584	2606
631.646	2865
631.709	2633
631.771	3229
631.834	3446
631.896	2367
631.958	1338
632.021	2907
632.083	927
632.145	1719
632.208	1742
632.270	2665
632.332	1753
632.395	1638
632.457	3083
632.519	871
632.581	2021
632.643	565
632.706	1822
632.768	1411
632.830	2784
632.892	1775
632.954	1874
633.016	2237
633.078	1340
633.141	2165
633.203	1196
633.265	1648
633.327	1882
633.389	1065
633.451	2309
633.513	2615
633.575	2174
633.637	1478
633.698	2337
633.760	1438
633.822	2537
633.884	2302
633.946	2164
634.008	1744
634.070	2372
634.132	2544
634.193	2758
634.255	3141
634.317	3524
634.379	3729
634.441	2492
634.502	2389
634.564	2208
634.626	2456
634.687	2388
634.749	1909
634.811	1848
634.873	1431
634.934	1752
634.996	2013
635.057	1281
635.119	1652
635.181	1950
635.242	2267
635.304	653
635.365	3153
635.427	1675
635.488	1688
635.550	1465
635.611	1967
635.673	735
635.734	2709
635.796	1742
635.857	2617
635.918	2090
635.980	3374
636.041	2950
636.102	4085
636.164	3095
636.225	3787
636.286	2756
636.348	2113
636.409	2215
636.470	1448
636.531	1482
636.593	612
636.654	894
636.715	1519
636.776	1669
636.838	515
636.899	1653
636.960	850
637.021	554
637.082	706
637.143	1064
637.204	790
637.265	1000
637.326	914
637.387	1670
637.448	645
637.509	1886
637.570	993
637.631	1612
637.692	1620
637.753	-105
637.814	154
637.875	1068
637.936	1477
637.997	981
638.058	311
638.119	1222
638.179	51
638.240	-61
638.301	887
638.362	446
638.423	271
638.483	1539
638.544	-744
638.605	1071
638.666	-478
638.726	385
638.787	1431
638.848	-77
638.908	1439
638.969	1094
639.030	318
639.090	-163
639.151	14
639.211	977
639.272	1500
639.332	2296
639.393	1707
639.453	388
639.514	1002
639.574	763
639.635	293
639.695	940
639.756	162
639.816	979
639.877	94
639.937	2155
639.997	3003
640.058	1430
640.118	92
640.178	848
640.239	664
640.299	846
640.359	-469
640.420	947
640.480	660
640.540	1502
640.600	1073
640.661	1685
640.721	18
640.781	1827
640.841	-836
640.901	2177
640.961	1111
641.021	851
641.082	585
641.142	1979
641.202	1690
641.262	-180
641.322	646
641.382	-567
641.442	1099
641.502	826
641.562	878
641.622	61
641.682	19
641.742	330
641.802	1032
641.861	370
641.921	232
641.981	1118
642.041	80
642.101	721
642.161	67
642.221	238
642.280	416
642.340	458
642.400	-598
642.460	1053
642.519	-277
642.579	884
642.639	947
642.698	-1784
642.758	1561
642.818	371
642.877	-3
642.937	357
642.997	473
643.056	1025
643.116	-795
643.175	2012
643.235	652
643.294	99
643.354	866
643.414	1030
643.473	1913
643.532	2689
643.592	4267
643.651	8196
643.711	16502
643.770	32898
643.830	76277
643.889	190483
643.948	61512
644.008	7240
644.067	2271
644.126	1761
644.186	1159
644.245	1003
644.304	130
644.363	1615
644.423	-476
644.482	1096
644.541	289
644.600	-91
644.659	2022
644.719	1797
644.778	3698
644.837	6368
644.896	16471
644.955	41694
645.014	18485
645.073	2684
645.132	469
645.191	1010
645.250	490
645.309	1592
645.368	340
645.427	2178
645.486	2387
645.545	7737
645.604	1351
645.663	165
645.722	529
645.781	1723
645.840	1490
645.898	1280
645.957	4080
646.016	7583
646.075	14969
646.134	30231
646.192	76612
646.251	140233
646.310	26537
646.369	4066
646.427	2639
646.486	1222
646.545	1332
646.603	1362
646.662	-264
646.721	15
646.779	-835
646.838	-576
646.896	1671
646.955	1915
647.014	4100
647.072	7217
647.131	24779
647.189	16326
647.248	497
647.306	1168
647.365	81
647.423	-1024
647.481	909
647.540	-871
647.598	82
647.657	857
647.715	954
647.773	10
647.832	454
647.890	-824
647.948	-368
648.007	594
648.065	-1387
648.123	-873
648.181	770
648.240	-521
648.298	-1108
648.356	-1091
648.414	608
648.472	-435
648.531	-26
648.589	-1074
648.647	-945
648.705	-670
648.763	-851
648.821	-209
648.879	-652
648.937	393
648.995	757
649.053	395
649.111	2765
649.169	6125
649.227	9968
649.285	22835
649.343	71149
649.401	48954
649.459	6692
649.516	3515
649.574	133
649.632	1362
649.690	969
649.748	1510
649.806	1139
649.863	5633
649.921	16440
649.979	14385
650.037	861
650.094	-909
650.152	118
650.210	-381
650.268	-190
650.325	-762
650.383	-268
650.440	-1107
650.498	569
650.556	-263
650.613	-1220
650.671	167
650.728	-1373
650.786	-161
650.843	-591
650.901	-1631
650.958	-610
651.016	-806
651.073	-943
651.131	-1759
651.188	-1154
651.246	-289
651.303	-2322
651.360	122
651.418	-1105
651.475	-719
651.532	-769
651.590	27
651.647	-1817
651.704	-840
651.762	-1241
651.819	-438
651.876	-1205
651.933	-209
651.990	-1074
652.048	-2444
652.105	-574
652.162	-335
652.219	-1095
652.276	-708
652.333	-734
652.390	-1804
652.448	-940
652.505	-573
652.562	-865
652.619	-453
652.676	-758
652.733	-202
652.790	-621
652.847	-1609
652.904	-630
652.961	-1548
653.017	-2346
653.074	-190
653.131	-1139
653.188	-1929
653.245	-1314
653.302	-520
653.359	-1975
653.415	-320
653.472	-823
653.529	-367
653.586	-1069
653.642	-1306
653.699	-364
653.756	-1138
653.813	-1165
653.869	-130
653.926	-1521
653.983	-1640
654.039	-210
654.096	-1096
654.152	114
654.209	-2238
654.266	-81
654.322	-2219
654.379	-357
654.435	-470
654.492	-1108
654.548	-352
654.605	-190
654.661	-173
654.717	-361
654.774	-693
654.830	-754
654.887	-828
654.943	-1133
655.000	-1464
655.056	-1313
655.112	-591
655.168	-1813
655.225	-1716
655.281	-1460
655.337	-1206
655.394	-1348
655.450	-1565
655.506	-965
655.562	-1072
655.618	217
655.675	-1430
655.731	-675
655.787	-1854
655.843	-612
655.899	-1328
655.955	-669
656.011	-584
656.067	-2532
656.123	-524
656.179	-434
656.235	280
656.291	-1735
656.347	427
656.403	-2087
656.459	-982
656.515	-1001
656.571	-780
656.627	-1456
656.683	-1554
656.739	-755
656.795	-827
656.850	-1250
656.906	-182
656.962	-361
657.018	-1510
657.074	-1296
657.129	-386
657.185	-633
657.241	793
657.297	-368
657.352	-734
657.408	-1700
657.464	-11
657.519	-1477
657.575	-1218
657.630	-1325
657.686	-1010
657.742	-1822
657.797	-1192
657.853	-1128
657.908	-352
657.964	-2005
658.019	186
658.075	-1098
658.130	-1090
658.186	-2006
658.241	-617
658.297	-2464
658.352	-1092
658.407	-1347
658.463	-1750
658.518	-1116
658.573	-992
658.629	-2021
658.684	-564
658.739	-453
658.795	-1407
658.850	-1534
658.905	-1378
658.960	-402
659.016	-1626
659.071	-696
659.126	-777
659.181	-927
659.236	-139
659.291	714
659.346	-972
659.401	-1348
659.457	-1516
659.512	-1688
659.567	-307
659.622	-844
659.677	-873
659.732	-2068
659.787	-1338
659.842	-2027
659.897	-1193
659.952	-349
660.007	-1365
660.061	-1432
660.116	-1544
660.171	-2315
660.226	-1863
660.281	-1092
660.336	-1764
660.391	-603
660.445	-1044
660.500	-1069
660.555	-1644
660.610	-2353
660.664	-967
660.719	-1736
660.774	-844
660.828	-680
660.883	-590
660.938	-641
660.992	-2697
661.047	-418
661.101	-1934
661.156	-1399
661.211	-1283
661.265	-2287
661.320	-1398
661.374	-1926
661.429	-1850
661.483	-1036
661.538	-1588
661.592	-2058
661.647	-389
661.701	-1349
661.755	-930
661.810	-1065
661.864	-2265
661.919	-1896
661.973	-646
662.027	-931
662.081	-2191
662.136	-1561
662.190	-1140
662.244	-794
662.299	-1306
662.353	-800
662.407	-1688
662.461	-1135
662.515	-1192
662.569	-1713
662.624	-568
662.678	-2270
662.732	-1329
662.786	-1590
662.840	-1520
662.894	-1153
662.948	-1471
663.002	-1650
663.056	-1431
663.110	-2104
663.164	-1452
663.218	-1160
663.272	-538
663.326	-969
663.380	-1144
663.434	-1573
663.488	-1316
663.542	-874
663.595	-833
663.649	-1673
663.703	-813
663.757	-1169
663.811	-2396
663.864	-600
663.918	-719
663.972	-1202
664.026	-249
664.079	-1648
664.133	-570
664.187	-1522
664.240	-999
664.294	-1171
664.348	-791
664.401	-1213
664.455	-1083
664.508	-2119
664.562	-951
664.615	-1663
664.669	-1120
664.722	-1544
664.776	-1425
664.829	-1881
664.883	-1106
664.936	-1246
664.990	-1894
665.043	-353
665.097	-2525
665.150	-1164
665.203	-1346
665.257	-1553
665.310	-1215
665.363	-1741
665.417	-1216
665.470	-949
665.523	-1440
665.576	-810
665.630	-623
665.683	-1492
665.736	-1331
665.789	-944
665.842	-1398
665.895	-1551
665.949	-669
666.002	-1537
666.055	-1581
666.108	-267
666.161	-938
666.214	-683
666.267	-258
666.320	-1292
666.373	-224
666.426	-1304
666.479	-1816
666.532	-1427
666.585	-1070
666.638	-1072
666.691	-1266
666.744	-458
666.796	-1983
666.849	-1034
666.902	-818
666.955	-1369
667.008	-1479
667.060	-1190
667.113	-942
667.166	-1225
667.219	-1509
667.271	-484
667.324	-1448
667.377	-904
667.430	-566
667.482	-1866
667.535	-1120
667.587	-1028
667.640	-623
667.693	-1645
667.745	-83
667.798	612
667.850	-1096
667.903	-1224
667.955	-1220
668.008	-964
668.060	-575
668.113	-1418
668.165	-940
668.218	-1430
668.270	-884
668.322	-1558
668.375	-1152
668.427	-860
668.479	-1526
668.532	-1615
668.584	-1079
668.636	-1754
668.689	-1111
668.741	-1102
668.793	-488
668.845	-1509
668.898	-1220
668.950	-443
669.002	-1348
669.054	-1935
669.106	-1301
669.158	-1074
669.211	-1540
669.263	-2044
669.315	-633
669.367	-889
669.419	-1801
669.471	-912
669.523	-1525
669.575	-336
669.627	-969
669.679	-1345
669.731	-1312
669.783	-1594
669.835	-941
669.886	-1241
669.938	-1343
669.990	-748
670.042	-1865
670.094	-1675
670.146	-484
670.197	-837
670.249	53
670.301	-1502
670.353	-650
670.404	-739
670.456	-948
670.508	-451
670.560	960
670.611	2661
670.663	5083
670.715	15245
670.766	38912
670.818	19738
670.869	2129
670.921	123
670.972	-647
671.024	-847
671.075	-206
671.127	-797
671.178	-685
671.230	-1752
671.281	-537
671.333	-1330
671.384	-1293
671.436	-744
671.487	-168
671.538	-136
671.590	927
671.641	3031
671.692	5970
671.744	17531
671.795	16371
671.846	3733
671.897	98
671.949	-873
672.000	-359
672.051	-1053
672.102	-824
672.153	-1466
672.204	-724
672.256	-542
672.307	-1693
672.358	-838
672.409	-1295
672.460	-743
672.511	-620
672.562	-1413
672.613	-661
672.664	-1111
672.715	-1520
672.766	-1413
672.817	-1035
672.868	-1276
672.919	-1375
672.970	-1415
673.021	-942
673.071	-2034
673.122	-1115
673.173	-1419
673.224	-1060
673.275	-1687
673.326	-1822
673.376	-1354
673.427	-1906
673.478	-1290
673.528	-1170
673.579	-1504
673.630	-1049
673.680	-732
673.731	-711
673.782	-1129
673.832	-1332
673.883	-934
673.934	-1247
673.984	-1200
674.035	-1823
674.085	-832
674.136	-1161
674.186	-1401
674.237	-1395
674.287	-1221
674.338	-697
674.388	-2158
674.438	-1876
674.489	-928
674.539	-752
674.589	-852
674.640	-1421
674.690	-1080
674.740	-1364
674.791	-1346
674.841	-704
674.891	-700
674.942	-765
674.992	-1219
675.042	-1571
675.092	-1494
675.142	-938
675.193	-1511
675.243	-1180
675.293	-1312
675.343	-1058
675.393	-1312
675.443	-397
675.493	-1129
675.543	-838
675.593	-1633
675.643	-863
675.693	-916
675.743	-1312
675.793	-1426
675.843	-1027
675.893	-1707
675.943	-617
675.993	-1956
676.043	-1788
676.093	-1335
676.142	-806
676.192	-1397
676.242	-1414
676.292	-902
676.341	-1433
676.391	-1660
676.441	-1436
676.491	-1402
676.540	-988
676.590	-771
676.640	-1305
676.689	-1794
676.739	-1965
676.789	-1584
676.838	-1088
676.888	-1065
676.937	-1694
676.987	-1843
677.037	-964
677.086	-1669
677.136	-1494
677.185	-1852
677.235	-1261
677.284	-1571
677.333	-1108
677.383	-1510
677.432	-1581
677.482	-990
677.531	-1537
677.580	-2075
677.630	-2113
677.679	-2047
677.728	-1670
677.778	-942
677.827	-241
677.876	-1257
677.925	-1125
677.975	-1142
678.024	-1175
678.073	-679
678.122	-1288
678.171	-1415
678.220	-816
678.269	-1668
678.319	-1255
678.368	-493
678.417	-739
678.466	-629
678.515	-689
678.564	-1150
678.613	-786
678.662	-1658
678.711	-1736
678.760	-504
678.809	-726
678.857	-1749
678.906	-1483
678.955	-1481
679.004	-1518
679.053	-1045
679.102	-1801
679.151	-1548
679.199	-1685
679.248	-870
679.297	-1822
679.346	-1572
679.394	-1487
679.443	-1525
679.492	-974
679.540	-1716
679.589	-1325
679.638	-559
679.686	-1474
679.735	-1043
679.784	-1403
679.832	-1142
679.881	-1415
679.929	-2017
679.978	-1472
680.026	-1453
680.075	-1186
680.123	-1268
680.172	-1761
680.220	-1866
680.268	-1027
680.317	-2249
680.365	-1699
680.414	-2083
680.462	-1292
680.510	-1369
680.559	-1679
680.607	-1373
680.655	-1147
680.703	-1945
680.752	-1563
680.800	-1120
680.848	-1449
680.896	-2204
680.945	-1069
680.993	-1358
681.041	-821
681.089	-1856
681.137	-1222
681.185	-1820
681.233	-1635
681.258	-1384
681.281	-1153
681.329	-719
681.377	-1195
681.380	-1174
681.425	-863
681.473	-1978
681.502	-1669
681.521	-1466
681.569	-1094
681.617	-1228
681.624	-1315
681.665	-1919
681.713	-134
681.745	-1034
681.761	-1469
681.809	-1995
681.857	-932
681.867	-961
681.904	-1098
681.952	-666
681.989	-927
682.000	-1013
682.048	-1681
682.096	-1109
682.111	-1205
682.143	-1437
682.191	-1065
682.233	-513
682.239	-435
682.286	-873
682.334	-1492
682.354	-1676
682.382	-1925
682.430	-2170
682.476	-1987
682.477	-1989
682.525	-1076
682.572	-1493
682.598	-1312
682.620	-1152
682.667	-1444
682.715	-985
682.720	-1033
682.763	-1540
682.810	-1902
682.841	-1589
682.857	-1419
682.905	-1158
682.952	-1119
682.963	-1195
683.000	-1563
683.047	-1580
683.085	-995
683.095	-824
683.142	-871
683.190	-1196
683.206	-932
683.237	-474
683.284	-493
683.328	-1242
683.332	-1310
683.379	-844
683.426	-838
683.449	-831
683.473	-827
683.521	-1543
683.568	-760
683.571	-768
683.615	-887
683.662	-421
683.693	-892
683.709	-1181
683.757	-996
683.804	-1033
683.814	-1121
683.851	-1373
683.898	-653
683.936	-706
683.945	-739
683.992	-487
684.039	-1092
684.057	-879
684.086	-517
684.133	-766
684.179	-212
684.180	-201
684.227	-918
684.274	-406
684.300	-623
684.321	-725
684.368	-425
684.415	-333
684.422	-330
684.462	-515
684.509	-1019
684.543	-843
684.556	-765
684.603	-949
684.649	-759
684.665	-805
684.696	-832
684.743	-852
684.786	-348
684.790	-316
684.837	-765
684.883	-762
684.908	-950
684.930	-1115
684.977	-1085
685.023	-762
685.029	-717
685.070	-372
685.117	-543
685.150	-850
685.164	-1003
685.210	-896
685.257	-632
685.272	-542
685.303	-276
685.350	-201
685.393	-502
685.396	-533
685.443	-855
685.490	-100
685.514	-286
685.536	-467
685.583	-576
685.629	-636
685.636	-634
685.675	-621
685.722	-525
685.757	-414
685.768	-365
685.815	-1099
685.861	-280
685.878	-275
685.908	-330
685.954	-642
686.000	-453
686.000	-450
686.047	78
686.093	-416
686.121	-563
686.139	-703
686.185	-786
686.232	-176
686.242	-275
686.278	-496
686.324	-553
686.363	-424
686.370	-416
686.416	-385
686.463	-198
686.484	-207
686.509	-245
686.555	-451
686.601	-503
686.606	-498
686.647	-473
686.693	-755
686.727	-639
686.739	-557
686.785	-472
686.831	-258
686.848	-241
686.877	-249
686.923	-423
686.969	-580
686.969	-581
687.015	-359
687.061	-197
687.090	-286
687.107	-383
687.153	-2
687.199	-655
687.211	-573
687.245	-211
687.291	-477
687.332	-32
687.336	7
687.382	-317
687.428	-346
687.453	-399
687.474	-466
687.520	-161
687.565	-2
687.574	8
687.611	40
687.657	-553
687.695	-335
687.702	-274
687.748	-354
687.794	-5
687.816	280
687.839	419
687.885	-41
687.931	-572
687.937	-649
687.976	-768
688.022	-442
688.058	-36
688.067	30
688.113	-373
688.158	-41
688.179	87
688.204	192
688.249	-11
688.295	-0
688.300	14
688.340	264
688.386	275
688.421	73
688.431	-3
688.477	-355
688.522	88
688.542	-138
688.567	-322
688.613	-88
688.658	112
688.663	136
688.703	228
688.749	351
688.784	402
688.794	386
688.839	134
688.884	203
688.905	-63
688.930	-319
688.975	225
689.020	-132
689.026	-132
689.065	29
689.110	220
689.146	292
689.155	288
689.201	730
689.246	439
689.267	400
689.291	260
689.336	354
689.381	2
689.388	-38
689.426	-40
689.471	-154
689.509	32
689.516	78
689.561	16
689.606	310
689.630	431
689.651	501
689.696	108
689.741	117
689.750	216
689.785	527
689.830	347
689.871	252
689.875	246
689.920	173
689.965	534
689.992	404
690.010	329
690.054	306
690.099	140
690.112	226
690.144	500
690.189	213
690.233	37
690.233	39
690.278	463
690.323	619
690.354	825
690.367	835
690.412	621
690.457	182
690.474	129
690.501	155
690.546	196
690.590	553
690.595	528
690.635	464
690.680	323
690.716	468
690.724	473
690.769	841
690.813	455
690.836	405
690.857	393
690.902	208
690.946	516
690.957	497
690.991	510
691.035	724
691.077	901
691.080	908
691.124	680
691.168	466
691.198	445
691.213	391
691.257	305
691.301	121
691.318	128
691.346	398
691.390	431
691.434	771
691.439	811
691.478	919
691.522	569
691.559	391
691.567	412
691.611	891
691.655	1006
691.680	984
691.699	808
691.743	1182
691.787	810
691.800	785
691.831	814
691.875	546
691.919	453
691.921	450
691.964	498
692.008	581
692.041	425
692.052	450
692.096	704
692.139	1063
692.162	1115
692.183	1046
692.227	954
692.271	1085
692.282	1014
692.315	837
692.359	1316
692.402	941
692.403	942
692.447	698
692.490	759
692.523	584
692.534	602
692.578	587
692.622	903
692.643	1028
692.666	1060
692.709	800
692.753	948
692.763	872
692.797	622
692.840	556
692.884	655
692.884	662
692.928	641
692.971	954
693.004	733
693.015	627
693.059	572
693.102	459
693.124	366
693.146	429
693.189	747
693.233	650
693.245	769
693.276	1051
693.320	1005
693.363	1279
693.365	1276
693.407	1390
693.450	1210
693.485	1528
693.493	1545
693.537	1177
693.580	1165
693.605	974
693.624	968
693.667	1222
693.710	943
693.725	1090
693.753	1409
693.797	1314
693.840	1385
693.845	1408
693.883	1396
693.926	1260
693.966	881
693.970	858
694.013	978
694.056	1079
694.086	903
694.099	875
694.142	901
694.185	1116
694.206	1233
694.229	1445
694.272	1437
694.315	1863
694.326	1835
694.358	1571
694.401	1649
694.444	1501
694.446	1497
694.487	1726
694.530	1541
694.566	1608
694.573	1603
694.616	1571
694.659	1173
694.686	1251
694.702	1346
694.745	1570
694.787	1409
694.806	1443
694.830	1510
694.873	1477
694.916	1458
694.926	1484
694.959	1585
695.002	1615
695.044	1486
695.046	1475
695.087	1391
695.130	1446
695.166	1451
695.172	1481
695.215	1484
695.258	1664
695.286	1682
695.301	1578
695.343	1179
695.386	1181
695.406	964
695.428	900
695.471	988
695.514	1049
695.526	1057
695.556	1238
695.599	1345
695.641	1635
695.646	1632
695.684	1672
695.726	2045
695.766	2101
695.769	2084
695.811	2010
695.854	1677
695.886	1494
695.896	1568
695.938	1755
695.981	2019
696.005	2054
696.023	1957
696.065	2015
696.108	1863
696.125	1834
696.150	1887
696.192	1868
696.235	1894
696.245	1875
696.277	1877
696.319	1973
696.361	2003
696.365	1997
696.404	1885
696.446	1756
696.485	1603
696.488	1619
696.530	1740
696.572	1874
696.604	1924
696.614	1930
696.656	1917
696.698	2028
696.724	1983
696.740	1961
696.783	1834
696.825	1913
696.844	1888
696.867	1857
696.909	1855
696.951	1742
696.964	1730
696.992	1655
697.034	1461
697.076	1271
697.083	1228
697.118	1608
697.160	2188
697.202	2603
697.203	2606
697.244	2386
697.286	2012
697.323	1731
697.327	1775
697.369	2050
697.411	2382
697.442	2670
697.453	2652
697.494	2401
697.536	2208
697.562	2077
697.578	2129
697.620	2265
697.661	2358
697.682	2362
697.703	2347
697.744	2413
697.786	2602
697.801	2564
697.828	2653
697.869	2842
697.911	3097
697.921	3137
697.952	2704
697.994	2161
698.035	1619
698.040	1540
698.077	2141
698.118	2777
698.160	3522
698.160	3512
698.201	2999
698.243	2430
698.279	1953
698.284	2033
698.325	2691
698.367	3332
698.399	3780
698.408	3677
698.449	3181
698.491	2713
698.518	2360
698.532	2379
698.573	2433
698.614	2457
698.638	2467
698.656	2559
698.697	2757
698.738	2945
698.757	3024
698.779	2852
698.820	2515
698.862	2168
698.877	2029
698.903	2239
698.944	2564
698.985	2898
698.996	2980
699.026	2967
699.067	2933
699.116	2885
699.235	2422
699.354	2750
699.474	2309
699.593	2285
699.713	2820
699.832	2921
699.951	2781
700.070	3527
700.190	2403
700.309	2517
700.428	2398
700.547	2937
700.667	2221
700.786	2424
700.905	2442
701.024	2803
701.143	2203
701.262	2910
701.381	2851
701.500	2639
701.619	2445
701.738	2164
701.857	1955
701.976	2573
702.095	2634
702.214	3314
702.333	1824
702.452	2969
702.571	2102
702.690	2480
702.809	2176
702.928	2155
703.047	2089
703.165	2645
703.284	2072
703.403	1879
703.522	2013
703.640	3291
703.759	2163
703.878	2771
703.997	2424
704.115	2847
704.234	2411
704.353	2030
704.471	1484
704.590	1941
704.708	1914
704.827	2350
704.946	2145
705.064	2870
705.183	2102
705.301	2297
705.420	2317
705.538	2666
705.656	2383
705.775	2640
705.893	1623
706.012	2705
706.130	2346
706.249	3216
706.367	1458
706.485	1871
706.604	1717
706.722	1995
706.840	2530
706.958	3175
707.077	1771
707.195	1907
707.313	2330
707.431	2011
707.549	2000
707.668	2381
707.786	2670
707.904	2275
708.022	1985
708.140	1755
708.258	1774
708.376	1858
708.494	1975
708.612	2537
708.730	1494
708.848	2972
708.966	1309
709.084	2528
709.202	1847
709.320	1696
709.438	2319
709.556	1937
709.674	2168
709.791	1524
709.909	1015
710.027	1519
710.145	1199
710.263	2310
710.380	1911
710.498	1796
710.616	2524
710.733	1532
710.851	1607
710.969	2210
711.086	1426
711.204	2210
711.322	1390
711.439	1800
711.557	1306
711.674	1569
711.792	1053
711.909	2254
712.027	1269
712.144	1659
712.262	1960
712.379	2110
712.497	1538
712.614	2268
712.732	1411
712.849	2186
712.966	2286
713.084	3748
713.201	1582
713.318	2150
713.436	1239
713.553	2261
713.670	2006
713.787	2386
713.905	1604
714.022	2301
714.139	1560
714.256	3134
714.373	4135
714.490	8907
714.608	21904
714.725	106601
714.842	150924
714.959	9876
715.076	2837
715.193	2061
715.310	2415
715.427	2249
715.544	2358
715.661	1982
715.778	1558
715.895	1897
716.011	1689
716.128	2208
716.245	1452
716.362	3564
716.479	2151
716.596	2002
716.713	1238
716.829	1439
716.946	1916
717.063	1594
717.180	534
717.296	2057
717.413	1683
717.530	2433
717.646	1476
717.763	2304
717.880	831
717.996	1257
718.113	1311
718.229	2080
718.346	779
718.462	1786
718.579	2543
718.695	4491
718.812	2877
718.928	1788
719.045	1747
719.161	1767
719.277	1068
719.394	2759
719.510	1632
719.626	2535
719.743	2097
719.859	4062
719.975	6185
720.092	27958
720.208	83237
720.324	12572
720.440	1762
720.557	2382
720.673	3593
720.789	3274
720.905	3872
721.021	2588
721.137	911
721.253	1431
721.369	1303
721.486	2130
721.602	1854
721.718	1539
721.834	1276
721.950	1541
722.066	1111
722.181	934
722.297	1160
722.413	1321
722.529	1396
722.645	1126
722.761	483
722.877	1828
722.993	1028
723.108	1132
723.224	1701
723.340	741
723.456	1218
723.571	1606
723.687	351
723.803	874
723.918	217
724.034	1532
724.150	605
724.265	1253
724.381	1388
724.497	2650
724.612	398
724.728	733
724.843	1309
724.959	1319
725.074	1396
725.190	2195
725.305	1136
725.421	679
725.536	530
725.651	1632
725.767	1173
725.882	1198
725.997	274
726.113	1810
726.228	870
726.343	1597
726.459	1111
726.574	1002
726.689	427
726.804	1117
726.920	564
727.035	1670
727.150	13
727.265	692
727.380	1617
727.495	1498
727.610	1073
727.725	1153
727.841	289
727.956	842
728.071	1009
728.186	1313
728.301	-234
728.416	1135
728.531	1262
728.645	1060
728.760	892
728.875	1214
728.990	1227
729.105	1217
729.220	1130
729.335	1519
729.449	1072
729.564	1276
729.679	1014
729.794	1243
729.908	497
730.023	734
730.138	1139
730.253	341
730.367	607
730.482	814
730.596	1134
730.711	1195
730.826	1644
730.940	1437
731.055	1295
731.169	943
731.284	1025
731.398	1955
731.513	1513
731.627	1696
731.742	722
731.856	1791
731.970	791
732.085	2059
732.199	2667
732.313	4328
732.428	11345
732.542	40459
732.656	33184
732.771	5145
732.885	2089
732.999	2270
733.113	2055
733.227	2631
733.342	1128
733.456	1936
733.570	1070
733.684	1996
733.798	1564
733.912	969
734.026	916
734.140	2008
734.254	1195
734.368	1351
734.482	1415
734.596	1794
734.710	802
734.824	1268
734.938	1106
735.052	1669
735.166	762
735.280	2141
735.393	1110
735.507	513
735.621	1320
735.735	2097
735.849	786
735.962	1386
736.076	1623
736.190	1763
736.303	1196
736.417	1504
736.531	1212
736.644	1467
736.758	1108
736.872	674
736.985	1263
737.099	870
737.212	723
737.326	844
737.439	808
737.553	1144
737.666	460
737.780	1218
737.893	669
738.007	1432
738.120	1007
738.233	2430
738.347	793
738.460	1051
738.573	664
738.687	1438
738.800	1316
738.913	1384
739.026	1243
739.140	818
739.253	1056
739.366	1021
739.479	166
739.592	1095
739.705	223
739.818	1696
739.932	1094
740.045	1238
740.158	1716
740.271	913
740.384	577
740.497	1009
740.610	977
740.723	1076
740.836	891
740.949	1405
741.062	1902
741.174	1768
741.287	801
741.400	1085
741.513	1287
741.626	883
741.739	244
741.851	1765
741.964	96
742.077	890
742.189	532
742.302	1627
742.415	859
742.527	1328
742.640	1044
742.753	1110
742.865	619
742.978	1084
743.090	526
743.203	820
743.316	982
743.428	1051
743.541	554
743.653	1014
743.766	-304
743.878	760
743.990	923
744.103	1979
744.215	859
744.327	333
744.440	1701
744.552	2295
744.664	1339
744.777	916
744.889	693
745.001	1327
745.113	431
745.226	1508
745.338	1263
745.450	461
745.562	432
745.674	814
745.786	1172
745.898	-218
746.010	242
746.122	197
746.234	419
746.347	1189
746.459	1339
746.570	904
746.682	913
746.794	933
746.906	1340
747.018	295
747.130	778
747.242	1110
747.354	790
747.466	1317
747.577	455
747.689	1002
747.801	826
747.913	553
748.024	450
748.136	1248
748.248	341
748.359	551
748.471	666
748.583	1012
748.694	-87
748.806	1630
748.918	932
749.029	876
749.141	642
749.252	841
749.364	1216
749.475	3043
749.587	809
749.698	1623
749.809	47
749.921	1410
750.032	847
750.144	885
750.255	-183
750.366	243
750.478	82
750.589	759
750.700	914
750.811	948
750.923	1496
751.034	2988
751.145	3318
751.256	555
751.367	272
751.479	708
751.590	752
751.701	934
751.812	278
751.923	692
752.034	710
752.145	1036
752.256	190
752.367	1178
752.478	502
752.589	971
752.700	97
752.811	583
752.922	229
753.032	755
753.143	-121
753.254	565
753.365	645
753.476	749
753.586	600
753.697	1232
753.808	650
753.919	393
754.029	487
754.140	1121
754.251	316
754.361	1055
754.472	10
754.582	601
754.693	6
754.804	789
754.914	-202
755.025	722
755.135	577
755.246	786
755.356	416
755.466	1341
755.577	366
755.687	895
755.798	306
755.908	987
756.018	451
756.129	978
756.239	123
756.349	1592
756.460	241
756.570	1088
756.680	215
756.790	785
756.900	231
757.011	548
757.121	101
757.231	948
757.341	169
757.451	385
757.561	-62
757.671	1131
757.781	732
757.891	765
758.001	276
758.111	1106
758.221	325
758.331	1406
758.441	814
758.551	707
758.661	730
758.771	732
758.880	1339
758.990	820
759.100	-271
759.210	1165
759.320	859
759.429	630
759.539	712
759.649	122
759.758	1539
759.868	1033
759.978	312
760.087	1431
760.197	1157
760.307	986
760.416	399
760.526	593
760.635	238
760.745	295
760.854	362
760.964	1235
761.073	716
761.182	339
761.292	626
761.401	1627
761.511	159
761.620	1833
761.729	1033
761.839	1072
761.948	641
762.057	-10
762.166	-29
762.276	564
762.385	874
762.494	545
762.603	252
762.712	1019
762.822	-340
762.931	743
763.040	118
763.149	379
763.258	303
763.367	734
763.476	171
763.585	280
763.694	277
763.803	520
763.912	232
764.021	2126
764.130	322
764.238	768
764.347	-234
764.456	94
764.565	303
764.674	1518
764.783	-562
764.891	911
765.000	560
765.109	638
765.217	155
765.326	176
765.435	979
765.543	2142
765.652	476
765.761	475
765.869	784
765.978	1776
766.086	2689
766.195	5872
766.303	14890
766.412	59532
766.520	70068
766.629	9031
766.737	2406
766.846	1287
766.954	403
767.062	1807
767.171	568
767.279	885
767.387	468
767.496	1643
767.604	574
767.712	1241
767.820	451
767.928	1556
768.037	60
768.145	743
768.253	790
768.361	403
768.469	58
768.577	787
768.685	778
768.793	238
768.901	-148
769.009	908
769.117	148
769.225	1166
769.333	786
769.441	1662
769.549	1413
769.657	5949
769.765	20201
769.873	61200
769.981	19511
770.088	2412
770.196	1544
770.304	557
770.412	1407
770.519	793
770.627	-92
770.735	828
770.842	647
770.950	1234
771.058	615
771.165	217
771.273	547
771.380	1363
771.488	960
771.595	765
771.703	162
771.810	783
771.918	789
772.025	1300
772.133	1017
772.240	1488
772.348	1720
772.455	1730
772.562	382
772.670	875
772.777	139
772.884	748
772.991	907
773.099	1250
773.206	-224
773.313	1457
773.420	955
773.528	677
773.635	673
773.742	1259
773.849	889
773.956	719
774.063	413
774.170	988
774.277	840
774.384	1207
774.491	-312
774.598	1034
774.705	770
774.812	748
774.919	386
775.026	1314
775.133	479
775.239	1483
775.346	-34
775.453	324
775.560	392
775.667	1159
775.773	641
775.880	1640
775.987	698
776.093	979
776.200	-376
776.307	573
776.413	778
776.520	330
776.627	1119
776.733	993
776.840	-468
776.946	2047
777.053	1211
777.159	307
777.266	-486
777.372	1611
777.478	677
777.585	862
777.691	738
777.798	1234
777.904	1187
778.010	1228
778.117	1129
778.223	1263
778.329	347
778.435	857
778.542	1212
778.648	590
778.754	-21
778.860	1027
778.966	528
779.072	-32
779.178	-430
779.284	1039
779.391	520
779.497	394
779.603	1629
779.708	-325
779.815	572
779.920	1187
780.026	1229
780.132	1032
780.238	-115
780.344	-59
780.450	519
780.556	687
780.661	-47
780.767	243
780.873	-149
780.979	1372
781.085	-352
781.190	1262
781.296	98
781.402	466
781.507	-99
781.613	562
781.719	-244
781.824	667
781.930	612
782.035	846
782.141	182
782.246	727
782.352	28
782.457	647
782.563	312
782.668	183
782.773	95
782.879	-191
782.984	638
783.090	1427
783.195	504
783.300	112
783.405	285
783.511	898
783.616	324
783.721	1071
783.826	137
783.932	645
784.037	216
784.142	337
784.247	74
784.352	319
784.457	469
784.562	520
784.667	190
784.772	-262
784.877	-561
784.982	1030
785.087	-762
785.192	1070
785.297	57
785.402	-71
785.507	509
785.611	691
785.716	580
785.821	237
785.926	-294
786.031	719
786.135	187
786.240	902
786.345	259
786.450	711
786.554	367
786.659	-302
786.763	-236
786.868	929
786.973	1067
787.077	864
787.182	-57
787.286	417
787.391	618
787.495	86
787.600	-53
787.704	-188
787.809	-1111
787.913	489
788.017	175
788.122	733
788.226	641
788.330	-140
788.435	604
788.539	-97
788.643	-104
788.747	193
788.852	-409
788.956	50
789.060	135
789.164	267
789.268	-575
789.372	665
789.476	-792
789.580	105
789.684	98
789.788	1170
789.892	-612
789.996	423
790.100	-581
790.204	659
790.308	-63
790.412	117
790.516	60
790.620	180
790.724	25
790.828	-443
790.931	-754
791.035	1460
791.139	-652
791.242	25
791.346	830
791.450	-143
791.554	-607
791.657	217
791.761	707
791.864	389
791.968	183
792.072	459
792.175	259
792.279	-120
792.382	367
792.486	112
792.589	288
792.693	1163
792.796	-403
792.899	650
793.003	-78
793.106	-276
793.209	10
793.313	1132
793.416	-1511
793.519	1264
793.623	446
793.726	1226
793.829	426
793.932	502
794.035	-884
794.138	1239
794.242	726
794.345	-315
794.448	832
794.551	360
794.654	466
794.757	1632
794.860	86
794.963	163
795.066	-443
795.169	1489
795.272	-393
795.375	426
795.477	-296
795.580	297
795.683	-1307
795.786	317
795.889	-1522
795.991	686
796.094	756
796.197	-401
796.300	542
796.402	-318
796.505	182
796.608	-324
796.710	663
796.813	153
796.915	-349
797.018	439
797.120	-1124
797.223	-732
797.326	153
797.428	88
797.530	230
797.633	828
797.735	331
797.838	571
797.940	241
798.042	64
798.145	75
798.247	-34
798.349	-951
798.452	554
798.554	-70
798.656	-585
798.758	851
798.860	-297
798.962	-785
799.065	-872
799.167	117
799.269	1191
799.371	517
799.473	1112
799.575	-516
799.677	295
799.779	1308
799.881	368
799.983	77
800.085	178
800.187	-227
800.289	-936
800.390	-16
800.492	-70
800.594	-395
800.696	-20
800.798	-530
800.899	401
801.001	-651
801.103	-86
801.205	-292
801.306	-70
801.408	-526
801.509	-153
801.611	87
801.713	888
801.814	-565
801.916	-247
802.017	-26
802.119	-785
802.220	-582
802.322	-625
802.423	623
802.525	-316
802.626	-794
802.727	462
802.829	-321
802.930	-1853
803.031	622
803.133	-603
803.234	-839
803.335	913
803.436	-1397
803.538	508
803.639	-890
803.740	278
803.841	-1461
803.942	263
804.043	60
804.144	-391
804.245	-158
804.346	-375
804.447	-621
804.548	-252
804.649	1072
804.750	-181
804.851	157
804.952	368
805.053	-195
805.154	-894
805.255	130
805.355	69
805.456	-222
805.557	94
805.658	-858
805.758	534
805.859	-1191
805.960	-96
806.061	-587
806.161	-394
806.262	-196
806.362	-717
806.463	-61
806.564	378
806.664	-1242
806.765	113
806.865	-1009
806.966	-473
807.066	-587
807.166	-561
807.267	244
807.367	-38
807.468	438
807.568	-1173
807.668	-96
807.769	-539
807.869	-429
807.969	-783
808.069	-293
808.170	655
808.270	-209
808.370	-526
808.470	146
808.570	-179
808.670	-291
808.770	415
808.870	-751
808.970	-907
809.070	-837
809.170	-526
809.271	-452
809.370	-923
809.470	-215
809.570	-240
809.670	-531
809.770	-132
809.870	-568
809.970	-182
810.070	-592
810.169	388
810.269	-1656
810.369	1255
810.469	-690
810.568	-80
810.668	-673
810.768	47
810.867	-843
810.967	-126
811.066	-1078
811.166	-321
811.265	414
811.365	332
811.464	-541
811.564	-99
811.663	-847
811.763	-1263
811.862	-406
811.962	-96
812.061	-980
812.160	66
812.260	-176
812.359	109
812.458	-612
812.557	150
812.657	-262
812.756	367
812.855	-400
812.954	-186
813.053	-245
813.153	-292
813.252	-301
813.351	143
813.450	-614
813.549	-1097
813.648	-334
813.747	-736
813.846	1
813.945	-5
814.044	-647
814.143	-394
814.242	31
814.341	-643
814.439	-50
814.538	-146
814.637	-6
814.736	127
814.835	-137
814.933	-532
815.032	-14
815.131	-93
815.229	202
815.328	285
815.427	-343
815.525	947
815.624	380
815.722	-543
815.821	-275
815.919	-151
816.018	-276
816.116	1234
816.215	-207
816.313	26
816.412	-482
816.510	55
816.609	338
816.707	-444
816.805	-421
816.904	6
817.002	741
817.100	1619
817.198	793
817.296	223
817.395	230
817.493	934
817.591	326
817.689	876
817.787	-731
817.885	1061
817.983	1006
818.081	3524
818.179	7645
818.277	22842
818.375	20296
818.473	4175
818.571	592
818.669	691
818.767	1386
818.865	831
818.963	82
819.061	1195
819.158	2213
819.256	7503
819.354	18181
819.452	43859
819.549	26253
819.647	5724
819.745	1039
819.842	1829
819.940	-165
820.038	486
820.135	1112
820.233	1104
820.330	-822
820.428	-273
820.525	70
820.623	127
820.720	-182
820.818	324
820.915	959
821.012	40
821.110	-503
821.207	510
821.304	-674
821.402	252
821.499	280
821.596	635
821.693	-278
821.791	1004
821.888	1108
821.985	1209
822.082	-151
822.179	684
822.276	-517
822.373	-372
822.470	-254
822.567	-224
822.664	-1060
822.761	268
822.858	-1517
822.955	-453
823.052	-384
823.149	107
823.246	-629
823.343	-106
823.440	-352
823.536	-192
823.633	-926
823.730	-240
823.827	-326
823.923	-551
824.020	419
824.117	-210
824.213	-1065
824.310	1103
824.407	-644
824.503	-582
824.600	-128
824.696	182
824.793	-232
824.889	-417
824.986	-867
825.082	-520
825.179	-460
825.275	-131
825.371	-236
825.468	555
825.564	-865
825.660	-470
825.757	112
825.853	105
825.949	-722
826.045	256
826.142	-525
826.238	-599
826.334	-354
826.430	-217
826.526	-640
826.622	-528
826.718	-345
826.814	41
826.910	444
827.006	-1022
827.102	-1451
827.198	-47
827.294	-1031
827.390	-197
827.486	500
827.582	-992
827.678	-1594
827.774	305
827.869	-1233
827.965	1013
828.061	-312
828.157	-97
828.252	-602
828.348	-472
828.444	310
828.539	-467
828.635	-827
828.731	305
828.826	-958
828.922	-84
829.017	-848
829.113	-400
829.208	-432
829.304	-1190
829.399	843
829.495	-365
829.590	-567
829.685	-892
829.781	-39
829.876	-362
829.971	-795
830.066	-748
830.162	-61
830.257	-453
830.352	-125
830.447	337
830.543	429
830.638	-962
830.733	-151
830.828	174
830.923	-371
831.018	-800
831.113	-841
831.208	-1027
831.303	-1164
831.398	277
831.493	-317
831.588	-310
831.683	-751
831.778	-54
831.873	-586
831.967	434
832.062	-1045
832.157	-52
832.252	457
832.346	-715
832.441	-959
832.536	173
832.631	1144
832.725	850
832.820	-686
832.914	-324
833.009	-651
833.104	-304
833.198	-275
833.293	-577
833.387	-710
833.482	383
833.576	-1350
833.670	625
833.765	-1112
833.859	-672
833.954	-512
834.048	-216
834.142	-631
834.237	-549
834.331	-1167
834.425	87
834.519	-1499
834.613	171
834.708	-801
834.802	-552
834.896	-1149
834.990	-749
835.084	-703
835.178	-869
835.272	-1005
835.366	-103
835.460	-76
835.554	-43
835.648	-235
835.742	-782
835.836	-65
835.930	-331
836.024	-301
836.117	451
836.211	-1801
836.305	-106
836.399	-483
836.493	-1401
836.586	-40
836.680	-1311
836.774	-1326
836.867	40
836.961	-1100
837.055	-305
837.148	-247
837.242	-507
837.335	-780
837.429	-135
837.522	-721
837.616	-881
837.709	-1024
837.803	-643
837.896	-1576
837.989	-1105
838.083	-573
838.176	-375
838.269	-1278
838.363	62
838.456	-298
838.549	105
838.642	-894
838.735	1287
838.829	599
838.922	-527
839.015	-151
839.108	-1186
839.201	-697
839.294	-232
839.387	-401
839.480	-735
839.573	-754
839.666	-170
839.759	-689
839.852	-1227
839.945	-1001
840.038	-590
840.131	-1422
840.223	-1084
840.316	-171
840.409	14
840.502	-1779
840.594	114
840.687	-1582
840.780	-436
840.873	-988
840.965	-694
841.058	-358
841.150	-332
841.243	-1566
841.336	-300
841.428	-655
841.521	63
841.613	-1600
841.706	-566
841.798	-110
841.890	-602
841.983	-1063
842.075	-40
842.167	-989
842.260	-652
842.352	-543
842.444	-759
842.537	-683
842.629	-246
842.721	-896
842.813	-184
842.905	-1968
842.997	99
843.090	-744
843.182	-397
843.274	-676
843.366	31
843.458	123
843.550	636
843.642	-1248
843.734	172
843.826	-1425
843.918	123
844.009	167
844.101	-759
844.193	-901
844.285	-1310
844.377	-1011
844.469	-183
844.560	-2135
844.652	-258
844.744	-1103
844.835	-990
844.927	-1168
845.019	-648
845.110	-720
845.202	-482
845.293	-343
845.385	-804
845.476	-1038
845.568	-827
845.659	-541
845.751	34
845.842	-669
845.934	-1090
846.025	-1113
846.116	-791
846.208	-1098
846.299	-902
846.390	-654
846.482	-39
846.573	-229
846.664	-78
846.755	-628
846.846	142
846.937	-2116
847.029	-796
847.120	-2208
847.211	-777
847.302	-47
847.393	-777
847.484	80
847.575	-1125
847.666	-1161
847.757	-585
847.847	-1292
847.938	-520
848.029	-1317
848.120	-349
848.211	-750
848.302	-1024
848.392	-1545
848.483	-496
848.574	-1049
848.664	79
848.755	-1091
848.846	-566
848.936	-1790
849.027	-925
849.118	-968
849.208	-1064
849.299	-491
849.389	230
849.480	1475
849.570	4421
849.661	7662
849.751	18600
849.841	8209
849.932	-146
850.022	-642
850.112	-716
850.203	-1134
850.293	-694
850.383	-734
850.474	-1233
850.564	-945
850.654	-951
850.744	-1101
850.834	-404
850.924	-237
851.014	1
851.104	-1190
851.194	-1595
851.284	-378
851.374	-483
851.464	-371
851.554	-987
851.644	-2016
851.734	146
851.824	-1258
851.914	-871
852.004	-184
852.094	-82
852.183	-1136
852.273	-455
852.363	-828
852.452	-498
852.542	-577
852.632	-1216
852.721	-418
852.811	-386
852.901	-1292
852.990	-1113
853.080	-634
853.169	-1031
853.259	-1385
853.348	-1032
853.438	-182
853.527	1098
853.617	287
853.706	2344
853.795	4579
853.885	12856
853.974	25782
854.063	47379
854.152	86431
854.242	40122
854.331	6024
854.420	1279
854.509	44
854.598	345
854.687	306
854.777	-364
854.866	-860
854.955	700
855.044	-1270
855.133	-598
855.222	-338
855.311	-967
855.400	-915
855.488	-824
855.577	-1947
855.666	-587
855.755	-157
855.844	-630
855.933	-1534
856.021	-587
856.110	-605
856.199	-1581
856.288	-1091
856.376	-551
856.465	-1634
856.554	44
856.642	-1231
856.731	47
856.819	-1003
856.908	-167
856.996	-474
857.085	-1217
857.173	-1368
857.262	-1386
857.350	-1095
857.438	-773
857.527	-1602
857.615	-871
857.703	-749
857.792	-1178
857.880	-1427
857.968	-621
858.056	-1299
858.145	-220
858.233	-1004
858.321	-757
858.409	-845
858.497	-1340
858.585	-2100
858.673	-926
858.761	-1423
858.849	-811
858.937	-605
859.025	-317
859.113	-865
859.201	-577
859.289	-544
859.377	-864
859.465	-792
859.552	-845
859.640	-1378
859.728	-1341
859.816	-846
859.903	-811
859.991	-1293
860.079	-58
860.166	-1101
860.254	-919
860.342	-797
860.429	-971
860.517	-1603
860.604	192
860.692	-1023
860.779	-1308
860.867	-777
860.954	-637
861.042	-1256
861.129	-739
861.216	-427
861.304	-504
861.391	-109
861.478	-1176
861.565	-308
861.653	-662
861.740	-1813
861.827	-1022
861.914	-966
862.001	-227
862.089	-432
862.176	-733
862.263	-991
862.350	-619
862.437	-1470
862.524	-1424
862.611	-878
862.698	-258
862.785	-785
862.871	-283
862.958	-912
863.045	-971
863.132	-790
863.219	-359
863.306	-1968
863.392	-728
863.479	-1204
863.566	-208
863.652	-89
863.739	-901
863.826	-80
863.912	-699
863.999	-630
864.086	-1330
864.172	-706
864.259	-928
864.345	-1533
864.432	-1114
864.518	-1439
864.604	-773
864.691	-1133
864.777	-516
864.863	-672
864.950	-461
865.036	-755
865.122	-226
865.209	459
865.295	409
865.381	-157
865.467	227
865.553	5
865.639	1832
865.726	2484
865.812	6047
865.898	14133
865.984	21113
866.070	38197
866.156	53915
866.242	14761
866.328	2365
866.414	-513
866.499	-1
866.585	239
866.671	506
866.757	535
866.843	-129
866.928	-485
867.014	-767
867.100	44
867.186	9
867.271	-201
867.357	117
867.442	-250
867.528	136
867.614	73
867.699	-317
867.785	617
867.870	-430
867.956	-306
868.041	127
868.127	-746
868.212	193
868.297	222
868.383	859
868.468	-704
868.553	992
868.639	828
868.724	1773
868.809	1759
868.894	361
868.979	-311
869.065	311
869.150	-1508
869.235	-822
869.320	-1195
869.405	-18
869.490	-632
869.575	60
869.660	-339
869.745	606
869.830	-1023
869.915	-1015
870.000	-1034
870.085	-324
870.169	-85
870.254	-68
870.339	-971
870.424	-313
870.509	-525
870.593	484
870.678	-647
870.763	-66
870.847	-548
870.932	-879
871.016	-613
871.101	-888
871.186	-1196
871.270	247
871.355	-642
871.439	-188
871.523	-637
871.608	-235
871.692	-533
871.777	355
871.861	-342
871.945	-124
872.030	-910
872.114	-217
872.198	-967
872.282	13
872.367	263
872.451	-890
872.535	-1296
872.619	-170
872.703	-752
872.787	-485
872.871	-1143
872.955	-139
873.039	-707
873.123	-433
873.207	-224
873.291	-881
873.375	-1546
873.459	96
873.543	-771
873.627	-433
873.711	-1451
873.794	-370
873.878	-941
873.962	-574
874.045	-341
874.129	-750
874.137	-784
874.213	-1125
874.245	-713
874.296	-43
874.352	-1042
874.380	-1538
874.460	-687
874.464	-653
874.547	-820
874.568	-756
874.631	-577
874.676	-677
874.714	-755
874.784	44
874.798	204
874.881	-689
874.892	-756
874.965	-1231
874.999	-991
875.048	-693
875.107	-755
875.131	-758
875.215	-206
875.215	-206
875.298	-161
875.323	-241
875.381	-427
875.430	-455
875.465	-449
875.538	115
875.548	178
875.631	-539
875.646	-589
875.714	-738
875.753	-866
875.798	-1018
875.861	-951
875.881	-964
875.964	-252
875.968	-292
876.047	-802
876.076	-406
876.130	233
876.183	-501
876.213	-864
876.291	-234
876.296	-200
876.379	-788
876.398	-759
876.462	-688
876.506	-780
876.545	-769
876.613	-450
876.628	-395
876.711	-586
876.721	-519
876.794	25
876.828	-358
876.877	-974
876.935	-524
876.960	-353
877.043	-916
877.043	-914
877.125	-16
877.150	120
877.208	167
877.258	186
877.291	342
877.365	-533
877.374	-657
877.456	-493
877.472	-499
877.539	-518
877.579	-274
877.622	-57
877.687	-525
877.704	-647
877.787	-349
877.794	-375
877.869	-629
877.901	-380
877.952	92
878.008	-362
878.034	-594
878.115	-148
878.117	-139
878.199	-874
878.222	-621
878.282	224
878.329	-108
878.364	-459
878.437	-147
878.447	-83
878.529	-554
878.544	-495
878.611	-370
878.651	-473
878.694	-493
878.758	-231
878.776	-161
878.858	-614
878.865	-570
878.941	-5
878.972	-38
879.023	-173
879.078	-268
879.105	-245
879.185	61
879.187	71
879.269	281
879.292	216
879.351	-321
879.399	-370
879.433	-192
879.506	304
879.516	358
879.598	99
879.613	54
879.680	-292
879.720	-121
879.762	152
879.827	-615
879.844	-790
879.926	309
879.933	301
880.007	-78
880.040	65
880.089	355
880.147	200
880.171	258
880.253	870
880.254	868
880.335	821
880.360	1059
880.417	2457
880.467	3931
880.499	5347
880.574	8622
880.580	8448
880.662	3723
880.680	2742
880.744	802
880.787	-57
880.825	-185
880.893	156
880.907	246
880.989	87
881.000	136
881.070	417
881.106	236
881.152	-99
881.213	7
881.233	94
881.315	3
881.319	14
881.396	277
881.426	69
881.478	-304
881.532	152
881.559	320
881.639	-294
881.641	-300
881.722	281
881.745	259
881.803	287
881.852	369
881.885	229
881.958	-12
881.966	30
882.047	725
882.064	777
882.129	642
882.171	534
882.210	800
882.277	1463
882.291	1458
882.372	1139
882.383	1098
882.454	496
882.489	347
882.535	579
882.596	125
882.616	-89
882.697	120
882.702	92
882.778	330
882.808	558
882.859	521
882.914	492
882.940	583
883.020	261
883.021	260
883.102	347
883.127	171
883.183	279
883.233	546
883.264	535
883.339	573
883.345	567
883.426	321
883.445	277
883.507	61
883.551	-344
883.587	-250
883.657	694
883.668	795
883.749	836
883.763	886
883.830	613
883.869	230
883.910	206
883.975	534
883.991	568
884.072	343
884.081	349
884.152	553
884.187	536
884.233	542
884.292	835
884.314	795
884.394	67
884.398	59
884.475	457
884.504	311
884.555	-47
884.610	251
884.636	421
884.716	103
884.716	108
884.797	748
884.821	898
884.877	472
884.927	54
884.958	104
885.033	165
885.038	169
885.118	320
885.139	299
885.199	85
885.244	-61
885.279	-142
885.350	-50
885.359	49
885.439	862
885.456	961
885.520	425
885.561	212
885.600	398
885.667	544
885.680	543
885.760	500
885.773	505
885.840	765
885.878	856
885.920	777
885.984	676
886.000	654
886.080	596
886.089	600
886.160	922
886.195	912
886.240	429
886.300	-161
886.320	-63
886.400	511
886.406	542
886.480	541
886.511	507
886.560	901
886.616	1251
886.640	1020
886.720	433
886.722	413
886.800	145
886.827	20
886.879	515
886.932	1120
886.959	1153
887.038	1088
887.039	1091
887.119	756
887.143	697
887.198	631
887.248	537
887.278	509
887.354	482
887.358	489
887.437	419
887.459	434
887.517	645
887.564	699
887.596	696
887.669	849
887.676	816
887.755	152
887.774	1
887.835	127
887.880	340
887.914	596
887.985	890
887.994	856
888.073	586
888.090	526
888.153	276
888.195	96
888.232	341
888.300	775
888.311	855
888.391	1351
888.405	1444
888.470	731
888.510	255
888.549	152
888.615	21
888.628	103
888.708	554
888.720	622
888.787	748
888.825	781
888.866	459
888.930	1
888.945	89
889.024	513
889.035	581
889.103	828
889.140	885
889.182	548
889.245	108
889.261	303
889.340	1201
889.349	1302
889.419	987
889.454	816
889.498	790
889.559	757
889.577	788
889.656	901
889.664	911
889.735	1383
889.768	1597
889.814	1316
889.873	938
889.978	954
890.083	854
890.187	668
890.292	1654
890.397	856
890.501	657
890.606	378
890.710	1104
890.815	1184
890.919	959
891.024	1352
891.128	890
891.233	995
891.337	486
891.442	583
891.546	746
891.650	969
891.755	99
891.859	2103
891.963	1431
892.068	413
892.172	217
892.276	421
892.380	1030
892.484	1214
892.589	1099
892.693	788
892.797	1236
892.901	724
893.005	1047
893.109	2241
893.213	1542
893.317	1836
893.421	1421
893.525	982
893.629	195
893.733	945
893.837	738
893.941	199
894.045	1271
894.148	411
894.252	951
894.356	976
894.460	1119
894.564	808
894.667	1354
894.771	601
894.875	719
894.978	382
895.082	797
895.186	1245
895.289	1320
895.393	901
895.496	1679
895.600	601
895.703	979
895.807	822
895.910	370
896.014	776
896.117	607
896.221	700
896.324	1169
896.427	375
896.531	-83
896.634	887
896.737	1143
896.840	1507
896.944	1373
897.047	1132
897.150	882
897.253	294
897.356	233
897.460	882
897.563	1083
897.666	1142
897.769	507
897.872	453
897.975	567
898.078	445
898.181	274
898.284	1059
898.387	960
898.490	590
898.593	644
898.695	520
898.798	282
898.901	1012
899.004	599
899.107	306
899.209	779
899.312	1025
899.415	1046
899.518	1007
899.620	392
899.723	2044
899.826	1568
899.928	3029
900.031	742
900.133	-58
900.236	1630
900.338	268
900.441	218
900.543	816
900.646	516
900.748	200
900.851	1140
900.953	598
901.055	681
901.158	322
901.260	1330
901.362	990
901.465	228
901.567	846
901.669	1013
901.771	442
901.873	858
901.976	590
902.078	1168
902.180	1383
902.282	725
902.384	1338
902.486	710
902.588	1336
902.690	353
902.792	60
902.894	847
902.996	530
903.098	985
903.200	-44
903.302	854
903.404	342
903.505	321
903.607	233
903.709	699
903.811	288
903.913	902
904.014	224
904.116	891
904.218	-433
904.319	1153
904.421	565
904.523	930
904.624	854
904.726	1054
904.827	917
904.929	692
905.030	352
905.132	892
905.233	951
905.335	670
905.436	1045
905.537	581
905.639	273
905.740	286
905.841	423
905.943	288
906.044	651
906.145	1072
906.247	-107
906.348	796
906.449	1007
906.550	258
906.651	40
906.752	62
906.854	933
906.955	984
907.056	287
907.157	457
907.258	882
907.359	668
907.460	573
907.561	247
907.662	483
907.762	401
907.863	-93
907.964	1126
908.065	778
908.166	622
908.267	-115
908.367	590
908.468	921
908.569	718
908.670	663
908.770	900
908.871	1286
908.971	1052
909.072	1557
909.173	11
909.273	635
909.374	905
909.474	546
909.575	-584
909.675	228
909.776	480
909.876	919
909.977	125
910.077	772
910.177	336
910.278	1105
910.378	924
910.478	-333
910.579	407
910.679	1065
910.779	1056
910.879	41
910.980	392
911.080	86
911.180	646
911.280	-399
911.380	216
911.480	413
911.580	857
911.680	-125
911.780	956
911.880	1063
911.980	-195
912.080	475
912.180	300
912.280	-24
912.380	738
912.480	258
912.580	769
912.679	-9
912.779	987
912.879	163
912.979	294
913.078	-714
913.178	488
913.278	-494
913.377	-558
913.477	147
913.577	379
913.676	1037
913.776	537
913.875	201
913.975	452
914.074	360
914.174	715
914.273	767
914.373	96
914.472	237
914.572	542
914.671	370
914.770	646
914.870	771
914.969	320
915.068	24
915.167	442
915.267	-343
915.366	-148
915.465	764
915.564	359
915.663	197
915.763	632
915.862	521
915.961	233
916.060	22
916.159	72
916.258	9
916.357	73
916.456	1197
916.555	-29
916.654	82
916.752	1076
916.851	118
916.950	258
917.049	79
917.148	499
917.247	540
917.345	260
917.444	21
917.543	395
917.642	362
917.740	401
917.839	1013
917.937	1071
918.036	414
918.135	211
918.233	-36
918.332	328
918.430	816
918.529	-320
918.627	95
918.726	189
918.824	609
918.923	96
919.021	19
919.119	487
919.218	-463
919.316	236
919.414	590
919.512	1000
919.611	224
919.709	-146
919.807	482
919.905	539
920.003	764
920.102	156
920.200	237
920.298	311
920.396	-145
920.494	943
920.592	317
920.690	741
920.788	-731
920.886	8
920.984	57
921.082	606
921.180	842
921.277	557
921.375	1113
921.473	400
921.571	697
921.669	1042
921.766	1274
921.864	955
921.962	1250
922.060	960
922.157	710
922.255	1475
922.352	1178
922.450	798
922.548	519
922.645	895
922.743	1982
922.840	2545
922.938	2284
923.035	3002
923.133	2260
923.230	2718
923.327	3670
923.425	3755
923.522	3591
923.619	2425
923.717	2154
923.814	2952
923.911	2854
924.008	2393
924.106	2906
924.203	2639
924.300	2975
924.397	2040
924.494	2722
924.591	2685
924.688	1920
924.786	2754
924.883	2512
924.979	3007
925.077	2337
925.173	2221
925.270	2959
925.367	2067
925.464	2840
925.561	2664
925.658	2709
925.755	2822
925.852	3695
925.948	3200
926.045	2875
926.142	2302
926.239	2650
926.335	2314
926.432	2556
926.529	1669
926.625	3057
926.722	2409
926.818	2170
926.915	2371
927.011	2117
927.108	2440
927.204	1871
927.301	2014
927.397	2752
927.494	2867
927.590	1447
927.687	1974
927.783	2546
927.879	2817
927.976	1423
928.072	2072
928.168	2111
928.264	2078
928.361	2196
928.457	2274
928.553	2544
928.649	2384
928.745	2291
928.841	2158
928.937	1551
929.033	2447
929.129	1360
929.225	2573
929.321	1262
929.417	1376
929.513	2312
929.609	2215
929.705	1245
929.801	2775
929.897	979
929.993	1603
930.089	2539
930.184	1143
930.280	2418
930.376	2354
930.471	1510
930.567	2316
930.663	2058
930.758	1105
930.854	1413
930.950	2843
931.045	1839
931.141	1627
931.236	2394
931.332	1299
931.427	1309
931.523	1679
931.618	2419
931.714	420
931.809	2063
931.905	1780
932.000	1180
932.095	975
932.191	1910
932.286	2481
932.381	1449
932.476	1510
932.572	1729
932.667	1529
932.762	1238
932.857	1418
932.952	2081
933.047	1750
933.142	720
933.237	1613
933.332	1909
933.427	2327
933.522	1288
933.617	1592
933.712	1822
933.807	1818
933.902	2394
933.997	1928
934.092	1664
934.187	1441
934.282	1140
934.376	1616
934.471	1656
934.566	1483
934.661	912
934.755	837
934.850	1444
934.945	1210
935.039	1986
935.134	2039
935.228	1580
935.323	2207
935.417	1073
935.512	1364
935.606	1269
935.701	2502
935.795	1017
935.890	1559
935.984	1150
936.079	1171
936.173	1638
936.267	826
936.362	988
936.456	1291
936.550	2019
936.644	2260
936.738	1186
936.833	1498
936.927	909
937.021	1109
937.115	1037
937.209	1444
937.303	1738
937.397	882
937.491	700
937.585	1457
937.679	1136
937.773	914
937.867	611
937.961	757
938.055	1416
938.149	1641
938.243	1285
938.337	1433
938.430	713
938.524	1542
938.618	1577
938.712	1419
938.805	539
938.899	938
938.993	1865
939.086	1362
939.180	993
939.274	330
939.367	1669
939.461	1206
939.554	1418
939.648	1602
939.741	1282
939.835	1443
939.928	1610
940.022	1516
940.115	1798
940.208	1739
940.302	1030
940.395	984
940.488	490
940.582	694
940.675	1128
940.768	1371
940.861	1635
940.954	1864
941.048	756
941.141	808
941.234	1469
941.327	1766
941.420	3197
941.513	2210
941.606	744
941.699	1506
941.792	1426
941.885	1588
941.978	2018
942.071	925
942.164	629
942.257	278
942.349	1662
942.442	327
942.535	399
942.628	-1
942.721	1292
942.813	80
942.906	1527
942.999	869
943.091	887
943.184	1468
943.277	1121
943.369	1705
943.462	689
943.554	1192
943.647	592
943.739	1720
943.832	1708
943.924	205
944.017	392
944.109	502
944.201	1145
944.294	985
944.386	1221
944.478	383
944.571	889
944.663	1032
944.755	919
944.847	618
944.940	310
945.032	410
945.124	777
945.216	1764
945.308	1334
945.400	1631
945.492	1097
945.584	794
945.676	1267
945.768	2018
945.860	1244
945.952	594
946.044	836
946.136	545
946.228	684
946.320	214
946.412	499
946.503	1881
946.595	1902
946.687	100
946.779	420
946.870	700
946.962	342
947.054	190
947.145	1611
947.237	701
947.329	328
947.420	611
947.512	981
947.603	767
947.695	400
947.786	1000
947.878	240
947.969	222
948.061	1194
948.152	292
948.243	1076
948.335	921
948.426	-214
948.517	688
948.609	1314
948.700	754
948.791	1477
948.882	435
948.973	682
949.065	35
949.156	775
949.247	-122
949.338	440
949.429	-95
949.520	390
949.611	-74
949.702	1537
949.793	806
949.884	445
949.975	217
950.066	38
950.157	937
950.247	98
950.338	-154
950.429	432
950.520	793
950.611	-413
950.701	603
950.792	1097
950.883	600
950.973	876
951.064	303
951.155	866
951.245	907
951.336	259
951.427	479
951.517	1660
951.608	-107
951.698	1034
951.788	715
951.879	323
951.969	129
952.060	268
952.150	899
952.240	643
952.331	439
952.421	1419
952.511	-56
952.602	217
952.692	70
952.782	220
952.872	-40
952.962	601
953.052	759
953.143	-32
953.233	698
953.323	990
953.413	-34
953.503	719
953.593	615
953.683	341
953.773	-112
953.863	40
953.953	-384
954.042	921
954.132	433
954.222	808
954.312	772
954.402	426
954.492	222
954.581	486
954.671	182
954.761	-354
954.850	732
954.940	359
955.030	42
955.119	256
955.209	74
955.298	475
955.388	991
955.477	611
955.567	290
955.656	501
955.746	256
955.835	-75
955.925	644
956.014	767
956.103	606
956.193	64
956.282	330
956.371	551
956.461	501
956.550	536
956.639	95
956.728	172
956.817	865
956.906	335
956.995	771
957.085	514
957.174	904
957.263	171
957.352	448
957.441	369
957.530	-34
957.619	652
957.708	-140
957.796	161
957.885	-114
957.974	101
958.063	282
958.152	-586
958.241	500
958.329	461
958.418	-196
958.507	260
958.596	769
958.684	-3
958.773	634
958.861	-228
958.950	112
959.039	491
959.127	-44
959.216	610
959.304	-147
959.393	423
959.481	1088
959.570	-478
959.658	188
959.746	29
959.835	421
959.923	21
960.011	30
960.100	122
960.188	118
960.276	743
960.365	243
960.453	474
960.541	-457
960.629	67
960.717	-179
960.805	-411
960.893	202
960.981	71
961.069	679
961.158	824
961.245	483
961.333	485
961.421	19
961.509	541
961.597	700
961.685	-231
961.773	-126
961.861	215
961.949	528
962.036	-661
962.124	458
962.212	51
962.299	266
962.387	-12
962.475	599
962.562	-696
962.650	844
962.738	-276
962.825	580
962.913	-322
963.000	-381
963.088	386
963.175	31
963.263	-250
963.350	158
963.438	134
963.525	-526
963.612	628
963.700	910
963.787	2569
963.874	1318
963.962	411
964.049	584
964.136	473
964.223	-324
964.310	588
964.398	-35
964.485	-116
964.572	393
964.659	863
964.746	-79
964.833	-344
964.920	616
965.007	408
965.094	312
965.181	-779
965.268	-371
965.355	667
965.441	487
965.528	-594
965.615	1031
965.702	-379
965.789	-345
965.875	235
965.962	366
966.049	-137
966.136	1044
966.222	-480
966.309	1137
966.395	176
966.482	440
966.569	40
966.655	58
966.742	423
966.828	-294
966.915	41
967.001	73
967.087	-977
967.174	6
967.260	855
967.347	-49
967.433	-43
967.519	1699
967.605	536
967.692	108
967.778	526
967.864	598
967.950	-662
968.036	-298
968.123	946
968.209	-681
968.295	-318
968.381	213
968.467	-95
968.553	-881
968.639	327
968.725	65
968.811	795
968.897	911
968.983	317
969.069	-302
969.154	94
969.240	147
969.326	159
969.412	429
969.497	-697
969.583	-578
969.669	623
969.755	-107
969.840	-410
969.926	121
970.012	786
970.097	1132
970.183	1800
970.268	576
970.354	162
970.439	14
970.525	840
970.610	753
970.696	596
970.781	75
970.866	0
970.952	604
971.037	471
971.122	-549
971.208	-85
971.293	-112
971.378	-822
971.463	-662
971.549	244
971.634	-529
971.719	-300
971.804	-181
971.889	103
971.974	-99
972.059	133
972.144	-19
972.229	250
972.314	-145
972.399	-160
972.484	-534
972.569	466
972.654	142
972.739	281
972.824	-57
972.908	534
972.993	-52
973.078	325
973.163	-524
973.247	181
973.332	-576
973.417	1290
973.501	-848
973.586	832
973.671	208
973.755	260
973.840	342
973.924	636
974.009	-341
974.093	-135
974.178	1123
974.262	-433
974.346	-341
974.431	333
974.515	-979
974.600	105
974.684	420
974.768	-778
974.852	606
974.937	-466
975.021	411
975.105	-153
975.189	102
975.273	336
975.358	248
975.442	-1622
975.526	391
975.610	-420
975.694	-175
975.778	520
975.862	612
975.946	-1815
976.030	936
976.114	-378
976.198	-337
976.281	260
976.365	-237
976.449	-326
976.533	20
976.617	-197
976.700	484
976.784	-76
976.868	-248
976.951	-493
977.035	-675
977.119	-167
977.202	78
977.286	166
977.369	248
977.453	508
977.536	636
977.620	431
977.703	41
977.787	-1432
977.870	599
977.953	110
978.037	-887
978.120	806
978.203	432
978.287	-227
978.370	209
978.453	848
978.536	-39
978.620	616
978.703	-92
978.786	71
978.869	-910
978.952	119
979.035	536
979.118	-247
979.201	-744
979.284	-100
979.367	49
979.450	-243
979.533	-452
979.616	408
979.699	-29
979.782	-65
979.865	122
979.948	-1095
980.030	-111
980.113	364
980.196	-68
980.279	536
980.361	-235
980.444	-443
980.526	-83
980.609	608
980.692	-51
980.774	399
980.857	-1050
980.939	611
981.022	-196
981.104	-532
981.187	-745
981.269	285
981.352	153
981.434	-841
981.516	275
981.599	273
981.681	-481
981.763	-826
981.846	-241
981.928	-724
982.010	230
982.092	-21
982.174	1360
982.256	147
982.339	348
982.421	-873
982.503	639
982.585	-956
982.667	-171
982.749	484
982.831	-704
982.913	-1084
982.995	545
983.077	-1069
983.158	1010
983.240	-710
983.322	819
983.404	464
983.486	-31
983.568	93
983.649	19
983.731	-411
983.813	-169
983.894	170
983.976	-115
984.058	201
984.139	494
984.221	-815
984.302	271
984.384	-588
984.465	175
984.547	-339
984.628	273
984.710	645
984.791	-348
984.872	-311
984.954	-215
985.035	-907
985.116	-161
985.198	50
985.279	694
985.360	-846
985.441	244
985.522	962
985.604	-255
985.685	-1293
985.766	483
985.847	850
985.928	297
986.009	-758
986.090	-211
986.171	682
986.252	-1045
986.333	-48
986.414	234
986.495	308
986.576	-648
986.656	18
986.737	-193
986.818	221
986.899	139
986.980	-527
987.060	460
987.141	-723
987.222	681
987.302	302
987.383	1236
987.464	-257
987.544	456
987.625	643
987.705	439
987.786	1471
987.866	24
987.947	-273
988.027	-626
988.108	-477
988.188	305
988.268	-223
988.349	427
988.429	710
988.509	732
988.589	-619
988.670	-1196
988.750	542
988.830	-226
988.910	498
988.990	115
989.070	476
989.151	120
989.231	-510
989.311	-119
989.391	-807
989.471	-273
989.551	99
989.631	-668
989.711	216
989.791	-694
989.870	-523
989.950	5
990.030	73
990.110	-445
990.190	-1085
990.269	-402
990.349	-740
990.429	-403
990.509	168
990.588	-1202
990.668	-238
990.747	-312
990.827	294
990.907	-317
990.986	-287
991.066	146
991.145	-257
991.225	50
991.304	-784
991.383	614
991.463	-597
991.542	100
991.622	-1105
991.701	-632
991.780	107
991.859	-271
991.939	-352
992.018	-626
992.097	-685
992.176	-1275
992.256	114
992.335	-511
992.414	691
992.493	-315
992.572	-406
992.651	546
992.730	-247
992.809	-605
992.888	-454
992.967	-1908
993.046	-428
993.125	-1088
993.203	-525
993.282	-1
993.361	-1035
993.440	-10
993.519	-603
993.597	-441
993.676	-1936
993.755	148
993.834	-244
993.912	-1710
993.991	-236
994.069	-775
994.148	-736
994.226	-600
994.305	-967
994.384	-1436
994.462	-200
994.540	-1158
994.619	-1396
994.697	-128
994.776	-799
994.854	357
994.932	-1069
995.011	302
995.089	-1157
995.167	-940
995.245	-644
995.324	-1123
995.402	-406
995.480	-1106
995.558	-683
995.636	-931
995.714	-1136
995.792	142
995.870	-1262
995.948	-465
996.026	-392
996.104	-1503
996.182	-488
996.260	-1414
996.338	-318
996.416	-1701
996.494	-503
996.572	118
996.649	-555
996.727	-1522
996.805	-248
996.883	-1372
996.960	-798
997.038	-793
997.116	-918
997.193	-1825
997.271	-636
997.348	-1446
997.426	-550
997.504	-1092
997.581	-1003
997.658	-784
997.736	-1508
997.813	-1970
997.891	7
997.968	-1525
998.046	-633
998.123	-826
998.200	-1099
998.277	-951
998.355	-470
998.432	-1138
998.509	-1870
998.586	-710
998.663	-1290
998.741	-806
998.818	-1858
998.895	-1508
998.972	-849
999.049	-1077
999.126	-1671
999.203	-47
999.280	-957
999.357	-1581
999.434	-1390
999.511	-814
999.587	-337
999.664	-1602
999.741	-1093
999.818	-392
999.895	-1198
999.971	-1343
1000.048	-868
1000.125	-474
1000.202	-1081
1000.278	-429
1000.355	-1268
1000.431	-1557
1000.508	-964
1000.584	-1295
1000.661	-503
1000.738	-1258
1000.814	-1075
1000.890	-699
1000.967	-1502
1001.043	-1129
1001.120	-1971
1001.196	-984
1001.272	-1946
1001.349	-1023
1001.425	-965
1001.501	-1940
1001.577	-1210
1001.654	-627
1001.730	-798
1001.806	-179
1001.882	-1676
1001.958	-798
1002.034	-772
1002.110	-1155
1002.186	-1451
1002.262	-946
1002.338	-1770
1002.414	-1541
1002.490	-1082
1002.566	-1083
1002.642	-1984
1002.718	-223
1002.794	-656
1002.870	-719
1002.945	-1431
1003.021	-1359
1003.097	-1847
1003.173	-297
1003.248	-1421
1003.324	-901
1003.400	-2076
1003.475	-2012
1003.551	-1637
1003.626	-1421
1003.702	-939
1003.777	-858
1003.853	-1667
1003.928	-1617
1004.004	-1385
1004.079	-813
1004.155	-1098
1004.230	-1164
1004.305	-817
1004.381	-2042
1004.456	-1073
1004.531	-1228
1004.607	-1642
1004.682	-1660
1004.757	-1004
1004.832	-1035
1004.907	-1290
1004.982	-581
1005.057	-1377
1005.133	-1026
1005.208	-2078
1005.283	-1622
1005.358	-823
1005.433	-2356
1005.508	-790
1005.583	-1449
1005.657	-791
1005.732	-1305
1005.807	-1217
1005.882	-1648
1005.957	-962
1006.032	-1131
1006.106	-1397
1006.181	-1168
1006.256	-550
1006.331	-1382
1006.405	-1278
1006.480	-222
1006.554	-1364
1006.629	-1820
1006.704	-1198
1006.778	-1275
1006.853	-413
1006.927	-1482
1007.002	-1591
1007.076	-811
1007.150	-1314
1007.225	-1331
1007.299	-1003
1007.373	-1526
1007.448	-988
1007.522	-866
1007.596	-1213
1007.671	-1231
1007.745	-965
1007.819	-1799
1007.893	-883
1007.967	-892
1008.041	-1422
1008.115	-489
1008.190	-1058
1008.264	-407
1008.338	-2292
1008.412	-2034
1008.486	-561
1008.560	-1259
1008.633	-2154
1008.707	-1363
1008.781	-502
1008.855	-987
1008.929	-1394
1009.003	-2215
1009.076	-887
1009.150	-1006
1009.224	-1665
1009.298	-800
1009.371	-1477
1009.445	-825
1009.519	-690
1009.592	-2424
1009.666	-717
1009.739	-721
1009.813	-2026
1009.886	-784
1009.960	-1705
1010.033	-1015
1010.107	-1204
1010.180	-1676
1010.253	-686
1010.327	-1653
1010.400	-1957
1010.473	-1504
1010.547	-499
1010.620	-1516
1010.693	-1720
1010.766	-1363
1010.840	-1450
1010.913	-804
1010.986	-2233
1011.059	-1731
1011.132	-1572
1011.205	-512
1011.278	-1068
1011.351	-448
1011.424	-1266
1011.497	-1994
1011.570	-924
1011.643	-1116
1011.716	-1674
1011.789	-864
1011.862	-1097
1011.934	-160
1012.007	-1901
1012.080	-1219
1012.153	-1100
1012.225	-1236
1012.298	-1486
1012.371	-1149
1012.443	-1504
1012.516	-1013
1012.588	-1274
1012.661	-830
1012.733	-1436
1012.806	-362
1012.879	-1621
1012.951	-1787
1013.023	-1208
1013.096	-1481
1013.168	-2260
1013.241	-1117
1013.313	-1422
1013.385	-781
1013.458	-1335
1013.530	-1273
1013.602	-2065
1013.674	-1059
1013.746	-1404
1013.819	-1504
1013.891	-453
1013.963	-1036
1014.035	-926
1014.107	-1392
1014.179	-1039
1014.251	-1307
1014.323	-1623
1014.395	-795
1014.467	-1843
1014.539	-1100
1014.611	-1192
1014.683	-937
1014.754	-2215
1014.826	-1284
1014.898	-845
1014.970	-1968
1015.042	-214
1015.113	-1610
1015.185	-2172
1015.257	-2079
1015.328	-425
1015.400	-1812
1015.471	-1428
1015.543	-1593
1015.615	-1860
1015.686	-1344
1015.757	-1899
1015.829	-1190
1015.901	-1647
1015.972	-1001
1016.043	-1642
1016.115	-1564
1016.186	-1325
1016.257	-1579
1016.328	-655
1016.400	-969
1016.471	-1558
1016.542	-1950
1016.613	-1432
1016.685	-1316
1016.756	-728
1016.827	-944
1016.898	-2575
1016.969	-1045
1017.040	-1253
1017.111	-1393
1017.182	-1526
1017.253	-1381
1017.324	-1896
1017.395	-1781
1017.466	-1315
1017.537	-705
1017.608	-1476
1017.678	-1930
1017.749	-1022
1017.820	-1326
1017.891	-1745
1017.961	-1739
1018.032	-733
1018.103	-1816
1018.173	-901
1018.244	-2341
1018.315	-1658
1018.385	-1783
1018.456	-1345
1018.526	-1340
1018.597	-1251
1018.667	-1433
1018.738	-1483
1018.808	-1137
1018.878	-1437
1018.949	-750
1019.019	-1286
1019.089	-1394
1019.160	-1395
1019.230	-1206
1019.300	-1177
1019.371	-1823
1019.441	-859
1019.511	-958
1019.581	-1855
1019.651	-1070
1019.721	-1480
1019.791	-1715
1019.861	-1668
1019.931	-1205
1020.001	-1178
1020.071	-861
1020.141	-1364
1020.211	-1407
1020.281	-2045
1020.351	-2127
1020.421	-1302
1020.491	-1006
1020.560	-1245
1020.630	-1564
1020.700	-1497
1020.770	-1627
1020.839	-1671
1020.909	-2205
1020.979	-1653
1021.048	-1896
1021.118	-1710
1021.187	-1512
1021.257	-1170
1021.326	-1617
1021.396	-952
1021.465	-856
1021.535	-1663
1021.604	-2018
1021.674	-1475
1021.743	-1202
1021.812	-1908
1021.882	-1422
1021.951	-1373
1022.020	-1370
1022.089	-1530
1022.159	-1753
1022.228	-1113
1022.297	-2907
1022.366	-1647
1022.435	-1225
1022.504	-1166
1022.573	-1822
1022.642	-755
1022.711	-2248
1022.781	-1244
1022.849	-1728
1022.918	-1658
1022.987	-1183
1023.056	-2006
1023.125	-1509
1023.194	-1267
1023.263	-1746
1023.331	-1636
1023.400	-1538
1023.469	-1639
1023.538	-1031
1023.606	-1160
1023.675	-2349
1023.744	-1421
1023.812	-2394
1023.881	-2106
1023.949	-1635
1024.018	-1449
1024.086	-2250
1024.155	-1750
1024.223	-2373
1024.292	-1772
1024.360	-1328
1024.429	-2236
1024.497	-1726
1024.565	-952
1024.634	-1796
1024.702	-1756
1024.770	-1795
1024.838	-1735
1024.907	-1550
1024.975	-2075
1025.043	-1554
1025.111	-2406
1025.179	-1945
1025.247	-2534
1025.315	-2151
1025.383	-2271
1025.451	-2623
1025.519	-2243
1025.587	-1431
1025.655	-1569
1025.723	-1695
1025.791	-2046
1025.859	-1743
1025.927	-563
1025.995	-2461
1026.062	-1674
1026.130	-2265
1026.198	-2356
1026.266	-1944
1026.333	-1633
1026.401	-961
1026.469	-1954
1026.536	-1296
1026.604	-1732
1026.671	-1833
1026.739	-1006
1026.806	-2072
1026.874	-2306
1026.941	-1922
1027.009	-1912
1027.076	-2503
1027.144	-1328
1027.211	-2199
1027.278	-2011
1027.345	-1707
1027.413	-1860
1027.480	-2358
1027.547	-2209
1027.614	-2419
1027.682	-1777
1027.749	-1879
1027.816	-2128
1027.883	-2118
1027.950	-1650
1028.017	-1882
1028.084	-1705
1028.151	-1922
1028.218	-2542
1028.285	-2181
1028.352	-2487
1028.419	-1529
1028.486	-1362
1028.553	-1720
1028.619	-2596
1028.686	-2182
1028.753	-2080
1028.820	-1808
1028.886	-2453
1028.953	-1796
1029.020	-1760
1029.086	-1966
1029.153	-1363
1029.220	-2825
1029.286	-2385
1029.353	-1148
1029.419	-2493
1029.486	-1809
1029.552	-3017
1029.619	-2017
1029.685	-2508
1029.751	-2347
1029.818	-1153
1029.884	-2142
1029.951	-1799
1030.017	-2426
1030.083	-2571
1030.149	-2219
1030.216	-1828
1030.282	-1563
1030.348	-2885
1030.414	-1643
1030.480	-2150
1030.546	-2310
1030.612	-2107
1030.678	-2602
1030.744	-2365
1030.810	-2128
1030.876	-2244
1030.942	-2541
1031.008	-2621
1031.074	-1913
1031.140	-2757
1031.206	-2225
1031.272	-2312
1031.337	-2045
1031.403	-1250
1031.469	-2424
1031.534	-1733
1031.600	-2277
1031.666	-2290
1031.731	-2457
1031.797	-2218
1031.863	-2448
1031.928	-2849
1031.994	-1682
1032.059	-2180
1032.125	-2097
1032.190	-2895
1032.256	-3422
1032.321	-2076
1032.386	-2477
1032.452	-1279
1032.517	-1880
1032.582	-2708
1032.647	-2147
1032.713	-1893
1032.778	-3065
1032.843	-2379
1032.908	-2487
1032.974	-2540
1033.039	-2176
1033.104	-1978
1033.169	-1847
1033.234	-2361
1033.299	-2457
1033.364	-1822
1033.429	-1887
1033.494	-2010
1033.559	-2961
1033.624	-1985
1033.688	-2227
1033.753	-2931
1033.818	-2373
1033.883	-1341
1033.948	-2115
1034.013	-1719
1034.077	-2339
1034.142	-1519
1034.207	-1462
1034.271	-212
1034.336	513
1034.400	173
1034.465	-802
1034.530	-1235
1034.594	-1552
1034.658	-1753
1034.723	-2292
1034.787	-2687
1034.852	-2191
1034.916	-1863
1034.981	-1982
1035.045	-1976
1035.109	-2766
1035.173	-1742
1035.238	-3063
1035.302	-2366
1035.366	-2557
1035.430	-1948
1035.495	-2445
1035.559	-2194
1035.623	-3066
1035.687	-2893
1035.751	-2275
1035.815	-1985
1035.879	-2555
1035.943	-2490
1036.007	-2482
1036.071	-3135
1036.135	-2316
1036.198	-2469
1036.262	-2045
1036.326	-2087
1036.390	-1862
1036.454	-1873
1036.517	-1298
1036.581	-1452
1036.645	-1384
1036.709	-836
1036.772	-2784
1036.836	-2109
1036.900	-1534
1036.963	-2793
1037.026	-2027
1037.090	-2812
1037.154	-2206
1037.217	-1989
1037.280	-3401
1037.344	-2857
1037.407	-2172
1037.471	-2710
1037.534	-2719
1037.597	-2165
1037.661	-2647
1037.724	-2507
1037.787	-2708
1037.850	-1636
1037.913	-3116
1037.977	-1850
1038.040	-2060
1038.103	-1886
1038.166	-2057
1038.229	-2095
1038.292	-2379
1038.355	-1987
1038.418	-2837
1038.481	-2232
1038.544	-2358
1038.607	-2272
1038.670	-2488
1038.732	-3099
1038.795	-2834
1038.858	-2907
1038.921	-2805
1038.984	-2525
1039.046	-3246
1039.109	-3392
1039.172	-2516
1039.234	-2761
1039.297	-2572
1039.360	-2090
1039.422	-2417
1039.485	-1950
1039.547	-2320
1039.610	-2431
1039.672	-2572
1039.734	-2554
1039.797	-1923
1039.859	-2531
1039.922	-2812
1039.984	-2015
1040.046	-2435
1040.109	-2443
1040.171	-2841
1040.233	-2057
1040.295	-2479
1040.358	-2637
1040.420	-2602
1040.482	-1953
1040.544	-2236
1040.606	-2399
1040.668	-2779
1040.730	-2048
1040.792	-2375
1040.854	-2552
1040.916	-2935
1040.978	-2782
1041.040	-2471
1041.102	-2462
1041.164	-2351
1041.225	-3417
1041.287	-1983
1041.349	-2168
1041.411	-2433
1041.472	-1309
1041.534	-2587
1041.596	-2694
1041.657	-2403
1041.719	-1900
1041.781	-2184
1041.842	-2852
1041.904	-2326
1041.965	-2259
1042.027	-2577
1042.088	-2174
1042.150	-1481
1042.211	-2615
1042.272	-1504
1042.334	-2269
1042.395	-2472
1042.456	-2641
1042.518	-2218
1042.579	-2400
1042.640	-2926
1042.701	-2733
1042.763	-2439
1042.824	-2176
1042.885	-1928
1042.946	-2217
1043.007	-2255
1043.068	-2231
1043.129	-2263
1043.190	-1993
1043.251	-1883
1043.312	-2465
1043.373	-2560
1043.434	-2246
1043.495	-2165
1043.556	-2378
1043.616	-1715
1043.677	-2620
1043.738	-2442
1043.799	-2739
1043.859	-2652
1043.920	-2082
1043.981	-2742
1044.041	-1939
1044.102	-2328
1044.162	-2634
1044.223	-2188
1044.284	-1772
1044.344	-2502
1044.405	-2455
1044.465	-1941
1044.525	-2740
1044.586	-2279
1044.646	-2386
1044.707	-1754
1044.767	-2401
1044.827	-1753
1044.887	-2106
1044.948	-2302
1045.008	-2441
1045.068	-2333
1045.128	-1632
1045.188	-1899
1045.249	-1882
1045.309	-2350
1045.369	-2083
1045.429	-2195
1045.489	-2736
1045.549	-1048
1045.609	-1976
1045.669	-2369
1045.729	-2339
1045.789	-1906
1045.848	-2078
1045.908	-2117
1045.968	-2121
1046.028	-1861
1046.088	-2178
1046.147	-1692
1046.207	-2028
1046.267	-1616
1046.326	-1818
1046.386	-1614
1046.446	-1566
1046.505	-1159
1046.565	-1035
1046.624	-1101
1046.684	-1076
1046.743	-1252
1046.803	-1222
1046.862	-878
1046.922	0
