'Start Wavelength	183.907
'End Wavelength	1046.922
'Gate Delay	5.000
'Gate Width (ms)	1.050
'Laser Output Level	0.000
'X Position	0.000
'Y Position	0.000
'Z Position	0.000
'Grid Point Number	1.000
'Shot Number	100.000
183.907	1363.000
183.977	-530.000
184.047	224
184.116	949
184.186	211
184.256	571
184.325	91
184.395	-390
184.465	627
184.534	82
184.604	25
184.674	-379
184.743	-825
184.813	759
184.883	620
184.952	936
185.022	303
185.092	-357
185.161	244
185.231	142
185.301	132
185.370	500
185.440	-345
185.509	-275
185.579	-920
185.649	467
185.718	384
185.788	394
185.857	-277
185.927	-608
185.996	807
186.066	24
186.136	-334
186.205	-31
186.275	-280
186.344	53
186.414	500
186.483	-786
186.553	1005
186.622	578
186.692	-121
186.761	-516
186.831	-390
186.900	-769
186.970	210
187.039	-480
187.109	-207
187.178	437
187.248	-58
187.317	-269
187.387	23
187.456	425
187.526	752
187.595	-222
187.664	5
187.734	-377
187.803	337
187.873	-196
187.942	246
188.012	429
188.081	-393
188.150	-129
188.220	84
188.289	-226
188.358	-401
188.428	383
188.497	-743
188.567	519
188.636	-133
188.705	-768
188.775	149
188.844	-985
188.913	769
188.983	472
189.052	-44
189.121	154
189.191	-197
189.260	212
189.329	332
189.399	244
189.468	522
189.537	-171
189.606	168
189.676	-346
189.745	74
189.814	-288
189.883	-403
189.953	-348
190.022	-248
190.091	763
190.161	569
190.230	98
190.299	171
190.368	95
190.437	-200
190.507	452
190.576	-300
190.645	-494
190.714	476
190.783	-635
190.853	451
190.922	656
190.991	-405
191.060	302
191.129	-647
191.198	-603
191.268	70
191.337	21
191.406	-82
191.475	-751
191.544	43
191.613	43
191.682	176
191.752	-157
191.821	-351
191.890	-319
191.959	-287
192.028	96
192.097	162
192.166	193
192.235	-431
192.304	1098
192.373	-626
192.442	113
192.511	-125
192.580	-38
192.650	164
192.719	103
192.788	87
192.857	-229
192.926	220
192.995	614
193.064	419
193.133	-264
193.202	844
193.271	123
193.340	569
193.409	304
193.478	-57
193.547	214
193.615	578
193.684	379
193.753	326
193.822	1265
193.891	64
193.960	-569
194.029	114
194.098	333
194.167	110
194.236	265
194.305	66
194.374	24
194.443	-514
194.512	958
194.580	85
194.649	-43
194.718	-191
194.787	365
194.856	-622
194.925	191
194.994	103
195.062	356
195.131	-195
195.200	381
195.269	381
195.338	-62
195.407	358
195.475	538
195.544	-88
195.613	550
195.682	508
195.751	336
195.819	-44
195.888	805
195.957	654
196.026	-255
196.094	-352
196.163	-44
196.232	860
196.301	167
196.369	426
196.438	483
196.507	173
196.576	-473
196.644	-57
196.713	271
196.782	-450
196.850	-240
196.919	522
196.988	174
197.056	-7
197.125	-307
197.194	513
197.262	187
197.331	-257
197.400	-374
197.468	-77
197.537	-938
197.606	98
197.674	-883
197.743	960
197.812	-158
197.880	217
197.949	860
198.017	445
198.086	440
198.155	211
198.223	-289
198.292	910
198.360	480
198.429	808
198.497	-541
198.566	-280
198.635	422
198.703	508
198.772	293
198.840	217
198.909	140
198.977	-371
199.046	254
199.114	227
199.183	461
199.251	649
199.320	-99
199.388	427
199.457	117
199.525	510
199.594	238
199.662	66
199.731	907
199.799	-669
199.867	444
199.936	96
200.004	16
200.073	623
200.141	-643
200.210	-206
200.278	-274
200.346	110
200.415	61
200.483	-149
200.552	-152
200.620	-682
200.688	361
200.757	-224
200.825	-143
200.893	-355
200.962	-29
201.030	180
201.098	0
201.167	68
201.235	-338
201.303	-72
201.372	-227
201.440	1054
201.508	264
201.577	332
201.645	210
201.713	-175
201.781	-418
201.850	884
201.918	-386
201.986	-582
202.055	613
202.123	-708
202.191	331
202.259	-285
202.327	-892
202.396	9
202.464	44
202.532	374
202.600	2340
202.669	488
202.737	-241
202.805	-297
202.873	-216
202.941	-473
203.009	-71
203.078	282
203.146	-53
203.214	426
203.282	-719
203.350	677
203.418	-510
203.487	-577
203.555	-94
203.623	599
203.691	-58
203.759	-557
203.827	-593
203.895	127
203.963	-174
204.031	-511
204.099	-726
204.168	-503
204.236	426
204.304	324
204.372	-295
204.440	-413
204.508	-363
204.576	133
204.644	-131
204.712	-374
204.780	334
204.848	-79
204.916	-395
204.984	-83
205.052	-182
205.120	-60
205.188	-222
205.256	-392
205.324	-819
205.392	-274
205.460	118
205.528	-115
205.596	-228
205.664	138
205.732	-2
205.799	855
205.867	1681
205.935	-410
206.003	192
206.071	203
206.139	-957
206.207	446
206.275	14
206.343	149
206.411	98
206.478	414
206.546	424
206.614	-522
206.682	-650
206.750	171
206.818	-498
206.885	885
206.953	-703
207.021	-159
207.089	-247
207.157	-193
207.225	-36
207.292	-534
207.360	-852
207.428	-269
207.496	-36
207.563	-609
207.631	228
207.699	183
207.767	-424
207.834	21
207.902	401
207.970	-295
208.038	320
208.105	-167
208.173	-443
208.241	272
208.309	-697
208.376	-466
208.444	1047
208.512	-452
208.579	-443
208.647	363
208.715	1044
208.782	292
208.850	-392
208.918	128
208.985	-657
209.053	646
209.120	300
209.188	-356
209.256	140
209.323	-966
209.391	-403
209.459	552
209.526	-434
209.594	459
209.661	-463
209.729	29
209.796	205
209.864	-122
209.932	-1734
209.999	878
210.067	-118
210.134	567
210.202	-409
210.269	986
210.337	738
210.404	315
210.472	-20
210.539	125
210.607	499
210.674	62
210.742	493
210.809	-119
210.877	464
210.944	331
211.012	-719
211.079	1443
211.146	-8
211.214	-558
211.281	413
211.349	640
211.416	-84
211.484	862
211.551	539
211.618	-456
211.686	114
211.753	-383
211.821	892
211.888	751
211.955	-637
212.023	56
212.090	293
212.157	65
212.225	365
212.292	1315
212.359	1435
212.427	5673
212.494	2013
212.561	564
212.629	668
212.696	418
212.763	1017
212.831	-267
212.898	821
212.965	-14
213.032	390
213.100	403
213.167	259
213.234	729
213.301	55
213.369	244
213.436	-235
213.503	-69
213.570	-105
213.638	-217
213.705	-906
213.772	-735
213.839	-81
213.906	863
213.973	111
214.041	-558
214.108	496
214.175	-870
214.242	330
214.309	-398
214.376	248
214.444	-32
214.511	544
214.578	107
214.645	320
214.712	122
214.779	-355
214.846	-162
214.913	911
214.980	447
215.048	-2
215.115	1929
215.182	388
215.249	619
215.316	-185
215.383	950
215.450	599
215.517	288
215.584	64
215.651	-492
215.718	459
215.785	1329
215.852	-93
215.919	285
215.986	57
216.053	-58
216.120	-307
216.187	757
216.254	1185
216.321	339
216.388	490
216.455	277
216.522	-271
216.589	1333
216.656	808
216.722	1290
216.789	1203
216.856	733
216.923	669
216.990	992
217.057	-1
217.124	1020
217.191	588
217.258	1022
217.324	612
217.391	1135
217.458	707
217.525	948
217.592	113
217.659	-201
217.725	906
217.792	625
217.859	1380
217.926	43
217.993	-123
218.059	690
218.126	202
218.193	-230
218.260	-103
218.327	-78
218.393	-74
218.460	-256
218.527	-539
218.594	-254
218.660	873
218.727	1372
218.794	-415
218.860	1296
218.927	-512
218.994	241
219.061	-769
219.127	-265
219.194	469
219.261	1119
219.327	178
219.394	216
219.461	-1049
219.527	433
219.594	-184
219.661	438
219.727	-592
219.794	447
219.860	-861
219.927	-576
219.994	316
220.060	1901
220.127	768
220.193	724
220.260	-284
220.326	962
220.393	769
220.460	2585
220.526	682
220.593	386
220.659	1695
220.726	755
220.792	2458
220.859	1450
220.925	2319
220.992	5246
221.058	4479
221.125	4252
221.191	2864
221.258	466
221.324	280
221.391	1083
221.457	-776
221.524	239
221.590	889
221.657	3637
221.723	1332
221.789	1591
221.856	1864
221.922	782
221.989	747
222.055	414
222.121	-1075
222.188	1528
222.254	-87
222.321	-154
222.387	-701
222.453	289
222.520	-434
222.586	-828
222.652	-707
222.719	-744
222.785	229
222.851	-248
222.918	285
222.984	-314
223.050	97
223.116	-1492
223.183	862
223.249	177
223.315	-190
223.382	-279
223.448	-413
223.514	-443
223.580	-372
223.647	-260
223.713	-780
223.779	108
223.845	-144
223.911	-533
223.978	-593
224.044	478
224.110	-731
224.176	153
224.242	720
224.309	-758
224.375	-422
224.441	-134
224.507	-822
224.573	-548
224.639	361
224.705	-201
224.772	-197
224.838	-40
224.904	-19
224.970	-166
225.036	-184
225.102	-742
225.168	126
225.234	-147
225.300	-527
225.366	212
225.432	-244
225.499	187
225.565	-383
225.631	-335
225.697	211
225.763	280
225.829	408
225.895	287
225.961	965
226.027	1007
226.093	-26
226.159	896
226.225	942
226.291	3586
226.357	6893
226.423	3016
226.489	1149
226.554	644
226.620	735
226.686	786
226.752	1798
226.818	2771
226.884	8492
226.950	8761
227.016	2126
227.082	1918
227.148	637
227.214	1202
227.279	840
227.345	-277
227.411	144
227.477	1212
227.543	2182
227.609	1990
227.674	678
227.740	445
227.806	-122
227.872	-95
227.938	366
228.003	614
228.069	-282
228.135	-1016
228.201	321
228.267	-157
228.332	365
228.398	-784
228.464	560
228.530	-415
228.595	93
228.661	-1111
228.727	1059
228.792	1277
228.858	91
228.924	-761
228.990	1286
229.055	-649
229.121	981
229.187	-602
229.252	37
229.318	-250
229.384	316
229.449	719
229.515	-1244
229.581	-143
229.646	1376
229.712	414
229.777	1818
229.843	1292
229.909	1476
229.974	889
230.040	920
230.105	902
230.171	367
230.236	663
230.302	953
230.368	1021
230.433	-458
230.499	111
230.564	749
230.630	-827
230.695	375
230.761	804
230.826	-1261
230.892	2011
230.957	-349
231.023	196
231.088	-368
231.154	245
231.219	-74
231.284	245
231.350	607
231.415	-330
231.481	619
231.546	547
231.612	185
231.677	-1150
231.742	-1414
231.808	923
231.873	-292
231.939	-1211
232.004	1563
232.069	1310
232.135	-477
232.200	-352
232.265	571
232.331	11
232.396	-768
232.461	-630
232.527	-10
232.592	-719
232.657	-3
232.723	1574
232.788	-211
232.853	123
232.918	-587
232.984	-903
233.049	-698
233.114	362
233.179	962
233.245	1677
233.310	1859
233.375	-408
233.440	423
233.506	-273
233.571	-385
233.636	102
233.701	-574
233.766	1569
233.832	1793
233.897	508
233.962	-1200
234.027	2106
234.092	858
234.157	-27
234.222	-927
234.288	917
234.353	4288
234.418	4289
234.483	3014
234.548	840
234.613	986
234.678	906
234.743	56
234.808	5297
234.873	1339
234.938	2179
235.004	-74
235.069	1042
235.134	64
235.199	851
235.264	212
235.329	-1071
235.394	594
235.459	1450
235.524	-223
235.589	412
235.654	-232
235.719	-1194
235.784	184
235.849	593
235.913	1866
235.978	2419
236.043	3068
236.108	395
236.173	-75
236.238	1650
236.303	-412
236.368	-614
236.433	1598
236.498	2468
236.563	2038
236.627	2340
236.692	12007
236.757	8346
236.822	2550
236.887	2105
236.952	2101
237.017	-397
237.081	1665
237.146	906
237.211	2909
237.276	10088
237.341	21879
237.405	8740
237.470	3128
237.535	2742
237.600	1269
237.664	833
237.729	-220
237.794	434
237.859	2533
237.923	1409
237.988	875
238.053	1727
238.118	1710
238.182	5793
238.247	6361
238.312	1875
238.376	2572
238.441	-790
238.506	909
238.570	-1724
238.635	1393
238.700	772
238.764	-676
238.829	1984
238.893	3255
238.958	1564
239.023	122
239.087	-364
239.152	1089
239.216	-910
239.281	137
239.346	466
239.410	454
239.475	-273
239.539	5588
239.604	4297
239.668	1173
239.733	344
239.797	1470
239.862	4048
239.926	5213
239.991	2131
240.055	1348
240.120	-552
240.184	403
240.249	328
240.313	-722
240.378	429
240.442	2813
240.507	6664
240.571	1480
240.635	1859
240.700	2970
240.764	610
240.829	363
240.893	-529
240.957	839
241.022	3426
241.086	7493
241.151	2159
241.215	-756
241.279	1644
241.344	2838
241.408	1758
241.472	-815
241.537	1630
241.601	909
241.665	-427
241.730	-405
241.794	889
241.858	-150
241.922	1013
241.987	608
242.051	-505
242.115	-1437
242.179	663
242.244	-179
242.308	730
242.372	84
242.436	-462
242.501	541
242.565	-383
242.629	-177
242.693	1482
242.757	-610
242.822	471
242.886	526
242.950	505
243.014	-708
243.078	973
243.142	1040
243.206	-11
243.271	876
243.335	133
243.399	968
243.463	4834
243.527	19767
243.591	5382
243.655	2167
243.719	110
243.783	2056
243.847	1852
243.911	2738
243.975	4164
244.040	1686
244.104	2170
244.168	572
244.232	1277
244.296	2235
244.360	2292
244.424	770
244.488	1036
244.552	806
244.615	-742
244.679	818
244.743	1090
244.807	134
244.871	841
244.935	1115
244.999	-945
245.063	-206
245.127	1142
245.191	1833
245.255	1366
245.319	1759
245.383	-91
245.446	1565
245.510	-387
245.574	407
245.638	1740
245.702	-438
245.766	4231
245.829	2522
245.893	234
245.957	235
246.021	1731
246.085	543
246.149	681
246.212	4489
246.276	6784
246.340	3028
246.404	1798
246.467	2308
246.531	1672
246.595	2475
246.659	2449
246.722	90
246.786	2813
246.850	2154
246.913	3143
246.977	393
247.041	1378
247.104	908
247.168	1975
247.232	3753
247.295	9857
247.359	4981
247.423	1074
247.486	4192
247.550	2307
247.614	1399
247.677	2540
247.741	1262
247.804	384
247.868	1229
247.932	2737
247.995	9798
248.059	2358
248.122	227
248.186	2241
248.249	3116
248.313	14680
248.376	16585
248.440	8825
248.503	1418
248.567	3357
248.630	3124
248.694	5824
248.757	7617
248.821	16588
248.884	10136
248.948	8333
249.011	12098
249.075	20707
249.138	16680
249.202	5972
249.265	3050
249.328	5016
249.392	1999
249.455	3290
249.519	1255
249.582	2336
249.645	3753
249.709	2948
249.772	1519
249.835	1350
249.899	2501
249.962	1603
250.025	1110
250.089	5033
250.152	8881
250.215	3437
250.279	1395
250.342	2349
250.405	2433
250.468	1186
250.532	2402
250.595	4425
250.658	16332
250.721	30251
250.785	10346
250.848	6189
250.911	2178
250.974	3172
251.038	2952
251.101	10264
251.164	4318
251.227	5192
251.290	3628
251.354	5423
251.417	24809
251.480	24805
251.543	14419
251.606	47154
251.669	35065
251.732	11505
251.795	13133
251.859	12696
251.922	29170
251.985	17979
252.048	5723
252.111	4626
252.174	4252
252.237	7276
252.300	20098
252.363	18765
252.426	42328
252.489	16647
252.552	7361
252.615	4165
252.678	5455
252.741	14226
252.804	15754
252.867	39690
252.930	23389
252.993	13368
253.056	8363
253.119	4041
253.182	3234
253.245	5836
253.308	5262
253.371	4849
253.434	5570
253.497	4909
253.559	9412
253.622	6022
253.685	7795
253.748	9656
253.811	3611
253.874	5238
253.937	3523
254.000	3694
254.062	5581
254.125	10068
254.188	8338
254.251	7132
254.314	2458
254.376	6561
254.439	9090
254.502	7345
254.565	6581
254.628	13044
254.690	6618
254.753	3720
254.816	2847
254.878	3280
254.941	6754
255.004	8093
255.067	2903
255.129	1809
255.192	1360
255.255	674
255.317	1870
255.380	1324
255.443	562
255.505	282
255.568	-207
255.631	464
255.693	1323
255.756	242
255.819	985
255.881	284
255.944	283
256.006	629
256.069	16
256.132	-106
256.194	1470
256.257	5435
256.319	2993
256.382	2509
256.444	2024
256.507	58
256.569	-398
256.632	528
256.694	1620
256.757	5279
256.819	18415
256.882	5513
256.944	1696
257.007	2435
257.069	1794
257.132	1374
257.194	1884
257.257	836
257.319	186
257.381	-79
257.444	3769
257.506	19880
257.569	23494
257.631	14010
257.693	6588
257.756	3456
257.818	2170
257.880	1016
257.943	1254
258.005	377
258.067	189
258.130	240
258.192	1716
258.254	4560
258.317	1626
258.379	1037
258.441	5462
258.503	5651
258.566	6298
258.628	10475
258.690	1235
258.753	1876
258.815	4254
258.877	1589
258.939	220
259.001	914
259.064	397
259.126	289
259.188	2383
259.250	1311
259.312	995
259.375	7244
259.437	3892
259.499	783
259.561	608
259.623	1116
259.685	-699
259.747	748
259.809	5911
259.872	13986
259.934	18142
259.996	16794
260.058	3537
260.120	1289
260.182	1094
260.244	611
260.306	-153
260.368	1509
260.430	-113
260.492	1934
260.554	5452
260.616	4149
260.678	8593
260.740	15514
260.802	2924
260.864	1783
260.926	1111
260.988	1955
261.050	1119
261.112	1587
261.174	10232
261.236	10656
261.298	1775
261.359	5476
261.421	9730
261.483	1058
261.545	2631
261.607	-329
261.669	825
261.731	2942
261.793	9127
261.854	2200
261.916	1866
261.978	-83
262.040	206
262.102	1137
262.164	2840
262.225	1967
262.287	504
262.349	3688
262.411	3529
262.472	1819
262.534	3288
262.596	9426
262.658	2183
262.719	231
262.781	2149
262.843	7372
262.904	3144
262.966	1122
263.028	2012
263.090	12030
263.151	36255
263.213	10790
263.275	4737
263.336	1301
263.398	1783
263.459	208
263.521	924
263.583	3724
263.644	2302
263.706	779
263.767	-593
263.829	248
263.891	-499
263.952	-444
264.014	-477
264.075	98
264.137	330
264.198	1344
264.260	-1184
264.321	140
264.383	1193
264.444	4543
264.506	-254
264.567	735
264.629	866
264.690	777
264.752	470
264.813	-424
264.875	-404
264.936	1204
264.998	-285
265.059	-644
265.120	-92
265.182	381
265.243	7345
265.305	7212
265.366	1262
265.427	806
265.489	1015
265.550	-1130
265.611	99
265.673	431
265.734	-626
265.795	74
265.857	-553
265.918	-413
265.979	956
266.040	14096
266.102	10550
266.163	2443
266.224	1978
266.286	549
266.347	-818
266.408	455
266.469	583
266.530	761
266.592	-306
266.653	1381
266.714	4560
266.775	662
266.836	-454
266.898	-757
266.959	318
267.020	-297
267.081	1331
267.142	152
267.203	365
267.264	-642
267.326	877
267.387	-80
267.448	32
267.509	-888
267.570	265
267.631	-350
267.692	-1276
267.753	46
267.814	-827
267.875	1584
267.936	5626
267.997	1611
268.058	482
268.119	-163
268.180	140
268.241	16
268.302	563
268.363	-438
268.424	323
268.485	655
268.546	-1165
268.607	-32
268.668	-1102
268.729	-1376
268.790	-511
268.851	-32
268.912	3300
268.972	3915
269.033	683
269.094	302
269.155	436
269.216	-795
269.277	187
269.338	-109
269.398	-717
269.459	-306
269.520	1416
269.581	2001
269.642	2757
269.702	1315
269.763	-92
269.824	-63
269.885	-12
269.945	2522
270.006	-136
270.067	-1092
270.128	-670
270.188	-1343
270.249	227
270.310	-759
270.370	-264
270.431	-669
270.492	-668
270.553	-581
270.613	2602
270.674	6598
270.734	1887
270.795	332
270.856	1152
270.916	51
270.977	-112
271.038	1730
271.098	230
271.159	2579
271.219	2032
271.280	315
271.340	588
271.401	265
271.462	3957
271.522	940
271.583	646
271.643	560
271.704	-224
271.764	85
271.825	2854
271.885	14226
271.946	20200
272.006	5465
272.066	7137
272.127	15895
272.187	4795
272.248	1827
272.308	1589
272.369	10791
272.429	5362
272.489	3118
272.550	3619
272.610	4250
272.671	2336
272.731	1206
272.791	4905
272.852	1301
272.912	1612
272.972	1064
273.033	747
273.093	1616
273.153	1517
273.214	591
273.274	688
273.334	5344
273.394	17020
273.455	5862
273.515	5331
273.575	14021
273.635	5657
273.696	7339
273.756	15102
273.816	5728
273.876	2899
273.936	6335
273.997	13685
274.057	2144
274.117	1346
274.177	3462
274.237	18097
274.297	17086
274.358	11949
274.418	13843
274.478	10148
274.538	2717
274.598	1763
274.658	10846
274.718	15354
274.778	5587
274.838	1824
274.898	5084
274.958	21352
275.018	17005
275.078	9836
275.138	3376
275.198	509
275.258	1028
275.318	1648
275.378	3638
275.438	4744
275.498	2826
275.558	8006
275.618	20439
275.678	11442
275.738	5283
275.798	3795
275.858	2191
275.918	559
275.978	1463
276.038	456
276.098	593
276.157	2257
276.217	11013
276.277	4876
276.337	2858
276.397	477
276.457	2247
276.517	531
276.576	191
276.636	-247
276.696	1532
276.756	5925
276.815	4221
276.875	525
276.935	1782
276.995	1111
277.055	-338
277.114	567
277.174	1486
277.234	9111
277.293	3307
277.353	908
277.413	1115
277.472	807
277.532	1024
277.592	1560
277.651	7600
277.711	15589
277.771	4542
277.830	18434
277.890	16683
277.950	9035
278.009	32668
278.069	11487
278.128	9883
278.188	16226
278.248	6554
278.307	17191
278.367	11160
278.426	2940
278.486	1308
278.545	568
278.605	1313
278.664	495
278.724	495
278.783	4703
278.843	16057
278.902	4032
278.962	856
279.021	1866
279.081	2457
279.140	2317
279.199	2099
279.259	1302
279.318	1379
279.378	2933
279.437	6355
279.496	25933
279.556	77480
279.615	67465
279.675	16205
279.734	9405
279.793	12324
279.853	21335
279.912	7954
279.971	3080
280.031	2760
280.090	6529
280.149	14931
280.208	10174
280.268	50172
280.327	57660
280.386	13034
280.445	9480
280.505	8296
280.564	3284
280.623	1725
280.682	4229
280.742	7822
280.801	1569
280.860	878
280.919	623
280.978	315
281.037	6
281.097	346
281.156	-11
281.215	664
281.274	931
281.333	9688
281.392	7800
281.451	336
281.510	63
281.569	438
281.628	-20
281.688	5
281.747	-465
281.806	443
281.865	-133
281.924	360
281.983	-402
282.042	-23
282.101	-1209
282.160	-158
282.219	-238
282.278	329
282.337	4585
282.396	2908
282.454	589
282.513	1183
282.572	8080
282.631	4874
282.690	7
282.749	882
282.808	664
282.867	503
282.926	1185
282.985	555
283.043	-268
283.102	-26
283.161	415
283.220	3106
283.279	10496
283.338	2213
283.396	516
283.455	489
283.514	632
283.573	2085
283.631	896
283.690	331
283.749	435
283.808	2711
283.866	4191
283.925	-576
283.984	687
284.043	797
284.101	823
284.160	387
284.219	1238
284.277	1746
284.336	1978
284.395	12146
284.453	11021
284.512	2459
284.570	3421
284.629	3541
284.688	2769
284.746	2858
284.805	3230
284.863	4762
284.922	6572
284.981	6926
285.039	10641
285.098	18952
285.156	48471
285.215	104292
285.273	100917
285.332	56929
285.390	27950
285.449	15803
285.507	10856
285.566	7214
285.624	4942
285.683	3729
285.741	2786
285.799	2556
285.858	1304
285.916	1515
285.975	185
286.033	376
286.091	1364
286.150	-144
286.208	1317
286.267	771
286.325	158
286.383	2843
286.442	1820
286.500	-442
286.558	-6
286.616	-421
286.675	367
286.733	469
286.791	-42
286.850	1125
286.908	832
286.966	4192
287.024	989
287.083	247
287.141	-442
287.199	960
287.257	1132
287.315	1229
287.374	78
287.432	4304
287.490	2072
287.548	432
287.606	-519
287.664	-5
287.723	8
287.781	2007
287.839	458
287.897	1074
287.955	858
288.013	1618
288.071	6608
288.129	30611
288.187	100298
288.245	42263
288.303	11433
288.361	5982
288.419	4009
288.477	2100
288.535	1088
288.593	640
288.651	-161
288.709	-647
288.767	-56
288.825	-283
288.883	-102
288.941	-1140
288.999	-211
289.057	-391
289.115	-1684
289.173	-1051
289.231	-132
289.289	227
289.346	-495
289.404	-248
289.462	845
289.520	1904
289.578	-7
289.636	-1279
289.694	-891
289.751	-694
289.809	-1023
289.867	-858
289.925	64
289.983	286
290.040	-769
290.098	-843
290.156	-1634
290.214	353
290.271	-723
290.329	-404
290.387	-1463
290.444	-903
290.502	-1356
290.560	-920
290.617	-1333
290.675	-1511
290.733	-1545
290.790	-466
290.848	-1082
290.906	-729
290.963	-118
291.021	-828
291.078	-663
291.136	-844
291.194	2125
291.251	7388
291.309	948
291.366	-64
291.424	-1031
291.481	-1169
291.539	-1235
291.596	61
291.654	-125
291.711	-419
291.769	-693
291.826	1382
291.884	167
291.941	-168
291.999	-966
292.056	-932
292.114	-332
292.171	-183
292.228	-227
292.286	481
292.343	1715
292.401	2835
292.458	618
292.515	-322
292.573	157
292.630	-340
292.687	-76
292.745	298
292.802	-430
292.859	2203
292.917	10049
292.974	5487
293.031	649
293.089	-388
293.146	-529
293.203	-808
293.260	-829
293.318	-566
293.375	-511
293.432	-968
293.489	-172
293.546	-972
293.604	543
293.661	4285
293.718	15604
293.775	6984
293.832	3039
293.889	1861
293.947	2021
294.004	850
294.061	27
294.118	2960
294.175	7228
294.232	4410
294.289	1689
294.346	424
294.403	433
294.460	968
294.517	-728
294.574	-342
294.631	-540
294.688	26
294.745	2781
294.802	15822
294.859	11642
294.916	3650
294.973	2623
295.030	2540
295.087	1333
295.144	-188
295.201	14
295.258	-478
295.315	657
295.372	5714
295.429	14613
295.486	4754
295.542	1316
295.599	1569
295.656	4140
295.713	5448
295.770	11839
295.827	3570
295.883	455
295.940	789
295.997	2466
296.054	1391
296.111	-145
296.167	294
296.224	-582
296.281	-1293
296.338	-542
296.394	-102
296.451	1027
296.508	3880
296.564	10752
296.621	5813
296.678	12246
296.734	20118
296.791	6017
296.848	2073
296.904	2917
296.961	8625
297.018	14511
297.074	11383
297.131	2078
297.187	2001
297.244	3355
297.301	13219
297.357	28037
297.414	8845
297.470	2236
297.527	1105
297.583	693
297.640	1167
297.696	503
297.753	-653
297.809	-337
297.866	-345
297.922	-421
297.979	-679
298.035	-527
298.092	1444
298.148	7964
298.204	7827
298.261	2211
298.317	4509
298.374	16720
298.430	10583
298.486	3385
298.543	2380
298.599	1245
298.656	1923
298.712	4066
298.768	12379
298.824	7949
298.881	2314
298.937	1079
298.993	629
299.050	1151
299.106	931
299.162	115
299.218	365
299.275	-355
299.331	836
299.387	2174
299.443	15085
299.500	17586
299.556	7236
299.612	2708
299.668	1407
299.724	2867
299.780	4015
299.837	1015
299.893	3013
299.949	12993
300.005	17731
300.061	12317
300.117	22185
300.173	11149
300.229	3587
300.285	3806
300.341	6265
300.397	2679
300.453	-221
300.510	221
300.566	298
300.622	2034
300.678	7177
300.734	15381
300.790	14273
300.845	18128
300.901	10334
300.957	15008
301.013	12080
301.069	4051
301.125	2237
301.181	1727
301.237	1755
301.293	545
301.349	65
301.405	-747
301.461	163
301.516	270
301.572	-187
301.628	2449
301.684	2634
301.740	3561
301.796	9178
301.851	4904
301.907	9459
301.963	10484
302.019	16108
302.074	45522
302.130	46198
302.186	19550
302.242	7089
302.297	3598
302.353	4134
302.409	9064
302.464	7273
302.520	6469
302.576	16171
302.631	20725
302.687	10743
302.743	3922
302.798	1453
302.854	257
302.910	1401
302.965	1701
303.021	3928
303.076	4157
303.132	5447
303.187	7103
303.243	3167
303.299	1720
303.354	-285
303.410	-533
303.465	-418
303.521	-157
303.576	307
303.632	48
303.687	3010
303.743	13018
303.798	13300
303.853	3639
303.909	1615
303.964	1260
304.020	2161
304.075	5305
304.130	3950
304.186	8935
304.241	9968
304.297	6537
304.352	2715
304.358	2514
304.407	876
304.449	1433
304.463	1624
304.518	879
304.539	798
304.573	659
304.629	1277
304.630	1299
304.684	2501
304.720	7041
304.739	9280
304.794	17453
304.811	14781
304.850	8124
304.902	2932
304.905	2613
304.960	1608
304.992	1245
305.015	1007
305.071	784
305.083	811
305.126	885
305.173	381
305.181	310
305.236	-100
305.264	-202
305.292	-316
305.347	426
305.354	514
305.402	1038
305.445	1234
305.457	1334
305.512	1933
305.535	2155
305.567	2227
305.622	1867
305.626	1992
305.678	6091
305.716	12924
305.733	15044
305.788	20029
305.807	17121
305.843	12419
305.897	15499
305.898	15515
305.953	15525
305.988	10338
306.008	7651
306.063	3450
306.078	2998
306.118	2211
306.168	1204
306.173	1140
306.228	496
306.259	636
306.283	690
306.338	534
306.349	542
306.393	667
306.440	559
306.448	536
306.503	1175
306.530	1317
306.558	2105
306.613	4203
306.620	4779
306.668	10536
306.711	17863
306.723	18402
306.778	15219
306.801	11250
306.833	6836
306.888	2863
306.892	2608
306.943	883
306.982	912
306.997	989
307.052	846
307.072	966
307.107	1256
307.162	883
307.163	883
307.217	1244
307.253	1658
307.272	1894
307.327	2227
307.343	2321
307.381	2407
307.434	2136
307.436	2295
307.491	7351
307.524	11416
307.546	12559
307.600	15596
307.614	14566
307.655	8894
307.704	3242
307.710	3061
307.765	3064
307.795	3965
307.819	4834
307.874	5907
307.885	5947
307.929	4727
307.975	3985
307.984	4253
308.038	6365
308.065	8091
308.093	16381
308.148	36482
308.156	40859
308.202	64830
308.246	83605
308.257	81273
308.312	43048
308.336	29457
308.366	23152
308.421	16457
308.426	15661
308.475	9317
308.517	5339
308.530	4860
308.585	3576
308.607	3444
308.639	3650
308.694	3642
308.697	3664
308.748	6035
308.787	8370
308.803	8264
308.857	6568
308.877	5924
308.912	5979
308.967	6265
308.967	6259
309.021	9932
309.058	13311
309.076	17643
309.130	32916
309.148	38569
309.185	68185
309.238	114630
309.239	115057
309.293	130442
309.328	123463
309.348	105272
309.402	47173
309.418	32619
309.457	22859
309.508	14202
309.511	14153
309.566	15409
309.598	16464
309.620	21849
309.674	37646
309.688	41725
309.729	37614
309.778	28131
309.783	27403
309.837	18168
309.868	13608
309.892	17424
309.946	27782
309.959	30730
310.001	40563
310.049	50672
310.055	48724
310.109	26748
310.139	14213
310.163	10985
310.218	5684
310.229	4828
310.272	4332
310.319	3711
310.326	3558
310.381	2344
310.409	1924
310.435	1698
310.489	969
310.499	881
310.543	1368
310.589	1851
310.598	1802
310.652	1475
310.679	1296
310.706	1433
310.760	1578
310.769	1602
310.814	1394
310.859	1140
310.868	1134
310.923	1180
310.948	1157
310.977	1686
311.031	2879
311.038	3017
311.085	2709
311.128	2160
311.139	2082
311.193	1955
311.218	1851
311.247	1988
311.301	2124
311.308	2142
311.356	1664
311.398	1177
311.410	1249
311.464	1611
311.488	1731
311.518	1869
311.572	2135
311.578	2156
311.626	3897
311.668	5466
311.680	5196
311.734	3777
311.758	3125
311.788	2900
311.842	2474
311.847	2422
311.896	3296
311.937	4029
311.950	4052
312.004	4096
312.027	4089
312.058	3642
312.112	2819
312.117	2730
312.165	2323
312.207	1967
312.297	2259
312.386	1882
312.476	3035
312.566	9433
312.656	3772
312.745	1429
312.835	2064
312.925	3016
313.015	1482
313.104	1474
313.194	1963
313.284	2514
313.374	5030
313.463	3362
313.553	2329
313.643	1286
313.732	1435
313.822	872
313.912	1967
314.001	3122
314.091	2525
314.180	2987
314.270	4640
314.360	4523
314.449	4327
314.539	2147
314.628	1511
314.718	1409
314.808	2910
314.897	2025
314.987	2018
315.076	3857
315.166	5770
315.255	3283
315.345	4277
315.434	3068
315.524	2852
315.613	4625
315.703	7874
315.792	10644
315.881	30104
315.971	10318
316.060	8506
316.150	7067
316.239	7055
316.328	2337
316.418	2613
316.507	2984
316.597	5127
316.686	3875
316.775	3428
316.865	5563
316.954	2212
317.043	1226
317.133	3118
317.222	2060
317.311	2375
317.400	1605
317.490	5074
317.579	6059
317.668	3549
317.757	7365
317.847	16518
317.936	54777
318.025	23599
318.114	13200
318.203	7686
318.293	7756
318.382	13875
318.471	13144
318.560	12125
318.649	13537
318.738	3473
318.828	5027
318.917	5222
319.006	4811
319.095	9002
319.184	23891
319.273	20638
319.362	15684
319.451	4979
319.540	4761
319.629	12251
319.718	22646
319.807	6408
319.896	9537
319.985	31867
320.074	16431
320.163	2634
320.252	4178
320.341	3580
320.430	3085
320.519	9728
320.608	5297
320.697	3584
320.786	3607
320.875	7062
320.964	9245
321.053	15346
321.142	22358
321.230	22970
321.319	14271
321.408	36777
321.497	13996
321.586	14590
321.675	9870
321.764	11614
321.852	7215
321.941	20798
322.030	12758
322.119	12060
322.207	38172
322.296	14974
322.385	7118
322.474	12771
322.562	49000
322.651	21346
322.740	14710
322.829	19502
322.917	11622
323.006	10812
323.095	10297
323.183	5204
323.272	8558
323.361	13718
323.449	28605
323.538	10428
323.626	21344
323.715	12077
323.804	4470
323.892	18939
323.981	14671
324.069	3858
324.158	6659
324.246	8095
324.335	6437
324.424	13382
324.512	4583
324.601	5939
324.689	9166
324.778	15897
324.866	9459
324.954	3141
325.043	3630
325.131	5723
325.220	6173
325.308	7336
325.397	7454
325.485	5479
325.574	2225
325.662	2307
325.750	3147
325.839	1766
325.927	1631
326.015	3055
326.104	2811
326.192	3253
326.280	1796
326.369	1868
326.457	5561
326.545	11153
326.634	4139
326.722	983
326.810	1665
326.898	2696
326.987	2990
327.075	8637
327.163	7655
327.251	1823
327.340	5174
327.428	7731
327.516	2254
327.604	2050
327.692	1993
327.781	1664
327.869	2477
327.957	2877
328.045	3882
328.133	1543
328.221	1790
328.309	2850
328.397	2379
328.485	3578
328.574	6102
328.662	25229
328.750	9311
328.838	2202
328.926	1760
329.014	1187
329.102	3650
329.190	8518
329.278	6360
329.366	1135
329.454	122
329.542	1269
329.630	177
329.718	2313
329.806	2802
329.893	1595
329.981	867
330.069	1993
330.157	5808
330.245	16971
330.333	9705
330.421	3227
330.509	5813
330.597	30459
330.684	17490
330.772	4397
330.860	2226
330.948	2633
331.036	1653
331.123	245
331.211	758
331.299	302
331.387	3433
331.475	6478
331.562	1975
331.650	1048
331.738	1018
331.825	1391
331.913	885
332.001	754
332.089	1952
332.176	2697
332.264	6559
332.352	6356
332.439	3591
332.527	1177
332.614	1436
332.702	1715
332.790	2600
332.877	4134
332.965	9405
333.052	3818
333.140	4374
333.228	12292
333.315	2947
333.403	1311
333.490	4078
333.578	6022
333.665	18251
333.753	7027
333.840	2024
333.928	2119
334.015	5612
334.103	8069
334.190	24062
334.278	6181
334.365	4003
334.452	3849
334.540	1419
334.627	2231
334.715	3890
334.802	6971
334.889	27425
334.977	33689
335.064	8519
335.151	3178
335.239	2812
335.326	3668
335.413	12081
335.501	16766
335.588	2939
335.675	2110
335.762	1569
335.850	3189
335.937	4158
336.024	9580
336.111	35902
336.199	21118
336.286	6139
336.373	3566
336.460	859
336.547	2057
336.635	2566
336.722	2567
336.809	1763
336.896	3758
336.983	9919
337.070	20332
337.157	27070
337.245	18388
337.332	12650
337.419	1247
337.506	958
337.593	1410
337.680	4040
337.767	13825
337.854	5939
337.941	6466
338.028	7646
338.115	1761
338.202	2786
338.289	4929
338.376	19084
338.463	6869
338.550	7485
338.637	7749
338.724	3471
338.811	4971
338.898	1651
338.984	324
339.071	1397
339.158	3816
339.245	12015
339.332	6540
339.419	4313
339.506	4179
339.593	682
339.679	2246
339.766	1668
339.853	3397
339.940	10938
340.027	3627
340.113	2931
340.200	5168
340.287	2538
340.374	4354
340.460	9945
340.547	2658
340.634	7211
340.720	29505
340.807	16327
340.894	2582
340.980	2101
341.067	2636
341.154	3478
341.240	5390
341.327	14592
341.414	3221
341.500	2583
341.587	2866
341.674	2630
341.760	8954
341.847	11491
341.933	3112
342.020	689
342.106	1499
342.193	2456
342.279	7128
342.366	4248
342.452	9033
342.539	4682
342.625	12703
342.712	33596
342.798	13138
342.885	4563
342.971	746
343.058	489
343.144	1650
343.230	2343
343.317	2170
343.403	1180
343.490	1011
343.576	810
343.662	1860
343.749	3010
343.835	3371
343.921	7648
344.008	43637
344.094	103979
344.180	23326
344.267	9956
344.353	30190
344.439	30121
344.525	14176
344.612	4318
344.698	4357
344.784	2747
344.870	1793
344.957	2346
345.043	6272
345.129	3404
345.215	9288
345.301	3693
345.387	2837
345.474	1237
345.560	1091
345.646	388
345.732	1428
345.818	2665
345.904	2520
345.990	3257
346.076	2549
346.162	2704
346.249	2150
346.335	1222
346.421	2345
346.507	11151
346.593	45345
346.679	9058
346.765	2674
346.851	2678
346.937	2216
347.023	2066
347.108	3389
347.194	2344
347.280	2042
347.366	3890
347.452	12583
347.538	51848
347.624	39340
347.710	30571
347.796	4009
347.882	1574
347.967	1673
348.053	1409
348.139	1864
348.225	1556
348.311	1872
348.397	1210
348.482	3696
348.568	3764
348.654	1416
348.740	3386
348.825	2685
348.911	6371
348.997	22044
349.083	45631
349.168	5985
349.254	1954
349.340	3092
349.425	1945
349.511	3507
349.597	4599
349.682	9546
349.768	34987
349.854	15153
349.939	1933
350.025	1215
350.110	1060
350.196	1262
350.282	669
350.367	1453
350.453	1217
350.538	2463
350.624	3189
350.709	2986
350.795	996
350.880	1403
350.966	2389
351.051	2497
351.137	1655
351.222	2610
351.308	9581
351.393	32052
351.479	6608
351.564	938
351.649	2455
351.735	1333
351.820	1084
351.906	2289
351.991	3592
352.076	18840
352.162	29953
352.247	5686
352.332	3434
352.418	7187
352.503	9149
352.588	46194
352.673	38332
352.759	8135
352.844	3158
352.929	3696
353.014	5733
353.100	3358
353.185	6201
353.270	11272
353.355	11507
353.441	2802
353.526	2006
353.611	9584
353.696	11951
353.781	6929
353.866	2550
353.952	3165
354.037	9197
354.122	24863
354.207	21735
354.292	6663
354.377	2518
354.462	2155
354.547	3452
354.632	3441
354.717	3781
354.802	7927
354.887	2281
354.972	1413
355.057	1378
355.142	560
355.227	2734
355.312	6044
355.397	14499
355.482	40160
355.567	17596
355.652	11772
355.737	13507
355.822	39383
355.907	31423
355.991	5056
356.076	2071
356.161	1851
356.246	2072
356.331	2665
356.416	6564
356.501	56480
356.585	59577
356.670	7868
356.755	6049
356.840	8705
356.924	38878
357.009	144120
357.094	54738
357.179	12197
357.263	7974
357.348	8043
357.433	7263
357.517	7234
357.602	5558
357.687	3280
357.771	4662
357.856	6234
357.941	6601
358.025	27441
358.110	125127
358.195	59433
358.279	9694
358.364	8039
358.448	29101
358.533	80211
358.617	56514
358.702	55201
358.787	20497
358.871	11506
358.956	8974
359.040	2288
359.125	1643
359.209	1520
359.294	2789
359.378	4477
359.462	7724
359.547	3754
359.631	1003
359.716	761
359.800	1268
359.885	3230
359.969	2122
360.053	3105
360.138	2534
360.222	5045
360.306	11445
360.391	6740
360.475	9166
360.559	21669
360.644	29073
360.728	20531
360.812	29420
360.896	85344
360.981	34896
361.065	17913
361.149	5794
361.233	5999
361.318	2737
361.402	5104
361.486	4217
361.570	2748
361.654	4549
361.739	13304
361.823	54852
361.907	83720
361.991	15075
362.075	9578
362.159	21767
362.243	14115
362.327	13440
362.411	18997
362.495	8092
362.580	4066
362.664	2110
362.748	2052
362.832	3390
362.916	5872
363.000	26259
363.084	81456
363.168	102929
363.252	23881
363.336	7819
363.420	9792
363.503	20816
363.587	20908
363.671	6675
363.755	5202
363.839	10644
363.923	3783
364.007	11064
364.091	10005
364.175	7235
364.258	32585
364.342	32352
364.426	62511
364.510	33810
364.594	13565
364.677	14359
364.761	73375
364.845	51836
364.929	19255
365.013	15838
365.096	13379
365.180	14708
365.264	7980
365.347	29964
365.431	11490
365.515	3674
365.598	2535
365.682	2889
365.766	2069
365.849	3155
365.933	3220
366.017	4427
366.100	1500
366.184	168
366.267	2177
366.351	2198
366.435	1868
366.518	1437
366.602	1434
366.685	1910
366.769	2793
366.852	4024
366.936	9816
367.019	6978
367.103	1823
367.186	3752
367.270	1813
367.353	987
367.436	2664
367.520	1216
367.603	3908
367.687	6255
367.770	13216
367.853	7631
367.937	23320
368.020	39489
368.104	9519
368.187	9655
368.270	13643
368.353	11263
368.437	10565
368.520	12907
368.603	15577
368.687	27707
368.770	54181
368.853	11728
368.936	10512
369.020	7051
369.103	3570
369.186	2169
369.269	2097
369.352	8340
369.436	12052
369.519	6948
369.602	1613
369.685	4636
369.768	2790
369.851	3048
369.934	2049
370.018	2832
370.101	10033
370.184	8405
370.267	4557
370.350	8845
370.433	12291
370.516	39159
370.599	51689
370.682	15194
370.765	30928
370.848	34985
370.931	63853
371.014	21152
371.097	3165
371.180	3411
371.263	1904
371.346	280
371.429	2378
371.511	2931
371.594	5525
371.677	7840
371.760	5772
371.843	8041
371.926	41802
372.009	100903
372.091	33052
372.174	21989
372.257	54557
372.340	19239
372.423	11339
372.505	10120
372.588	5070
372.671	18727
372.754	64712
372.836	30283
372.919	9967
373.002	16289
373.085	7487
373.167	10048
373.250	26944
373.332	57478
373.415	68954
373.498	142803
373.580	52142
373.663	69759
373.746	91415
373.828	21246
373.911	8410
373.993	7166
374.076	15123
374.159	13412
374.241	14843
374.324	55922
374.406	35512
374.489	39331
374.571	119031
374.654	49318
374.736	22727
374.819	69742
374.901	99543
374.983	103000
375.066	18008
375.148	5792
375.231	13359
375.313	26320
375.395	11223
375.478	4428
375.560	3293
375.643	5949
375.725	18980
375.807	88032
375.890	59258
375.972	15655
376.054	10984
376.136	9932
376.219	5953
376.301	24817
376.383	81682
376.465	29677
376.548	21937
376.630	22654
376.712	72430
376.794	32322
376.877	4263
376.959	1954
377.041	3090
377.123	2355
377.205	3968
377.287	1042
377.369	2208
377.452	2085
377.534	2309
377.616	2508
377.698	2566
377.780	868
377.862	2789
377.944	3231
378.026	651
378.108	1694
378.190	1107
378.272	2133
378.354	751
378.436	1007
378.518	1914
378.600	9408
378.682	13400
378.764	39259
378.846	29625
378.928	6949
379.010	12013
379.091	6807
379.173	2692
379.255	774
379.337	3850
379.419	17205
379.501	55306
379.583	20416
379.664	4346
379.746	12940
379.828	40010
379.910	53004
379.991	45907
380.073	6387
380.155	4518
380.237	3605
380.318	1546
380.400	2636
380.482	7838
380.564	12916
380.645	12248
380.727	11846
380.809	6277
380.890	4941
380.972	2122
381.053	2446
381.135	3818
381.217	12064
381.298	41729
381.380	18289
381.461	12976
381.543	68189
381.624	84123
381.706	15147
381.787	5728
381.869	7588
381.951	25425
382.032	106405
382.113	70504
382.195	13397
382.276	8808
382.358	21129
382.439	61723
382.521	64347
382.602	102274
382.684	45002
382.765	89735
382.846	96256
382.928	150686
383.009	79485
383.090	46890
383.172	189064
383.253	298691
383.334	98135
383.416	96405
383.497	48452
383.578	21446
383.659	38864
383.741	150887
383.822	413270
383.903	207379
383.984	72807
384.066	125940
384.147	76712
384.228	15527
384.309	12162
384.390	8422
384.471	5502
384.553	6339
384.634	9651
384.715	10437
384.796	4311
384.877	6371
384.958	34217
385.039	43673
385.120	14686
385.201	6236
385.282	4940
385.363	5068
385.444	4736
385.525	11160
385.606	45411
385.687	39482
385.768	6981
385.849	7823
385.930	48332
386.011	82569
386.092	21703
386.173	4793
386.254	3034
386.335	3894
386.416	4646
386.496	21310
386.577	38199
386.658	9437
386.739	5209
386.820	4549
386.901	1470
386.981	3624
387.062	2960
387.143	8061
387.224	38383
387.304	34043
387.385	11070
387.466	4177
387.547	6128
387.627	5521
387.708	12911
387.789	64929
387.869	78059
387.950	19566
388.031	2916
388.111	-340
388.192	3372
388.273	6067
388.353	4236
388.434	4596
388.514	10896
388.595	53057
388.676	73826
388.756	37232
388.837	37090
388.917	21422
388.998	1790
389.078	3620
389.159	2932
389.239	1303
389.320	7162
389.400	4970
389.480	11487
389.561	37988
389.641	17519
389.722	6374
389.802	10818
389.883	15278
389.963	43471
390.043	23828
390.124	3869
390.204	11475
390.284	44174
390.365	24704
390.445	15315
390.525	48631
390.605	50034
390.686	20357
390.766	7769
390.846	4161
390.927	1233
391.007	1812
391.087	3101
391.167	3637
391.247	1259
391.328	2987
391.408	4102
391.488	3298
391.568	287
391.648	4952
391.728	7954
391.808	7269
391.888	7720
391.969	20579
392.049	34207
392.129	11644
392.209	14301
392.289	44748
392.369	19917
392.449	9061
392.529	6789
392.609	9172
392.689	11903
392.769	43416
392.849	35577
392.929	20083
393.009	53424
393.089	44425
393.169	38626
393.248	119974
393.328	427691
393.408	454933
393.488	134101
393.568	39739
393.648	19131
393.728	11712
393.807	7801
393.887	7331
393.967	5363
394.047	7046
394.127	6984
394.206	11009
394.286	31720
394.366	163708
394.446	175681
394.525	35368
394.605	8934
394.685	7469
394.764	11213
394.844	17849
394.924	14686
395.003	6725
395.083	6263
395.163	4746
395.242	4374
395.322	5611
395.402	1551
395.481	5082
395.561	7903
395.640	27267
395.720	26090
395.799	21852
395.879	15448
395.958	11773
396.038	45685
396.117	213351
396.197	233583
396.276	54043
396.356	15725
396.435	11633
396.515	11712
396.594	17988
396.673	36472
396.753	127823
396.832	393491
396.912	304019
396.991	78844
397.070	22467
397.150	10794
397.229	8231
397.308	11419
397.388	17863
397.467	8931
397.546	3440
397.625	1670
397.705	6204
397.784	6200
397.863	1884
397.942	1471
398.022	1545
398.101	5269
398.180	15027
398.259	6952
398.338	3338
398.417	3038
398.497	1814
398.576	2620
398.655	796
398.734	1118
398.813	1419
398.892	4230
398.971	16250
399.050	8067
399.129	526
399.208	775
399.287	1426
399.366	408
399.445	1516
399.524	1195
399.603	109
399.682	4988
399.761	11520
399.840	20490
399.919	14899
399.998	1140
400.077	-126
400.156	68
400.235	2277
400.313	909
400.392	2069
400.471	20205
400.550	34456
400.629	7115
400.708	3407
400.786	173
400.865	1521
400.944	3790
401.023	3732
401.102	-405
401.180	26
401.259	82
401.338	286
401.416	2341
401.495	1692
401.574	990
401.652	1342
401.731	2351
401.810	1403
401.888	106
401.967	-1046
402.046	1136
402.124	2898
402.203	3263
402.281	1920
402.360	1485
402.438	4407
402.517	1868
402.596	1135
402.674	-26
402.753	446
402.831	369
402.910	1727
402.988	9961
403.066	42896
403.145	23562
403.223	12779
403.302	33999
403.380	24662
403.459	25088
403.537	8604
403.615	1907
403.694	-754
403.772	416
403.850	-477
403.929	46
404.007	91
404.085	4506
404.164	4617
404.242	1229
404.320	1903
404.398	3712
404.477	14733
404.555	84569
404.633	73168
404.711	8792
404.789	3004
404.868	1678
404.946	53
405.024	92
405.102	-465
405.180	26
405.258	-1010
405.336	1440
405.415	89
405.493	2783
405.571	3191
405.649	461
405.727	-942
405.805	1468
405.883	1532
405.961	1285
406.039	118
406.117	394
406.195	4019
406.273	18709
406.351	78537
406.429	41854
406.507	3666
406.585	283
406.663	1756
406.740	3109
406.818	2634
406.896	454
406.974	1569
407.052	4096
407.130	45714
407.208	65232
407.285	11402
407.363	819
407.441	1158
407.519	286
407.596	1130
407.674	4172
407.752	10459
407.830	8515
407.907	3261
407.985	1150
408.063	974
408.141	-324
408.218	956
408.296	723
408.373	1251
408.451	2968
408.529	2390
408.606	-91
408.684	-261
408.762	-75
408.839	-267
408.917	306
408.994	-183
409.072	-422
409.149	171
409.227	1789
409.304	3312
409.382	1795
409.459	998
409.537	5076
409.614	3298
409.692	1564
409.769	1580
409.846	4864
409.924	6459
410.001	2190
410.079	1750
410.156	1007
410.233	996
410.311	433
410.388	142
410.465	1698
410.543	-447
410.620	882
410.697	1801
410.775	1436
410.852	-516
410.929	2123
411.006	4023
411.083	799
411.161	3170
411.238	3251
411.315	388
411.392	-13
411.469	1511
411.547	1983
411.624	-1350
411.701	-7
411.778	1505
411.855	5531
411.932	2267
412.009	-622
412.086	28
412.163	123
412.240	-537
412.317	543
412.394	56
412.471	434
412.548	-803
412.625	161
412.702	570
412.779	2912
412.856	1108
412.933	-773
413.010	-960
413.087	1724
413.164	18293
413.241	28220
413.318	4934
413.395	2639
413.471	4673
413.548	1574
413.625	261
413.702	146
413.779	594
413.855	-653
413.932	-1058
414.009	-754
414.086	-282
414.162	-242
414.239	1479
414.316	16628
414.393	44111
414.469	13798
414.546	434
414.623	254
414.699	-195
414.776	833
414.853	-855
414.929	503
415.006	203
415.082	-317
415.159	-394
415.236	487
415.312	377
415.389	3446
415.465	5601
415.542	1487
415.618	-517
415.695	2851
415.771	954
415.848	1225
415.924	-30
416.000	-751
416.077	-420
416.153	-1692
416.230	-1993
416.306	-522
416.383	-1088
416.459	-652
416.535	-890
416.612	-797
416.688	-693
416.764	-497
416.841	-442
416.917	-559
416.993	-337
417.069	215
417.146	633
417.222	2403
417.298	910
417.374	37
417.451	928
417.527	801
417.603	1746
417.679	1132
417.755	718
417.831	-515
417.908	-817
417.984	-809
418.060	-947
418.136	4168
418.212	6153
418.288	1284
418.364	26
418.440	-194
418.516	2278
418.592	1437
418.668	6477
418.744	13556
418.820	9151
418.896	267
418.972	-598
419.048	449
419.124	6324
419.200	3294
419.276	288
419.352	-453
419.428	-424
419.504	10
419.579	1552
419.655	176
419.731	633
419.807	8200
419.883	15933
419.959	10516
420.034	1841
420.110	4832
420.186	26299
420.262	20196
420.337	2482
420.413	1391
420.489	209
420.565	645
420.640	43
420.716	1481
420.792	-852
420.867	237
420.943	-104
421.019	2898
421.094	1871
421.170	-39
421.245	-558
421.321	683
421.397	250
421.472	1417
421.548	4996
421.623	4888
421.699	2196
421.774	2518
421.850	1316
421.925	5216
422.001	4773
422.076	3441
422.152	3736
422.227	7402
422.302	8921
422.378	11977
422.453	22824
422.529	55117
422.604	154992
422.679	233743
422.755	170879
422.830	65586
422.905	25845
422.981	14071
423.056	8094
423.131	6366
423.207	3558
423.282	4409
423.357	9878
423.432	5877
423.508	5493
423.583	14445
423.658	9592
423.733	2252
423.808	2797
423.883	4592
423.959	2719
424.034	2094
424.109	1911
424.184	295
424.259	212
424.334	62
424.409	-11
424.484	679
424.559	757
424.634	-325
424.709	2053
424.784	3314
424.859	1126
424.934	3202
425.009	19997
425.084	33762
425.159	9669
425.234	1442
425.309	134
425.384	300
425.459	-497
425.534	409
425.609	-574
425.683	-2
425.758	-184
425.833	-157
425.908	1743
425.983	10732
426.058	36057
426.132	13066
426.207	530
426.282	1201
426.357	-233
426.431	-602
426.506	492
426.581	-522
426.655	-402
426.730	607
426.805	-92
426.879	772
426.954	221
427.029	3228
427.103	28688
427.178	70680
427.253	29129
427.327	2852
427.402	240
427.476	1280
427.551	-60
427.625	-353
427.700	-97
427.774	-668
427.849	449
427.923	-639
427.998	-508
428.072	-379
428.147	2852
428.221	19178
428.296	59475
428.370	29292
428.444	2467
428.519	1175
428.593	1881
428.667	1911
428.742	2381
428.816	4404
428.890	29552
428.965	51465
429.039	12165
429.113	3466
429.188	903
429.262	412
429.336	3442
429.410	14065
429.485	8175
429.559	1513
429.633	1637
429.707	1377
429.781	3968
429.855	30855
429.930	54855
430.004	19709
430.078	13328
430.152	19653
430.226	68206
430.300	72757
430.374	11359
430.448	2916
430.522	5064
430.596	14015
430.670	14328
430.744	67375
430.818	103865
430.892	20122
430.966	2509
431.040	887
431.114	-342
431.188	-886
431.262	-283
431.336	-445
431.410	1414
431.484	5611
431.557	5189
431.631	52
431.705	724
431.779	9205
431.853	50150
431.927	36406
432.000	2673
432.074	663
432.148	150
432.222	-107
432.295	-69
432.369	-570
432.443	1819
432.516	23519
432.590	68875
432.664	23941
432.737	1661
432.811	-372
432.885	-457
432.958	-256
433.032	-783
433.106	-1373
433.179	-925
433.253	-919
433.326	-1114
433.400	-685
433.473	-357
433.547	-891
433.620	-847
433.694	2638
433.767	2181
433.841	-1303
433.914	-979
433.988	-1311
434.061	-635
434.134	-1473
434.208	-932
434.281	-1315
434.355	-411
434.428	-980
434.501	-927
434.575	-1384
434.648	-682
434.721	-1229
434.795	-1052
434.868	-1437
434.941	-1154
435.014	-993
435.088	-689
435.161	816
435.234	2683
435.307	3686
435.381	917
435.454	439
435.527	2666
435.600	2113
435.673	1421
435.746	239
435.819	-282
435.892	485
435.966	-917
436.039	-1001
436.112	-369
436.185	-1472
436.258	-1087
436.331	-1461
436.404	-1275
436.477	-912
436.550	-646
436.623	-432
436.696	-967
436.769	537
436.842	-1183
436.915	-740
436.987	896
437.060	-601
437.133	-863
437.206	-1401
437.279	-433
437.352	-690
437.425	-906
437.498	-413
437.570	3335
437.643	2716
437.716	467
437.789	-726
437.861	1119
437.934	6437
438.007	3608
438.080	-488
438.152	980
438.225	3400
438.298	32836
438.370	95992
438.443	39572
438.516	9026
438.588	1218
438.661	-433
438.734	-456
438.806	-106
438.879	207
438.951	1202
439.024	3596
439.096	913
439.169	-268
439.241	-1499
439.314	-1385
439.386	-998
439.459	828
439.531	2253
439.604	623
439.676	-122
439.749	-754
439.821	-397
439.893	-725
439.966	-437
440.038	33
440.110	991
440.183	281
440.255	-228
440.327	1117
440.400	12957
440.472	62137
440.544	42305
440.617	5137
440.689	3939
440.761	3901
440.833	7826
440.905	4303
440.978	-243
441.050	-386
441.122	-401
441.194	-398
441.266	-873
441.338	-1262
441.411	1863
441.483	21908
441.555	33968
441.627	6633
441.699	1087
441.771	-81
441.843	-418
441.915	-821
441.987	-1119
442.059	-826
442.131	463
442.203	359
442.275	1001
442.347	1773
442.419	4112
442.491	27107
442.563	74257
442.635	33173
442.706	10005
442.778	7792
442.850	1392
442.922	466
442.994	1022
443.066	2392
443.137	995
443.209	1107
443.281	2764
443.353	7384
443.425	32546
443.496	129007
443.568	135269
443.640	52237
443.711	9099
443.783	2859
443.855	1732
443.926	297
443.998	492
444.070	1241
444.141	785
444.213	3562
444.285	4969
444.356	2320
444.428	1502
444.499	30
444.571	-151
444.642	461
444.714	1600
444.785	3910
444.857	2565
444.928	2636
445.000	1110
445.071	2012
445.143	3968
445.214	4200
445.285	5993
445.357	17053
445.428	77628
445.500	191133
445.571	125978
445.642	71764
445.714	22027
445.785	9835
445.856	4271
445.928	5454
445.999	4437
446.070	3316
446.141	3112
446.213	4736
446.284	1707
446.355	966
446.426	581
446.497	569
446.569	893
446.640	3908
446.711	4333
446.782	7
446.853	-624
446.924	364
446.995	1151
447.066	-93
447.138	-54
447.209	19
447.280	-939
447.351	-1014
447.422	-1274
447.493	-200
447.564	1343
447.635	3756
447.706	1453
447.777	52
447.847	-192
447.918	-943
447.989	-150
448.060	407
448.131	470
448.202	2748
448.273	4205
448.344	1195
448.414	533
448.485	268
448.556	51
448.627	-604
448.698	357
448.768	-781
448.839	-575
448.910	-365
448.981	832
449.051	1166
449.122	-436
449.193	-421
449.263	-924
449.334	-578
449.405	749
449.475	5381
449.546	3463
449.616	754
449.687	60
449.758	-199
449.828	-257
449.899	-360
449.969	-158
450.040	-186
450.110	-219
450.181	364
450.251	-424
450.322	-629
450.392	64
450.463	-201
450.533	-844
450.604	-1054
450.674	-630
450.744	-302
450.815	-325
450.885	-939
450.955	21
451.026	372
451.096	-518
451.166	-1022
451.237	978
451.307	3017
451.377	910
451.447	-251
451.518	-948
451.588	-870
451.658	-512
451.728	-733
451.799	1777
451.869	2801
451.939	-159
452.009	-478
452.079	-1330
452.149	73
452.219	246
452.289	3185
452.360	1774
452.430	-142
452.500	422
452.570	1652
452.640	3330
452.710	9876
452.780	12853
452.850	13406
452.920	14375
452.990	4804
453.060	1046
453.129	1859
453.199	2618
453.269	5022
453.339	10703
453.409	16432
453.479	15483
453.549	21904
453.619	22696
453.688	9515
453.758	1307
453.828	-186
453.898	-594
453.968	-705
454.037	-334
454.087	-336
454.107	-338
454.168	-725
454.177	-789
454.247	-500
454.249	-519
454.316	-1134
454.330	-945
454.386	-232
454.411	235
454.456	985
454.492	2001
454.525	2940
454.574	1334
454.595	612
454.655	-342
454.665	-498
454.734	628
454.736	637
454.804	750
454.817	1194
454.873	3053
454.898	3080
454.943	3194
454.979	2028
455.013	896
455.060	131
455.082	-191
455.141	17
455.152	40
455.221	1855
455.222	1882
455.291	3966
455.303	3506
455.360	1373
455.384	1157
455.430	747
455.465	638
455.499	501
455.546	1814
455.569	2442
455.627	2647
455.638	2684
455.707	732
455.708	732
455.777	-359
455.789	-326
455.846	-7
455.869	-51
455.916	-266
455.950	-410
455.985	-487
456.031	-392
456.054	-335
456.112	-67
456.124	-43
456.193	-522
456.193	-531
456.262	189
456.274	218
456.332	247
456.355	4
456.401	-335
456.436	-190
456.470	-135
456.516	-124
456.540	-107
456.597	-747
456.609	-908
456.678	-164
456.678	-166
456.747	-544
456.759	-528
456.817	-483
456.840	-346
456.886	-154
456.920	-117
456.955	-97
457.001	-203
457.024	-162
457.082	-15
457.093	-18
457.162	107
457.163	112
457.232	252
457.243	332
457.301	876
457.324	496
457.370	-435
457.405	-604
457.439	-647
457.485	-443
457.508	-379
457.566	146
457.577	293
457.646	1080
457.647	1089
457.715	2014
457.727	2348
457.784	4478
457.808	7059
457.853	11092
457.889	13455
457.922	15005
457.969	9595
457.991	8080
458.050	8190
458.060	8178
458.129	16701
458.130	16925
458.198	24408
458.211	22007
458.267	11991
458.292	8351
458.336	3429
458.372	2631
458.405	2703
458.453	4568
458.474	5816
458.533	12916
458.543	13747
458.611	32180
458.614	32222
458.680	26517
458.694	22114
458.749	9047
458.775	6398
458.818	2438
458.855	1515
458.887	884
458.936	868
458.955	756
459.016	305
459.024	313
459.093	817
459.097	817
459.162	395
459.177	386
459.230	893
459.257	1301
459.299	1560
459.338	1799
459.368	2013
459.418	1891
459.437	1668
459.499	887
459.505	908
459.574	1259
459.579	1241
459.643	258
459.659	160
459.711	162
459.740	370
459.780	538
459.820	502
459.849	511
459.900	376
459.917	329
459.981	295
459.986	290
460.054	515
460.061	494
460.123	525
460.141	452
460.191	471
460.222	1178
460.260	1825
460.302	2320
460.328	2425
460.382	1668
460.397	1554
460.462	826
460.465	820
460.534	1474
460.543	1478
460.602	2451
460.623	3271
460.671	5981
460.703	9323
460.739	10305
460.783	9571
460.808	8921
460.864	2802
460.876	1886
460.944	550
460.945	548
461.013	583
461.024	656
461.081	331
461.104	483
461.150	1105
461.184	1221
461.218	1095
461.264	721
461.286	603
461.345	614
461.355	633
461.423	1212
461.425	1192
461.491	70
461.505	41
461.559	583
461.585	771
461.628	1013
461.665	1666
461.696	2097
461.745	2925
461.764	3024
461.825	1618
461.832	1536
461.901	1250
461.905	1266
461.969	264
461.985	39
462.037	1175
462.065	1537
462.105	757
462.145	353
462.173	674
462.225	936
462.241	838
462.305	1408
462.310	1457
462.378	1875
462.385	1771
462.446	516
462.465	417
462.514	659
462.545	853
462.582	993
462.625	852
462.650	608
462.705	116
462.718	145
462.785	443
462.786	441
462.854	424
462.865	408
462.922	780
462.945	1079
462.990	1269
463.025	1083
463.058	1028
463.104	880
463.126	593
463.184	205
463.194	324
463.262	575
463.264	606
463.330	805
463.344	855
463.398	1336
463.424	1291
463.466	681
463.504	656
463.533	1074
463.583	1195
463.601	1146
463.663	1254
463.669	1251
463.737	988
463.743	1003
463.805	1516
463.823	1628
463.873	2057
463.903	2354
463.940	2417
463.982	2561
464.008	2443
464.062	1745
464.076	1625
464.142	734
464.144	720
464.211	572
464.221	582
464.279	671
464.301	657
464.347	809
464.381	1152
464.414	1020
464.461	451
464.482	632
464.540	1416
464.550	1438
464.617	1193
464.620	1197
464.685	1349
464.699	1342
464.753	1778
464.779	2012
464.820	1490
464.859	997
464.888	971
464.938	773
464.956	967
465.018	1770
465.023	1727
465.091	1236
465.098	1167
465.158	1603
465.177	1768
465.226	1486
465.257	1304
465.293	1606
465.336	1889
465.361	1955
465.416	2252
465.428	2313
465.495	2773
465.496	2774
465.563	2335
465.575	2274
465.631	3135
465.654	3603
465.698	2434
465.734	1215
465.765	1263
465.813	1237
465.833	1122
465.893	1164
465.900	1201
465.968	1355
465.972	1368
466.035	1505
466.052	1550
466.102	1680
466.131	1706
466.170	1378
466.210	1070
466.237	1100
466.290	1164
466.304	1185
466.369	1142
466.372	1150
466.439	1534
466.449	1559
466.506	1962
466.528	2140
466.573	2044
466.607	1971
466.641	2916
466.687	4252
466.708	4640
466.766	5818
466.775	5597
466.842	3822
466.845	3734
466.909	2607
466.925	2366
466.977	2424
467.004	2477
467.044	2623
467.083	2767
467.111	2816
467.163	2912
467.178	2807
467.242	2360
467.245	2379
467.312	2763
467.321	2815
467.379	2001
467.400	1700
467.446	2560
467.480	3183
467.559	3193
467.638	1429
467.717	2093
467.796	2508
467.875	2442
467.955	1978
468.034	2908
468.113	3483
468.192	5778
468.271	3043
468.350	2587
468.429	3914
468.508	4272
468.588	3166
468.667	1951
468.746	1989
468.825	2051
468.904	1863
468.983	2142
469.062	2663
469.141	3411
469.220	1654
469.299	1853
469.378	1645
469.456	2592
469.535	2965
469.614	2275
469.693	1781
469.772	2160
469.851	3139
469.930	2402
470.009	2171
470.088	1988
470.166	3408
470.245	4565
470.324	6051
470.403	3353
470.482	3001
470.560	1553
470.639	2750
470.718	2821
470.797	2174
470.875	2098
470.954	2630
471.033	2552
471.111	1844
471.190	1262
471.269	2054
471.347	1468
471.426	1381
471.505	2317
471.583	1734
471.662	1805
471.740	2073
471.819	2193
471.898	1952
471.976	2210
472.055	1793
472.133	1799
472.212	2280
472.290	2038
472.369	1457
472.447	1736
472.526	1733
472.604	2010
472.683	1593
472.761	1776
472.839	1852
472.918	2168
472.996	2302
473.075	1468
473.153	2297
473.231	1633
473.310	1800
473.388	1970
473.466	1530
473.545	2453
473.623	3203
473.701	3037
473.780	1882
473.858	705
473.936	2502
474.014	1443
474.093	1828
474.171	2536
474.249	2467
474.327	1565
474.405	627
474.484	2211
474.562	1524
474.640	1121
474.718	1792
474.796	1632
474.874	1127
474.952	1027
475.030	1132
475.108	2159
475.187	1879
475.265	2213
475.343	3939
475.421	5063
475.499	1809
475.577	1526
475.655	2047
475.733	2995
475.811	3579
475.889	2994
475.966	2310
476.044	1731
476.122	1587
476.200	3702
476.278	2447
476.356	706
476.434	1789
476.512	2756
476.590	3618
476.667	2883
476.745	1174
476.823	2310
476.901	1806
476.979	1645
477.056	1824
477.134	1440
477.212	1656
477.290	1629
477.367	1296
477.445	908
477.523	971
477.601	1087
477.678	1655
477.756	1680
477.834	2269
477.911	560
477.989	1034
478.066	937
478.144	1501
478.222	2801
478.299	4454
478.377	4388
478.454	1412
478.532	1218
478.609	2055
478.687	1775
478.764	-222
478.842	1240
478.919	809
478.997	1675
479.074	772
479.152	1426
479.229	1612
479.307	1003
479.384	1513
479.461	1899
479.539	878
479.616	1543
479.694	1138
479.771	1734
479.848	741
479.926	557
480.003	2165
480.080	725
480.157	1313
480.235	492
480.312	819
480.389	1745
480.467	1672
480.544	1601
480.621	724
480.698	1261
480.775	1408
480.853	959
480.930	1239
481.007	1393
481.084	1029
481.161	1615
481.238	2073
481.315	978
481.392	-105
481.470	68
481.547	1916
481.624	1225
481.701	481
481.778	784
481.855	56
481.932	1513
482.009	1578
482.086	1386
482.163	1448
482.240	3506
482.317	7485
482.393	4369
482.470	693
482.547	475
482.624	396
482.701	1661
482.778	1172
482.855	1086
482.932	1430
483.009	1295
483.085	1878
483.162	2079
483.239	1946
483.316	966
483.393	2121
483.469	1260
483.546	1233
483.623	1260
483.699	872
483.776	354
483.853	323
483.930	1502
484.006	2727
484.083	4819
484.160	4015
484.236	6520
484.313	5577
484.389	3018
484.466	4941
484.543	3298
484.619	2543
484.696	5501
484.772	3454
484.849	3003
484.925	3129
485.002	3594
485.078	3552
485.155	3650
485.231	2095
485.308	2469
485.384	2594
485.461	3451
485.537	3809
485.614	5262
485.690	2751
485.766	2368
485.843	3779
485.919	5989
485.995	7414
486.072	3457
486.148	2287
486.224	2215
486.301	2913
486.377	3014
486.453	3018
486.530	3712
486.606	3544
486.682	3482
486.758	5137
486.835	4017
486.911	3289
486.987	6963
487.063	12102
487.139	18942
487.215	11860
487.292	5710
487.368	4616
487.444	4363
487.520	6907
487.596	5838
487.672	11384
487.748	34012
487.824	54006
487.900	15809
487.976	4744
488.052	3679
488.128	4981
488.204	3179
488.280	3636
488.356	3204
488.432	3979
488.508	6929
488.584	4403
488.660	3474
488.736	2889
488.812	2943
488.888	5119
488.964	6224
489.039	17828
489.115	30563
489.191	17613
489.267	3022
489.343	2685
489.418	2111
489.494	2142
489.570	709
489.646	3828
489.722	1989
489.797	1192
489.873	2835
489.949	4103
490.024	4455
490.100	1666
490.176	1727
490.251	3177
490.327	5227
490.403	3296
490.478	2700
490.554	2007
490.629	1777
490.705	1261
490.781	2198
490.856	1657
490.932	2910
491.007	2942
491.083	1942
491.158	1268
491.234	2236
491.309	3125
491.385	2445
491.460	1099
491.536	3063
491.611	2016
491.686	3375
491.762	4489
491.837	11254
491.913	18262
491.988	26627
492.063	36905
492.139	7645
492.214	2502
492.289	2191
492.365	1239
492.440	2151
492.515	2838
492.590	959
492.666	1204
492.741	2183
492.816	2764
492.891	1120
492.967	2391
493.042	1239
493.117	975
493.192	1570
493.267	2279
493.342	3790
493.418	4606
493.493	1984
493.568	1375
493.643	1970
493.718	2063
493.793	2947
493.868	5119
493.943	3674
494.018	2364
494.093	1339
494.168	2965
494.243	1532
494.318	2793
494.393	1957
494.468	1623
494.543	2026
494.618	1590
494.693	1083
494.768	973
494.842	1125
494.917	1184
494.992	2141
495.067	1454
495.142	1343
495.217	1917
495.292	1636
495.366	2331
495.441	2394
495.516	4869
495.591	5717
495.665	24587
495.740	65724
495.815	29205
495.890	2754
495.964	30
496.039	3428
496.114	1403
496.188	1063
496.263	2111
496.338	1556
496.412	1269
496.487	2351
496.561	3149
496.636	2908
496.710	2229
496.785	2533
496.860	2364
496.934	1442
497.009	1812
497.083	1413
497.158	1169
497.232	1420
497.307	2909
497.381	1993
497.455	1666
497.530	2677
497.604	2242
497.679	2347
497.753	3127
497.827	3283
497.902	3591
497.976	4513
498.050	7666
498.125	27946
498.199	34103
498.273	10415
498.348	7924
498.422	5520
498.496	5136
498.570	4393
498.645	1435
498.719	611
498.793	2263
498.867	3354
498.941	4126
499.016	9412
499.090	28360
499.164	12424
499.238	2641
499.312	2041
499.386	2438
499.460	2669
499.534	1184
499.609	2892
499.683	2041
499.757	2433
499.831	4386
499.905	17217
499.979	19202
500.053	2903
500.127	4355
500.201	4381
500.275	2333
500.349	1649
500.422	2072
500.496	3401
500.570	10835
500.644	15141
500.718	19954
500.792	6520
500.866	1645
500.940	1829
501.013	2498
501.087	1808
501.161	4477
501.235	4680
501.309	6436
501.382	13991
501.456	16684
501.530	4528
501.603	3751
501.677	2561
501.751	842
501.825	2369
501.898	1720
501.972	5002
502.046	4623
502.119	1074
502.193	3268
502.266	6127
502.340	3979
502.413	2619
502.487	4502
502.561	2027
502.634	1684
502.708	2315
502.781	1896
502.855	1780
502.928	154
503.002	1236
503.075	58
503.149	416
503.222	1070
503.295	429
503.369	1052
503.442	1344
503.516	4679
503.589	9476
503.662	7320
503.736	2020
503.809	5928
503.882	4522
503.956	7919
504.029	10587
504.102	20807
504.175	30310
504.249	8521
504.322	3255
504.395	1949
504.468	1600
504.542	905
504.615	-374
504.688	1336
504.761	-308
504.834	2520
504.907	3133
504.980	5034
505.053	2188
505.127	1556
505.200	5510
505.273	940
505.346	285
505.419	34
505.492	1152
505.565	-111
505.638	929
505.711	-3
505.784	65
505.857	262
505.930	1600
506.003	-529
506.076	1915
506.149	206
506.221	-329
506.294	2174
506.367	495
506.440	7674
506.513	6035
506.586	1404
506.659	466
506.731	983
506.804	1300
506.877	1130
506.950	1037
507.022	504
507.095	-44
507.168	1728
507.241	2435
507.313	819
507.386	-78
507.459	2461
507.531	991
507.604	-168
507.677	2085
507.749	-884
507.822	1902
507.894	3577
507.967	4165
508.040	1489
508.112	1087
508.185	1711
508.257	120
508.330	3816
508.402	1036
508.475	870
508.547	836
508.620	400
508.692	1036
508.765	1823
508.837	659
508.909	575
508.982	534
509.054	1994
509.127	978
509.199	-212
509.271	336
509.344	381
509.416	-386
509.488	478
509.560	1597
509.633	381
509.705	864
509.777	1320
509.849	2701
509.922	165
509.994	415
510.066	1558
510.138	-290
510.210	4014
510.283	994
510.355	1925
510.427	1463
510.499	1363
510.571	1531
510.643	1013
510.715	4865
510.787	1936
510.859	2806
510.931	1093
511.003	3760
511.076	4212
511.148	296
511.219	-97
511.291	1212
511.363	1843
511.435	650
511.507	211
511.579	1443
511.651	1651
511.723	747
511.795	-67
511.867	1300
511.939	767
512.010	553
512.082	2431
512.154	436
512.226	538
512.298	2398
512.369	2975
512.441	2891
512.513	3176
512.585	874
512.656	2534
512.728	1571
512.800	767
512.871	2074
512.943	1227
513.015	-125
513.086	2183
513.158	1630
513.230	551
513.301	2844
513.373	5640
513.444	1443
513.516	1444
513.588	1292
513.659	1945
513.731	2895
513.802	1205
513.874	6395
513.945	13489
514.016	3447
514.088	1370
514.159	1285
514.231	3549
514.302	3767
514.374	2467
514.445	150
514.516	3086
514.588	1568
514.659	1137
514.730	821
514.802	2984
514.873	-83
514.944	4332
515.016	1874
515.087	1876
515.158	2340
515.229	2378
515.301	893
515.372	2759
515.443	602
515.514	1174
515.585	-6
515.656	1997
515.728	1632
515.799	328
515.870	1029
515.941	2622
516.012	713
516.083	2341
516.154	1547
516.225	5347
516.296	6289
516.367	4146
516.438	4902
516.509	6533
516.580	9296
516.651	31483
516.722	122666
516.793	64352
516.864	10277
516.935	8297
517.006	10092
517.077	13683
517.148	32509
517.219	122963
517.289	216116
517.360	37232
517.431	9834
517.502	2600
517.573	3465
517.643	2098
517.714	2449
517.785	3328
517.856	2514
517.926	5607
517.997	8393
518.068	9022
518.138	15072
518.209	18437
518.280	73881
518.350	310192
518.421	140572
518.492	14353
518.562	5542
518.633	5818
518.703	4564
518.774	11641
518.845	32163
518.915	37557
518.986	9213
519.056	6262
519.127	8989
519.197	12920
519.268	15229
519.338	9201
519.408	2922
519.479	5472
519.549	4331
519.620	3626
519.690	1459
519.760	1268
519.831	2131
519.901	1598
519.971	1475
520.042	1000
520.112	1312
520.182	2198
520.253	3695
520.323	827
520.393	681
520.463	3181
520.534	-1958
520.604	3845
520.674	1830
520.744	243
520.814	3029
520.885	4592
520.955	1586
521.025	8907
521.095	4866
521.165	2686
521.235	-171
521.305	-681
521.375	713
521.445	2231
521.515	1859
521.585	4915
521.655	2104
521.725	3081
521.795	2203
521.865	-1679
521.935	3065
522.005	550
522.075	423
522.145	1460
522.215	291
522.285	1265
522.355	1642
522.424	2726
522.494	2199
522.564	2742
522.634	6890
522.704	33200
522.774	13476
522.843	2529
522.913	1201
522.983	2124
523.053	1680
523.122	2414
523.192	2003
523.262	14972
523.331	17392
523.401	2803
523.471	708
523.540	1807
523.610	-314
523.680	1267
523.749	1037
523.819	1050
523.888	420
523.958	283
524.027	1070
524.097	738
524.166	1322
524.236	587
524.305	2378
524.375	-757
524.444	-1
524.514	2584
524.583	377
524.653	-219
524.722	369
524.791	-326
524.861	1818
524.930	-612
524.999	602
525.069	2733
525.138	557
525.207	785
525.277	1214
525.346	960
525.415	815
525.484	1260
525.554	814
525.623	1392
525.692	1371
525.761	2083
525.830	2710
525.900	3499
525.969	6112
526.038	10274
526.107	19480
526.176	71450
526.245	61309
526.314	18569
526.383	34993
526.452	49945
526.522	77436
526.591	89179
526.660	23411
526.729	11993
526.797	12717
526.867	21427
526.935	100342
527.004	193108
527.073	117492
527.142	9729
527.211	3731
527.280	2901
527.349	3810
527.418	142
527.487	1993
527.555	268
527.624	677
527.693	-268
527.762	993
527.831	47
527.899	959
527.968	1248
528.037	-327
528.106	1868
528.174	4208
528.243	2915
528.312	2676
528.380	6036
528.449	271
528.518	2561
528.586	-335
528.655	2207
528.723	-17
528.792	-451
528.861	-841
528.929	-1083
528.998	1210
529.066	278
529.135	1365
529.203	961
529.272	751
529.340	3050
529.409	3591
529.477	347
529.545	586
529.614	3885
529.682	620
529.751	2280
529.819	5282
529.887	2660
529.956	1602
530.024	3041
530.092	1097
530.161	3320
530.229	3926
530.297	2722
530.365	3934
530.434	2922
530.502	2161
530.570	2209
530.638	658
530.707	3273
530.775	4121
530.843	1639
530.911	1964
530.979	2460
531.047	2876
531.115	2898
531.183	3109
531.252	1904
531.320	1363
531.388	1792
531.456	2422
531.524	1087
531.592	3779
531.660	5058
531.728	2445
531.796	1305
531.864	2288
531.932	2880
532.000	1407
532.067	2691
532.135	3426
532.203	4782
532.271	3400
532.339	6373
532.407	15363
532.475	10903
532.542	5333
532.610	5902
532.678	5745
532.746	24688
532.814	69157
532.881	21487
532.949	5114
533.017	3918
533.084	2921
533.152	2340
533.220	2914
533.287	2100
533.355	3396
533.423	3085
533.490	1490
533.558	2885
533.625	1970
533.693	2365
533.761	2533
533.828	3701
533.896	1405
533.963	5919
534.031	7896
534.098	9231
534.166	4738
534.233	1543
534.300	2659
534.368	2916
534.435	1660
534.503	2713
534.570	3304
534.637	2708
534.705	3196
534.772	4941
534.840	5760
534.907	31203
534.974	45576
535.041	5997
535.109	2333
535.176	1507
535.243	2864
535.310	2555
535.378	1568
535.445	2872
535.512	1921
535.579	2832
535.646	1161
535.714	1263
535.781	2832
535.848	2726
535.915	1947
535.982	1338
536.049	1296
536.116	2548
536.183	1485
536.250	2085
536.317	656
536.384	3505
536.451	4739
536.518	4307
536.585	1558
536.652	4881
536.719	6491
536.786	3432
536.853	2981
536.920	5542
536.987	7586
537.053	7766
537.120	31591
537.187	33910
537.254	3230
537.321	2467
537.388	3102
537.454	780
537.521	1222
537.588	685
537.654	2823
537.721	1281
537.788	2822
537.855	1180
537.921	1560
537.988	1285
538.055	2895
538.121	1388
538.188	2434
538.254	2832
538.321	8672
538.388	6399
538.454	1398
538.521	2079
538.587	1537
538.654	568
538.720	1458
538.787	1870
538.853	1796
538.920	2164
538.986	1989
539.053	645
539.119	2121
539.185	1479
539.252	3325
539.318	4255
539.385	4169
539.451	2007
539.517	2257
539.583	3390
539.650	6595
539.716	24615
539.782	8062
539.849	971
539.915	1708
539.981	1049
540.047	2780
540.114	2516
540.180	3785
540.246	2273
540.312	3428
540.378	7906
540.444	10449
540.510	8893
540.576	27885
540.643	9636
540.709	1144
540.775	3076
540.841	1876
540.907	2070
540.973	2190
541.039	3547
541.105	5756
541.171	2168
541.237	960
541.303	2388
541.369	3891
541.435	3653
541.500	7965
541.566	4686
541.632	700
541.698	1181
541.764	2186
541.830	149
541.896	486
541.961	2051
542.027	545
542.093	2275
542.159	2417
542.224	1137
542.290	3978
542.356	6190
542.421	10576
542.487	4123
542.553	1664
542.618	1342
542.684	2283
542.750	1990
542.815	3681
542.881	4505
542.947	22791
543.012	20707
543.078	2639
543.143	808
543.209	2118
543.274	1569
543.340	3461
543.405	7929
543.471	15694
543.536	4473
543.602	2318
543.667	-70
543.732	2539
543.798	157
543.863	1149
543.928	1171
543.994	928
544.059	1678
544.124	1270
544.190	1434
544.255	1765
544.320	2588
544.386	1213
544.451	4246
544.516	4648
544.581	3617
544.646	12701
544.712	26264
544.777	5089
544.842	1417
544.907	1565
544.972	1450
545.037	2285
545.102	2112
545.168	1130
545.233	2643
545.298	3647
545.363	3222
545.428	3085
545.493	7423
545.558	19637
545.623	7866
545.688	2065
545.753	1772
545.818	2069
545.883	2343
545.947	1630
546.012	2336
546.077	1893
546.142	3610
546.207	2724
546.272	4436
546.337	4207
546.401	3723
546.466	3128
546.531	2019
546.596	3202
546.661	2996
546.725	4749
546.790	3108
546.855	4096
546.919	2892
546.984	3713
547.049	4803
547.113	6570
547.178	5443
547.243	6687
547.307	7436
547.372	9758
547.436	8589
547.501	9270
547.565	9892
547.630	11210
547.695	10227
547.759	9827
547.823	9693
547.888	9298
547.952	9218
548.017	9627
548.081	10718
548.146	9922
548.210	10698
548.274	10776
548.339	10275
548.403	10531
548.468	9119
548.532	8474
548.596	9080
548.660	9754
548.725	11128
548.789	10889
548.853	12222
548.917	10904
548.982	10310
549.046	9823
549.110	8567
549.174	8619
549.238	9527
549.303	9575
549.367	11773
549.431	10320
549.495	10174
549.559	11230
549.623	12097
549.687	13918
549.751	15265
549.815	14671
549.879	15919
549.943	13471
550.007	16557
550.071	15833
550.135	15482
550.199	14011
550.263	13640
550.327	13324
550.391	11269
550.455	14083
550.519	14643
550.582	16285
550.646	19730
550.710	21232
550.774	17620
550.838	17965
550.901	18453
550.965	19127
551.029	20159
551.093	22436
551.156	24653
551.220	28780
551.284	36813
551.347	26822
551.411	22582
551.475	20902
551.538	19081
551.602	18286
551.666	16725
551.729	14998
551.793	15422
551.856	14817
551.920	14627
551.983	15790
552.047	14273
552.110	14333
552.174	14933
552.237	15005
552.301	14075
552.364	13609
552.428	12310
552.491	13073
552.554	14838
552.618	14315
552.681	16009
552.745	14049
552.808	20046
552.871	25279
552.934	17523
552.998	13886
553.061	14099
553.124	13189
553.187	12924
553.251	13338
553.314	14025
553.377	13600
553.440	14068
553.503	15722
553.567	16633
553.630	14478
553.693	13830
553.756	14982
553.819	15129
553.882	13136
553.945	12979
554.008	13557
554.071	13062
554.134	13811
554.197	13579
554.260	13044
554.323	13792
554.386	13720
554.449	13948
554.512	14838
554.575	12762
554.638	13851
554.701	12886
554.764	12898
554.827	12278
554.889	11599
554.952	10505
555.015	10440
555.078	10374
555.141	11205
555.203	11265
555.266	11250
555.329	11609
555.391	11316
555.454	10508
555.517	10862
555.580	9406
555.642	9428
555.705	8459
555.768	9345
555.830	9082
555.893	8292
555.955	8544
556.018	8387
556.080	8666
556.143	8094
556.206	8495
556.268	8447
556.330	9285
556.393	8312
556.455	8257
556.518	8226
556.580	8663
556.643	7116
556.705	7554
556.767	6647
556.830	8046
556.892	7751
556.955	10594
557.017	9252
557.079	6625
557.142	7117
557.204	6968
557.266	13149
557.328	11857
557.391	5095
557.453	5924
557.515	6048
557.577	7116
557.639	7423
557.701	6735
557.764	6091
557.826	6578
557.888	7093
557.950	7929
558.012	8525
558.074	11364
558.136	24992
558.198	67322
558.260	26431
558.322	9715
558.384	9918
558.446	12232
558.508	13957
558.570	17910
558.632	26010
558.694	37946
558.756	39969
558.818	108447
558.880	298981
558.942	103139
559.003	74041
559.065	39549
559.127	15017
559.189	15217
559.251	16840
559.312	23652
559.374	52363
559.436	192911
559.498	106109
559.559	18633
559.621	15295
559.683	17637
559.744	26022
559.806	85177
559.868	144880
559.929	29842
559.991	16262
560.052	21991
560.114	66691
560.176	46213
560.237	35485
560.299	67406
560.360	14504
560.422	4744
560.483	3786
560.545	3628
560.606	3759
560.667	3299
560.729	2688
560.790	3043
560.852	3211
560.913	2816
560.974	3246
561.036	2818
561.097	2375
561.158	3244
561.220	2803
561.281	2966
561.342	3135
561.403	5581
561.465	5745
561.526	16099
561.587	22582
561.648	5525
561.709	3649
561.771	2143
561.832	2576
561.893	2620
561.954	2185
562.015	2599
562.076	2722
562.137	2164
562.198	1922
562.259	3244
562.320	2681
562.381	3295
562.442	5965
562.503	4366
562.564	2639
562.625	3143
562.686	2537
562.747	2446
562.808	2837
562.869	1612
562.930	2991
562.991	2520
563.051	2742
563.112	2383
563.173	2419
563.234	1531
563.294	2316
563.355	2447
563.416	2846
563.477	2467
563.537	2009
563.598	2470
563.659	3151
563.720	2593
563.780	1853
563.841	3051
563.901	2652
563.962	2400
564.023	2293
564.083	2317
564.144	1690
564.204	2439
564.265	1267
564.325	2187
564.386	3436
564.446	2832
564.507	2633
564.567	1983
564.628	2363
564.688	1942
564.749	1665
564.809	2257
564.869	2932
564.930	1218
564.990	2444
565.050	2272
565.111	1631
565.171	1354
565.231	2227
565.292	2815
565.352	1610
565.412	2937
565.472	2408
565.532	2944
565.593	2890
565.653	2405
565.713	2509
565.773	2611
565.833	4032
565.893	6335
565.953	3317
566.013	1785
566.074	3340
566.134	3142
566.194	3398
566.254	5023
566.314	3343
566.374	1996
566.434	2467
566.494	1746
566.554	2229
566.614	2874
566.673	1766
566.733	2664
566.793	2889
566.853	2930
566.913	2265
566.973	3221
567.033	3309
567.092	3239
567.152	3523
567.212	2998
567.272	2418
567.331	3359
567.391	2171
567.451	2859
567.511	4085
567.570	4057
567.630	3093
567.690	2276
567.749	3054
567.809	2979
567.868	4297
567.928	3451
567.988	4620
568.047	4871
568.107	4731
568.166	6472
568.226	8983
568.285	13382
568.345	10515
568.404	8384
568.464	6250
568.523	6095
568.582	6903
568.642	7334
568.701	9177
568.761	12937
568.820	21158
568.879	19750
568.939	12784
568.998	9517
569.057	6301
569.116	5716
569.176	5077
569.235	4251
569.294	3429
569.353	3218
569.413	3754
569.472	2426
569.531	3210
569.590	2589
569.649	2881
569.708	2935
569.767	3896
569.827	4520
569.886	4219
569.945	2924
570.004	3442
570.063	2922
570.122	4030
570.181	3327
570.240	2641
570.299	3217
570.358	5833
570.417	2930
570.475	2532
570.534	3796
570.593	3549
570.652	3761
570.711	3739
570.770	3055
570.829	3062
570.887	3817
570.946	5259
571.005	3019
571.064	3261
571.122	3917
571.181	2884
571.240	2686
571.299	2962
571.357	3061
571.416	2024
571.475	3079
571.533	3281
571.592	2693
571.650	3568
571.709	3135
571.768	3911
571.826	3197
571.885	2727
571.943	1845
572.002	1625
572.060	2854
572.119	3159
572.177	2396
572.236	3558
572.294	3171
572.352	3692
572.411	2072
572.469	2651
572.528	2905
572.586	3147
572.644	3421
572.703	6220
572.761	2967
572.819	2218
572.877	1929
572.936	1677
572.994	2524
573.052	3066
573.110	2507
573.169	3458
573.227	2660
573.285	2356
573.343	2549
573.401	1918
573.459	3027
573.517	1786
573.576	2256
573.634	3718
573.692	2784
573.750	2642
573.808	2189
573.866	2157
573.924	2474
573.982	2357
574.040	3092
574.098	2501
574.155	2973
574.213	2504
574.271	2582
574.329	2729
574.387	1834
574.445	1828
574.503	2166
574.560	1935
574.618	1819
574.676	2360
574.734	2275
574.792	3069
574.849	2308
574.907	1559
574.965	1482
575.022	1324
575.080	1705
575.138	2465
575.195	2628
575.253	2256
575.311	3549
575.368	2287
575.426	1552
575.483	2060
575.541	2957
575.598	2098
575.656	1896
575.713	2328
575.771	2741
575.828	2215
575.886	2253
575.943	3132
576.001	2656
576.058	1838
576.115	2660
576.173	2660
576.230	3167
576.287	4768
576.345	3396
576.402	2657
576.459	2856
576.517	2115
576.574	2638
576.631	1699
576.688	2298
576.746	1689
576.803	2042
576.860	1406
576.917	2268
576.974	2443
577.031	2291
577.089	2495
577.146	1979
577.203	2637
577.260	2879
577.317	2915
577.374	2144
577.431	2828
577.488	2201
577.545	1560
577.602	2756
577.659	1792
577.716	1818
577.773	2279
577.830	1641
577.886	2701
577.943	1853
578.000	2095
578.057	2009
578.114	3610
578.171	2799
578.227	2279
578.284	1869
578.341	1547
578.398	2976
578.454	2366
578.511	2946
578.568	2934
578.625	2621
578.681	2045
578.738	1766
578.794	2672
578.851	2368
578.908	2607
578.964	3254
579.021	2819
579.077	2305
579.134	3329
579.190	3240
579.247	2414
579.303	1742
579.360	2351
579.416	2338
579.473	2360
579.529	1773
579.586	2194
579.642	2605
579.698	2241
579.755	3185
579.811	2230
579.867	2611
579.924	2387
579.980	2692
580.036	2397
580.093	2357
580.149	2965
580.205	2324
580.261	2555
580.317	3308
580.374	2705
580.430	3933
580.486	3015
580.542	2493
580.598	3481
580.619	3500
580.654	3530
580.692	3006
580.710	2749
580.765	3096
580.767	3105
580.823	3338
580.838	3105
580.879	2492
580.911	3108
580.935	3557
580.984	3294
580.991	3256
581.047	4085
581.057	3984
581.103	3548
581.130	3407
581.159	3260
581.203	3360
581.215	3386
581.270	4155
581.276	4136
581.326	3872
581.349	3852
581.382	3857
581.422	3737
581.438	3656
581.494	4091
581.494	4086
581.550	3730
581.567	3979
581.606	4433
581.640	4518
581.661	4600
581.713	4870
581.717	4885
581.773	4184
581.786	3993
581.829	3401
581.859	3805
581.885	4112
581.932	4585
581.940	4682
581.996	4747
582.004	4807
582.052	5069
582.077	4891
582.107	4650
582.150	4619
582.163	4645
582.219	4510
582.223	4515
582.274	4492
582.296	4505
582.330	4532
582.368	4643
582.386	4698
582.441	5098
582.441	5095
582.497	5300
582.514	5359
582.552	5665
582.587	5233
582.608	4915
582.659	5245
582.663	5268
582.719	6334
582.732	6333
582.774	6450
582.805	6460
582.830	6389
582.877	6219
582.885	6207
582.941	6693
582.950	6792
582.996	7302
583.023	7401
583.052	7575
583.095	8185
583.107	8296
583.162	6722
583.168	6837
583.218	7446
583.240	7106
583.273	6963
583.313	6575
583.328	6417
583.384	7002
583.385	6994
583.439	6516
583.458	6651
583.494	6977
583.531	6664
583.549	6541
583.603	5539
583.605	5508
583.660	7035
583.676	6945
583.715	6723
583.748	6920
583.770	7103
583.820	7160
583.825	7140
583.881	6851
583.893	6864
583.936	6781
583.965	6551
583.991	6592
584.038	6951
584.046	7007
584.101	6861
584.110	6995
584.156	7549
584.183	7320
584.211	7074
584.255	7163
584.266	7230
584.321	7270
584.328	7339
584.376	7959
584.400	8044
584.431	8167
584.472	8320
584.486	8323
584.541	8865
584.545	8826
584.596	8244
584.617	8198
584.651	8416
584.689	9308
584.706	9576
584.761	9415
584.762	9403
584.816	9018
584.834	9502
584.871	10466
584.906	10266
584.926	10074
584.978	10050
584.980	10083
585.035	10873
585.051	11390
585.090	12473
585.123	12753
585.145	13048
585.195	13590
585.200	13698
585.254	15341
585.267	15920
585.309	17374
585.340	18136
585.364	18947
585.412	20936
585.419	21381
585.473	25483
585.484	26430
585.528	32562
585.556	37953
585.583	52621
585.628	86088
585.637	99785
585.692	204200
585.700	223675
585.747	280391
585.772	248031
585.801	158302
585.845	49274
585.856	39102
585.910	23816
585.917	22298
585.965	18870
585.989	17363
586.019	16471
586.061	15592
586.074	15388
586.128	15608
586.133	15544
586.183	15607
586.205	15714
586.237	15254
586.277	13967
586.292	13734
586.346	14065
586.349	14051
586.401	13744
586.421	13339
586.455	13133
586.493	13548
586.509	14157
586.564	14758
586.565	14796
586.618	18983
586.637	19916
586.672	18889
586.709	17205
586.727	17047
586.781	18279
586.781	18306
586.835	15581
586.853	14740
586.889	13968
586.925	13504
586.944	13442
586.996	13731
586.998	13772
587.052	13942
587.068	13952
587.106	14073
587.140	14142
587.161	14256
587.212	14762
587.215	14822
587.269	14803
587.284	14984
587.323	15343
587.356	15354
587.377	15538
587.427	16236
587.431	16338
587.485	16853
587.499	16896
587.539	16879
587.571	17177
587.593	17624
587.643	18507
587.648	18634
587.702	18813
587.715	19008
587.755	19882
587.786	20467
587.810	20785
587.858	21233
587.864	21431
587.917	23041
587.930	23213
587.971	23688
588.001	24765
588.025	25755
588.073	26896
588.079	27285
588.133	30460
588.145	31188
588.187	33939
588.217	35603
588.241	36999
588.288	40261
588.295	41104
588.348	48256
588.360	49722
588.402	55561
588.431	59388
588.456	63184
588.503	71623
588.510	73274
588.564	86678
588.575	89479
588.617	104073
588.646	114446
588.671	128743
588.718	158468
588.725	168005
588.778	246671
588.789	264745
588.832	430691
588.861	552469
588.886	717414
588.932	1043353
588.939	1057118
588.993	1087134
589.004	1080812
589.047	807026
589.075	604533
589.100	471600
589.147	249640
589.154	239524
589.207	174670
589.218	162488
589.261	152812
589.290	147613
589.314	155485
589.361	173536
589.368	184189
589.421	277347
589.433	298965
589.475	511360
589.504	670152
589.528	794166
589.576	1017400
589.582	991554
589.635	673476
589.647	598733
589.689	348052
589.718	185925
589.742	151712
589.790	92784
589.795	90459
589.849	70254
589.861	65701
589.902	58580
589.932	53472
589.955	49384
590.004	40625
590.009	40420
590.062	37410
590.075	36655
590.115	34757
590.146	33037
590.168	32267
590.218	30684
590.222	30692
590.275	29436
590.289	29086
590.328	29136
590.360	28868
590.381	28453
590.431	27344
590.435	27392
590.488	26807
590.503	26623
590.541	26666
590.574	26479
590.594	26441
590.645	26098
590.647	26146
590.700	25185
590.716	24844
590.753	25302
590.787	25657
590.806	25862
590.859	26074
590.859	26155
590.912	25928
590.930	25797
590.965	25821
591.001	25691
591.018	25792
591.071	25981
591.072	25898
591.124	25308
591.143	25018
591.177	25540
591.214	25945
591.230	26354
591.283	27590
591.285	27539
591.336	28605
591.356	28974
591.389	28978
591.427	28617
591.442	28210
591.495	26445
591.498	26223
591.547	25234
591.569	24668
591.600	25103
591.640	25533
591.653	25649
591.706	25707
591.711	25634
591.759	26303
591.782	26476
591.811	27369
591.853	28484
591.864	28340
591.917	27123
591.924	26832
591.969	27246
591.995	27429
592.022	27607
592.066	27557
592.075	27738
592.127	28297
592.137	28302
592.180	29888
592.208	30729
592.233	30217
592.279	28976
592.285	29123
592.338	29503
592.350	29486
592.390	28995
592.421	28453
592.443	28796
592.491	29232
592.495	29377
592.548	29975
592.562	30040
592.600	29467
592.633	28781
592.653	28821
592.704	28522
592.705	28718
592.775	30300
592.846	30926
592.916	33609
592.987	35143
593.058	32595
593.128	29363
593.199	30751
593.270	30583
593.341	31065
593.411	32812
593.482	33744
593.553	32230
593.623	32978
593.694	34009
593.764	33391
593.835	33412
593.906	32713
593.976	33826
594.047	35329
594.117	36837
594.188	37228
594.258	35046
594.329	35009
594.399	36413
594.470	37434
594.540	36885
594.611	38673
594.681	37722
594.751	38682
594.822	39826
594.892	42576
594.963	41121
595.033	43045
595.103	43425
595.174	44368
595.244	48971
595.314	52139
595.384	45980
595.455	46836
595.525	48119
595.595	49905
595.665	50804
595.736	48582
595.806	49699
595.876	49590
595.946	49877
596.016	52948
596.087	54166
596.157	54222
596.227	53952
596.297	57305
596.367	60831
596.437	63624
596.507	65027
596.577	66547
596.647	65247
596.717	67659
596.787	67868
596.857	68754
596.927	68396
596.997	69471
597.067	70630
597.137	72167
597.207	72488
597.277	72957
597.347	70388
597.417	69300
597.487	70301
597.557	72599
597.626	74798
597.696	76191
597.766	75704
597.836	75015
597.906	67221
597.975	66382
598.045	67306
598.115	70742
598.185	74985
598.254	84686
598.324	91329
598.394	92431
598.464	92053
598.533	88043
598.603	82134
598.672	82635
598.742	83885
598.812	83429
598.881	85395
598.951	85974
599.020	87558
599.090	90527
599.159	91342
599.229	89032
599.299	87405
599.368	90753
599.437	89534
599.507	83596
599.576	82575
599.646	82361
599.715	83351
599.785	81838
599.854	81127
599.924	81860
599.993	81835
600.062	83900
600.132	84485
600.201	91758
600.270	103958
600.340	108819
600.409	106248
600.478	105365
600.547	108311
600.617	101970
600.686	89156
600.755	86744
600.824	87168
600.894	84079
600.963	84422
601.032	84739
601.101	83726
601.170	83905
601.239	83991
601.308	88021
601.378	87344
601.447	88369
601.516	89859
601.585	92731
601.654	97843
601.723	97123
601.792	97722
601.861	102768
601.930	109498
601.999	114585
602.068	110474
602.137	114544
602.206	114683
602.275	113909
602.343	120572
602.412	121081
602.481	115394
602.550	115989
602.619	118697
602.688	118261
602.756	120010
602.825	119015
602.894	122795
602.963	121204
603.032	124566
603.100	125139
603.169	122170
603.238	126856
603.307	120411
603.375	123577
603.444	130719
603.513	120035
603.581	127102
603.650	132620
603.719	111980
603.787	110165
603.856	112374
603.924	117934
603.993	118677
604.061	121247
604.130	128540
604.198	129435
604.267	131409
604.335	133670
604.404	134952
604.472	138152
604.541	138419
604.609	144258
604.678	146170
604.746	149426
604.815	157244
604.883	152279
604.951	148265
605.020	152652
605.088	144321
605.156	138471
605.225	139851
605.293	139205
605.361	141926
605.429	138574
605.498	146474
605.566	145091
605.634	153136
605.702	151366
605.771	156648
605.839	158204
605.907	148309
605.975	151301
606.043	144253
606.111	141810
606.180	153236
606.248	140187
606.316	138636
606.384	150497
606.452	130869
606.520	128274
606.588	119772
606.656	116942
606.724	114657
606.792	108010
606.860	97773
606.928	89797
606.996	86113
607.064	84141
607.132	87676
607.200	92584
607.267	95793
607.335	98076
607.403	100327
607.471	95957
607.539	93301
607.607	93827
607.674	82905
607.742	84050
607.810	85232
607.878	83605
607.946	84254
608.013	86896
608.081	89511
608.149	89471
608.216	92881
608.284	94222
608.352	94307
608.419	93344
608.487	93745
608.555	89898
608.622	92227
608.690	96489
608.757	106512
608.825	109824
608.893	106583
608.960	104002
609.028	99505
609.095	98546
609.163	94156
609.230	84343
609.298	77845
609.365	82068
609.432	88204
609.500	95732
609.567	111782
609.635	128933
609.702	134119
609.769	128887
609.837	98080
609.904	83553
609.971	87673
610.039	98805
610.106	135115
610.173	273106
610.241	641790
610.308	320603
610.375	116486
610.442	93998
610.509	86043
610.577	86797
610.644	87790
610.711	93816
610.778	95049
610.845	98432
610.912	105431
610.980	108917
611.047	108820
611.114	107461
611.181	103537
611.248	102527
611.315	109175
611.382	110946
611.449	114788
611.516	117755
611.583	114138
611.650	116253
611.717	118479
611.784	121832
611.851	125756
611.918	136734
611.984	162970
612.051	241801
612.118	511054
612.185	1282113
612.252	705778
612.319	186306
612.386	155847
612.452	140516
612.519	135504
612.586	134264
612.653	134406
612.719	139693
612.786	131790
612.853	121671
612.919	118005
612.986	121486
613.053	112676
613.120	105967
613.186	102376
613.253	105054
613.319	102275
613.386	106333
613.453	108052
613.519	112713
613.586	119972
613.652	140915
613.719	125757
613.785	119782
613.852	107778
613.918	106388
613.985	107704
614.051	113357
614.118	113086
614.184	108623
614.250	107498
614.317	109525
614.383	108816
614.449	109590
614.516	108405
614.582	108894
614.648	107378
614.715	106870
614.781	103966
614.847	104469
614.914	104244
614.980	101258
615.046	100295
615.112	102905
615.179	104558
615.245	106018
615.311	104613
615.377	110497
615.443	111348
615.509	109423
615.575	111600
615.642	110351
615.708	115169
615.774	121193
615.840	127147
615.906	139674
615.972	176550
616.038	283780
616.104	626874
616.170	1501729
616.236	1137588
616.302	264659
616.368	200802
616.434	143578
616.500	134338
616.565	151809
616.631	189994
616.697	150199
616.763	158074
616.829	250211
616.895	452048
616.961	396784
617.026	161405
617.092	116351
617.158	110646
617.224	109263
617.289	101848
617.355	95229
617.421	92795
617.487	96433
617.552	88056
617.618	88209
617.684	88020
617.749	89749
617.815	84635
617.880	83088
617.946	84439
618.012	87529
618.077	87162
618.143	82887
618.208	84681
618.274	90577
618.339	91377
618.405	74052
618.470	74862
618.536	75645
618.601	73544
618.667	68782
618.732	65639
618.798	65247
618.863	63674
618.928	64063
618.994	67241
619.059	72538
619.124	88015
619.190	71769
619.255	63214
619.320	63258
619.386	63232
619.451	62696
619.516	61788
619.581	62624
619.647	63116
619.712	62923
619.777	61244
619.842	62545
619.907	64585
619.972	65256
620.038	64490
620.103	62498
620.168	59962
620.233	62459
620.298	63442
620.363	63830
620.428	65214
620.493	68080
620.558	67046
620.623	70324
620.688	67552
620.753	68395
620.818	69909
620.883	69848
620.948	69552
621.013	69270
621.078	68142
621.143	66517
621.207	71202
621.272	69087
621.337	68318
621.402	65236
621.467	68107
621.532	68719
621.596	67014
621.661	63511
621.726	61548
621.791	65024
621.855	68063
621.920	67898
621.985	64772
622.049	67866
622.114	67518
622.179	67885
622.243	68227
622.308	71408
622.373	74419
622.437	73177
622.502	68358
622.566	68805
622.631	67846
622.695	70843
622.760	68595
622.824	69652
622.889	71418
622.953	75669
623.018	100018
623.082	94536
623.147	75517
623.211	73526
623.276	73664
623.340	68318
623.404	66754
623.469	67365
623.533	66178
623.597	65633
623.662	65023
623.726	59892
623.790	57140
623.854	55576
623.919	58012
623.983	58188
624.047	57673
624.111	59479
624.176	60142
624.240	64086
624.304	66423
624.368	60466
624.432	60338
624.496	62890
624.560	70572
624.625	73540
624.689	65622
624.753	70153
624.817	64016
624.881	62599
624.945	56540
625.009	56975
625.073	57288
625.137	62414
625.201	74185
625.265	71441
625.329	59990
625.393	62442
625.456	59859
625.520	61897
625.584	63652
625.648	68603
625.712	72846
625.776	88684
625.839	87364
625.903	57891
625.967	49678
626.031	60124
626.095	74456
626.158	57823
626.222	44836
626.286	43357
626.349	40221
626.413	38459
626.477	42067
626.540	40324
626.604	38778
626.668	38361
626.731	37306
626.795	38463
626.858	37454
626.922	35677
626.986	36376
627.049	34764
627.113	38099
627.176	37970
627.240	35863
627.303	35667
627.366	34566
627.430	37240
627.493	35731
627.557	34165
627.620	36896
627.684	35783
627.747	36980
627.810	33579
627.874	31132
627.937	29865
628.000	34325
628.064	32316
628.127	26910
628.190	28075
628.253	27211
628.317	25509
628.380	24971
628.443	24560
628.506	25342
628.569	23662
628.632	21505
628.696	22780
628.759	21742
628.822	21093
628.885	19804
628.948	21357
629.011	20694
629.074	20654
629.137	20183
629.200	19341
629.263	21283
629.326	17943
629.389	18438
629.452	18502
629.515	18575
629.578	18886
629.641	20289
629.704	19155
629.767	20008
629.830	19485
629.892	17569
629.955	17699
630.018	20837
630.081	23124
630.144	29024
630.207	20662
630.269	20942
630.332	18853
630.395	18707
630.458	17226
630.520	16304
630.583	17407
630.646	16843
630.708	17314
630.771	15983
630.834	18245
630.896	17124
630.959	17504
631.021	16557
631.084	17330
631.146	17712
631.209	18482
631.272	16474
631.334	18583
631.397	17658
631.459	18461
631.522	20821
631.584	21405
631.646	21758
631.709	24329
631.771	29875
631.834	23062
631.896	20321
631.958	17792
632.021	18639
632.083	17444
632.145	17536
632.208	18000
632.270	18228
632.332	16073
632.395	15088
632.457	16940
632.519	15112
632.581	17063
632.643	15744
632.706	16733
632.768	15128
632.830	16675
632.892	16476
632.954	16567
633.016	16759
633.078	16678
633.141	16416
633.203	16468
633.265	16280
633.327	16673
633.389	16221
633.451	19831
633.513	22712
633.575	19879
633.637	21542
633.698	20209
633.760	17844
633.822	19030
633.884	18971
633.946	19445
634.008	19300
634.070	19713
634.132	20163
634.193	21791
634.255	24975
634.317	26635
634.379	25136
634.441	21278
634.502	19729
634.564	18537
634.626	17362
634.687	16671
634.749	15673
634.811	15611
634.873	15299
634.934	15588
634.996	16251
635.057	14965
635.119	15771
635.181	17056
635.242	16976
635.304	14867
635.365	18110
635.427	16618
635.488	17676
635.550	15273
635.611	15986
635.673	14256
635.734	18809
635.796	18267
635.857	21638
635.918	20947
635.980	24262
636.041	25816
636.102	26478
636.164	28291
636.225	26768
636.286	21331
636.348	19440
636.409	17264
636.470	15569
636.531	16271
636.593	15365
636.654	14770
636.715	14412
636.776	13846
636.838	12753
636.899	13899
636.960	12406
637.021	13638
637.082	12298
637.143	13329
637.204	11098
637.265	12360
637.326	12545
637.387	12940
637.448	11509
637.509	13593
637.570	12516
637.631	13379
637.692	10795
637.753	11860
637.814	12482
637.875	12175
637.936	11735
637.997	11317
638.058	11461
638.119	11737
638.179	10669
638.240	11177
638.301	11180
638.362	10661
638.423	11287
638.483	12385
638.544	9848
638.605	11478
638.666	9946
638.726	11576
638.787	10627
638.848	10416
638.908	9696
638.969	10256
639.030	9934
639.090	10624
639.151	10437
639.211	13500
639.272	18359
639.332	29395
639.393	16078
639.453	11354
639.514	13180
639.574	11176
639.635	9885
639.695	11400
639.756	10006
639.816	13017
639.877	14797
639.937	27871
639.997	33283
640.058	11890
640.118	9905
640.178	10022
640.239	9290
640.299	9233
640.359	8516
640.420	10346
640.480	11891
640.540	13700
640.600	13175
640.661	12250
640.721	12624
640.781	15915
640.841	9109
640.901	10672
640.961	10877
641.021	13060
641.082	15926
641.142	21160
641.202	13421
641.262	8437
641.322	9668
641.382	7897
641.442	8868
641.502	9133
641.562	8710
641.622	7908
641.682	10504
641.742	12334
641.802	10032
641.861	10954
641.921	10827
641.981	12771
642.041	11156
642.101	16904
642.161	9981
642.221	8758
642.280	7088
642.340	8295
642.400	7784
642.460	9467
642.519	8059
642.579	8717
642.639	10134
642.698	6962
642.758	10701
642.818	8971
642.877	8843
642.937	11114
642.997	12335
643.056	20076
643.116	9354
643.175	10172
643.235	8903
643.294	9385
643.354	10432
643.414	12025
643.473	14254
643.532	17714
643.592	24318
643.651	42284
643.711	80274
643.770	170811
643.830	440184
643.889	877257
643.948	169291
644.008	29943
644.067	18412
644.126	14631
644.186	12039
644.245	11011
644.304	8410
644.363	11109
644.423	7510
644.482	9461
644.541	9301
644.600	9031
644.659	12314
644.719	15954
644.778	26573
644.837	48984
644.896	108937
644.955	252188
645.014	66052
645.073	14491
645.132	10958
645.191	11331
645.250	9140
645.309	10857
645.368	10261
645.427	16282
645.486	26892
645.545	47723
645.604	12743
645.663	9448
645.722	8401
645.781	10589
645.840	12022
645.898	15303
645.957	23869
646.016	38547
646.075	77864
646.134	159178
646.192	467267
646.251	620665
646.310	73824
646.369	22444
646.427	18426
646.486	12067
646.545	10293
646.603	9491
646.662	8600
646.721	8568
646.779	7927
646.838	8558
646.896	12279
646.955	16946
647.014	29020
647.072	57582
647.131	161176
647.189	63150
647.248	9690
647.306	8811
647.365	7683
647.423	5521
647.481	7460
647.540	5393
647.598	6326
647.657	5675
647.715	6667
647.773	4927
647.832	6181
647.890	3851
647.948	5425
648.007	6457
648.065	4602
648.123	5660
648.181	6611
648.240	4779
648.298	4260
648.356	4907
648.414	4264
648.472	5526
648.531	5084
648.589	5467
648.647	4495
648.705	4317
648.763	4495
648.821	4922
648.879	4235
648.937	6397
648.995	8332
649.053	11015
649.111	18970
649.169	33916
649.227	64224
649.285	146616
649.343	427959
649.401	168579
649.459	48480
649.516	25577
649.574	9720
649.632	11330
649.690	10373
649.748	13872
649.806	17171
649.863	37293
649.921	113573
649.979	62685
650.037	8426
650.094	4537
650.152	6096
650.210	4296
650.268	4962
650.325	4746
650.383	4155
650.440	3658
650.498	3153
650.556	3964
650.613	3669
650.671	4211
650.728	3964
650.786	4466
650.843	6011
650.901	2436
650.958	3428
651.016	3212
651.073	3619
651.131	3218
651.188	2249
651.246	3696
651.303	2659
651.360	3234
651.418	2267
651.475	3552
651.532	2449
651.590	3736
651.647	2057
651.704	3558
651.762	3113
651.819	3031
651.876	2621
651.933	3168
651.990	3352
652.048	1861
652.105	2464
652.162	3358
652.219	2278
652.276	3113
652.333	2753
652.390	1674
652.448	2561
652.505	3137
652.562	1935
652.619	2931
652.676	2401
652.733	4367
652.790	2941
652.847	1745
652.904	3139
652.961	1815
653.017	1315
653.074	3302
653.131	3455
653.188	2205
653.245	2995
653.302	3044
653.359	1986
653.415	3032
653.472	1949
653.529	3049
653.586	1809
653.642	2438
653.699	2752
653.756	2704
653.813	1873
653.869	3352
653.926	2218
653.983	1616
654.039	1686
654.096	2024
654.152	2922
654.209	1448
654.266	1948
654.322	2015
654.379	2516
654.435	3192
654.492	3191
654.548	5827
654.605	8981
654.661	4651
654.717	2505
654.774	2527
654.830	2167
654.887	1823
654.943	1663
655.000	2345
655.056	1721
655.112	2262
655.168	1528
655.225	1935
655.281	2912
655.337	3250
655.394	3332
655.450	3098
655.506	3132
655.562	4275
655.618	4004
655.675	1396
655.731	2392
655.787	1293
655.843	2727
655.899	1774
655.955	2084
656.011	2630
656.067	1190
656.123	2446
656.179	1898
656.235	3466
656.291	620
656.347	2845
656.403	1437
656.459	2842
656.515	1732
656.571	2774
656.627	1905
656.683	2692
656.739	2284
656.795	2427
656.850	3262
656.906	4854
656.962	3007
657.018	1675
657.074	2457
657.129	3668
657.185	6385
657.241	13639
657.297	6536
657.352	2700
657.408	1350
657.464	3898
657.519	2344
657.575	1461
657.630	2201
657.686	1892
657.742	1115
657.797	2469
657.853	1593
657.908	3060
657.964	626
658.019	1888
658.075	1412
658.130	2226
658.186	1408
658.241	2705
658.297	-395
658.352	1311
658.407	1958
658.463	2074
658.518	2136
658.573	2429
658.629	1491
658.684	2072
658.739	1658
658.795	2115
658.850	1763
658.905	1296
658.960	1476
659.016	952
659.071	1821
659.126	3095
659.181	2801
659.236	8897
659.291	7994
659.346	3400
659.401	2062
659.457	2035
659.512	1329
659.567	2601
659.622	1595
659.677	1663
659.732	481
659.787	1275
659.842	1275
659.897	2422
659.952	1871
660.007	1796
660.061	1201
660.116	378
660.171	421
660.226	1293
660.281	1967
660.336	1181
660.391	1561
660.445	1210
660.500	1519
660.555	1263
660.610	787
660.664	2339
660.719	1911
660.774	1979
660.828	1786
660.883	2448
660.938	1702
660.992	388
661.047	1654
661.101	869
661.156	1862
661.211	727
661.265	1575
661.320	867
661.374	1551
661.429	476
661.483	1083
661.538	788
661.592	560
661.647	1465
661.701	1642
661.755	1698
661.810	1807
661.864	1218
661.919	502
661.973	1570
662.027	737
662.081	1081
662.136	805
662.190	1554
662.244	794
662.299	799
662.353	1838
662.407	1271
662.461	1264
662.515	1511
662.569	1074
662.624	1585
662.678	518
662.732	1327
662.786	1232
662.840	704
662.894	720
662.948	1458
663.002	1060
663.056	2136
663.110	242
663.164	1597
663.218	1361
663.272	1961
663.326	2055
663.380	1243
663.434	947
663.488	732
663.542	782
663.595	1715
663.649	1471
663.703	1589
663.757	833
663.811	159
663.864	389
663.918	1283
663.972	1223
664.026	374
664.079	975
664.133	1330
664.187	1188
664.240	1156
664.294	1030
664.348	1471
664.401	1303
664.455	345
664.508	1050
664.562	636
664.615	1310
664.669	1529
664.722	879
664.776	584
664.829	1007
664.883	647
664.936	976
664.990	1580
665.043	2142
665.097	1822
665.150	1866
665.203	1683
665.257	972
665.310	1293
665.363	1142
665.417	1351
665.470	1518
665.523	1913
665.576	1287
665.630	1047
665.683	1913
665.736	2121
665.789	1407
665.842	2167
665.895	1287
665.949	1440
666.002	1080
666.055	1972
666.108	1456
666.161	1759
666.214	2385
666.267	2618
666.320	3756
666.373	1349
666.426	1536
666.479	1187
666.532	1165
666.585	1917
666.638	1851
666.691	1853
666.744	2040
666.796	1855
666.849	1044
666.902	1334
666.955	604
667.008	1656
667.060	1002
667.113	1427
667.166	637
667.219	1215
667.271	264
667.324	1445
667.377	1979
667.430	1160
667.482	1133
667.535	2386
667.587	2254
667.640	3371
667.693	3546
667.745	8171
667.798	8248
667.850	1480
667.903	1883
667.955	1568
668.008	919
668.060	1780
668.113	1501
668.165	1882
668.218	1274
668.270	1655
668.322	1343
668.375	1399
668.427	657
668.479	360
668.532	780
668.584	1544
668.636	1172
668.689	1417
668.741	298
668.793	1432
668.845	1174
668.898	1373
668.950	941
669.002	1952
669.054	1138
669.106	594
669.158	2017
669.211	1877
669.263	639
669.315	1547
669.367	1584
669.419	1080
669.471	2301
669.523	1941
669.575	2860
669.627	1945
669.679	1411
669.731	1405
669.783	1584
669.835	2217
669.886	978
669.938	1820
669.990	833
670.042	149
670.094	1645
670.146	1348
670.197	1401
670.249	2263
670.301	2529
670.353	3853
670.404	5323
670.456	6390
670.508	12677
670.560	21313
670.611	40080
670.663	73187
670.715	191626
670.766	266128
670.818	50470
670.869	8975
670.921	5271
670.972	4406
671.024	2623
671.075	1994
671.127	2388
671.178	1955
671.230	1871
671.281	2377
671.333	2040
671.384	2482
671.436	3107
671.487	4422
671.538	6174
671.590	11245
671.641	18572
671.692	37340
671.744	72212
671.795	35792
671.846	8631
671.897	4886
671.949	2539
672.000	2209
672.051	2019
672.102	2718
672.153	1378
672.204	549
672.256	1428
672.307	1606
672.358	1251
672.409	1203
672.460	1189
672.511	761
672.562	576
672.613	1438
672.664	126
672.715	1490
672.766	662
672.817	1340
672.868	249
672.919	1734
672.970	629
673.021	710
673.071	-101
673.122	710
673.173	151
673.224	87
673.275	57
673.326	898
673.376	506
673.427	950
673.478	492
673.528	1453
673.579	379
673.630	754
673.680	1409
673.731	395
673.782	35
673.832	414
673.883	376
673.934	314
673.984	995
674.035	142
674.085	1257
674.136	957
674.186	1103
674.237	1225
674.287	769
674.338	1452
674.388	541
674.438	1107
674.489	523
674.539	1185
674.589	280
674.640	1381
674.690	1291
674.740	332
674.791	556
674.841	1636
674.891	767
674.942	645
674.992	41
675.042	509
675.092	-47
675.142	338
675.193	-21
675.243	366
675.293	387
675.343	16
675.393	-280
675.443	895
675.493	1060
675.543	304
675.593	-55
675.643	560
675.693	467
675.743	830
675.793	290
675.843	316
675.893	541
675.943	287
675.993	-449
676.043	541
676.093	-275
676.142	544
676.192	172
676.242	675
676.292	146
676.341	133
676.391	613
676.441	27
676.491	-114
676.540	52
676.590	308
676.640	90
676.689	-384
676.739	-44
676.789	-155
676.838	83
676.888	412
676.937	195
676.987	-487
677.037	-621
677.086	-547
677.136	140
677.185	-16
677.235	-231
677.284	491
677.333	-364
677.383	-374
677.432	-425
677.482	14
677.531	661
677.580	-845
677.630	71
677.679	-241
677.728	-550
677.778	58
677.827	106
677.876	-281
677.925	195
677.975	104
678.024	152
678.073	-624
678.122	435
678.171	234
678.220	137
678.269	207
678.319	442
678.368	-47
678.417	272
678.466	581
678.515	44
678.564	100
678.613	695
678.662	-522
678.711	-405
678.760	58
678.809	-155
678.857	-765
678.906	505
678.955	-435
679.004	45
679.053	-254
679.102	315
679.151	235
679.199	-603
679.248	-198
679.297	-113
679.346	-344
679.394	-76
679.443	304
679.492	361
679.540	125
679.589	-27
679.638	-534
679.686	-396
679.735	-656
679.784	-699
679.832	33
679.881	-583
679.929	-452
679.978	-45
680.026	-550
680.075	692
680.123	-1035
680.172	-408
680.220	-542
680.268	-203
680.317	-859
680.365	312
680.414	-543
680.462	620
680.510	-175
680.559	3
680.607	-399
680.655	21
680.703	-631
680.752	55
680.800	-747
680.848	41
680.896	-599
680.945	321
680.993	-19
681.041	178
681.089	-839
681.137	-304
681.185	-470
681.233	-210
681.258	-132
681.281	-78
681.329	88
681.377	-107
681.380	-97
681.425	-244
681.473	-364
681.502	-383
681.521	-437
681.569	-495
681.617	-374
681.624	-356
681.665	-378
681.713	742
681.745	935
681.761	998
681.809	525
681.857	166
681.867	260
681.904	523
681.952	3
681.989	838
682.000	1072
682.048	-2
682.096	-295
682.111	-42
682.143	409
682.191	239
682.233	1058
682.239	1161
682.286	45
682.334	208
682.354	62
682.382	-155
682.430	438
682.476	274
682.477	254
682.525	195
682.572	-68
682.598	7
682.620	31
682.667	380
682.715	806
682.720	847
682.763	1171
682.810	585
682.841	1180
682.857	1423
682.905	995
682.952	873
682.963	832
683.000	614
683.047	853
683.085	1453
683.095	1617
683.142	949
683.190	1059
683.206	1052
683.237	978
683.284	1478
683.328	1264
683.332	1225
683.379	840
683.426	1115
683.449	981
683.473	872
683.521	1199
683.568	1319
683.571	1314
683.615	1075
683.662	1548
683.693	1766
683.709	1837
683.757	1806
683.804	1892
683.814	1805
683.851	1474
683.898	2034
683.936	1655
683.945	1562
683.992	2014
684.039	1802
684.057	2296
684.086	2972
684.133	2007
684.179	3007
684.180	3027
684.227	2261
684.274	3294
684.300	3249
684.321	3153
684.368	2666
684.415	2545
684.422	2530
684.462	2251
684.509	1914
684.543	2231
684.556	2386
684.603	1621
684.649	1672
684.665	1910
684.696	2382
684.743	2773
684.786	2261
684.790	2213
684.837	1997
684.883	2057
684.908	2453
684.930	2711
684.977	2271
685.023	2439
685.029	2416
685.070	2362
685.117	2507
685.150	2373
685.164	2292
685.210	3279
685.257	2892
685.272	3199
685.303	3892
685.350	3050
685.393	3251
685.396	3274
685.443	3824
685.490	5025
685.514	4783
685.536	4231
685.583	4012
685.629	3563
685.636	3481
685.675	3145
685.722	2846
685.757	3449
685.768	3645
685.815	3801
685.861	3690
685.878	3608
685.908	3457
685.954	3035
686.000	2995
686.000	2995
686.047	3422
686.093	3649
686.121	4036
686.139	4137
686.185	3974
686.232	3798
686.242	3766
686.278	3531
686.324	4072
686.363	3465
686.370	3389
686.416	3827
686.463	3325
686.484	3433
686.509	3507
686.555	3353
686.601	3538
686.606	3509
686.647	3339
686.693	3958
686.727	3671
686.739	3531
686.785	3921
686.831	3733
686.848	3780
686.877	3953
686.923	3233
686.969	3738
686.969	3740
687.015	3545
687.061	4106
687.090	4209
687.107	4139
687.153	3936
687.199	4045
687.211	4045
687.245	4283
687.291	3815
687.332	3989
687.336	4007
687.382	4480
687.428	4513
687.453	4502
687.474	4394
687.520	4543
687.565	4540
687.574	4425
687.611	4067
687.657	4017
687.695	4251
687.702	4321
687.748	4485
687.794	4797
687.816	4565
687.839	4136
687.885	4508
687.931	3896
687.937	3952
687.976	4611
688.022	4585
688.058	4624
688.067	4621
688.113	4499
688.158	4766
688.179	4751
688.204	4652
688.249	4715
688.295	5002
688.300	4980
688.340	4950
688.386	4996
688.421	4906
688.431	4919
688.477	4964
688.522	5345
688.542	5348
688.567	5259
688.613	5225
688.658	4980
688.663	4979
688.703	4987
688.749	5191
688.784	5265
688.794	5300
688.839	5013
688.884	5561
688.905	5238
688.930	4863
688.975	5949
689.020	4919
689.026	5006
689.065	5671
689.110	5663
689.146	5407
689.155	5322
689.201	5447
689.246	5049
689.267	5055
689.291	5223
689.336	5492
689.381	5605
689.388	5581
689.426	5391
689.471	5426
689.509	5356
689.516	5334
689.561	5547
689.606	5510
689.630	5376
689.651	5372
689.696	4958
689.741	5506
689.750	5501
689.785	5408
689.830	5462
689.871	5776
689.875	5789
689.920	5110
689.965	4790
689.992	4680
690.010	4885
690.054	5261
690.099	5158
690.112	5389
690.144	5768
690.189	5715
690.233	5765
690.233	5775
690.278	5800
690.323	5741
690.354	5776
690.367	5791
690.412	6042
690.457	5917
690.474	5933
690.501	5899
690.546	5438
690.590	5626
690.595	5539
690.635	5187
690.680	5503
690.716	5467
690.724	5449
690.769	6253
690.813	6206
690.836	6202
690.857	6241
690.902	5901
690.946	6511
690.957	6479
690.991	6823
691.035	7644
691.077	8011
691.080	7999
691.124	7951
691.168	7538
691.198	7212
691.213	7135
691.257	7317
691.301	7035
691.318	6847
691.346	6554
691.390	6662
691.434	6316
691.439	6318
691.478	6719
691.522	6949
691.559	6955
691.567	7035
691.611	7807
691.655	7952
691.680	8352
691.699	8233
691.743	7629
691.787	6755
691.800	6611
691.831	6792
691.875	6944
691.919	7288
691.921	7264
691.964	6891
692.008	7152
692.041	7012
692.052	7003
692.096	6944
692.139	7223
692.162	7259
692.183	7262
692.227	7094
692.271	7277
692.282	7206
692.315	7022
692.359	7288
692.402	7071
692.403	7087
692.447	7220
692.490	7461
692.523	7524
692.534	7503
692.578	7205
692.622	7256
692.643	7143
692.666	7112
692.709	7050
692.753	6934
692.763	7051
692.797	7478
692.840	7053
692.884	7224
692.884	7244
692.928	7108
692.971	7352
693.004	7326
693.015	7310
693.059	7217
693.102	7214
693.124	7301
693.146	7400
693.189	7457
693.233	7114
693.245	7142
693.276	7616
693.320	7776
693.363	8045
693.365	8042
693.407	8111
693.450	8053
693.485	8103
693.493	8146
693.537	7960
693.580	7991
693.605	7943
693.624	8012
693.667	8246
693.710	8356
693.725	8420
693.753	9431
693.797	10697
693.840	12254
693.845	12388
693.883	11597
693.926	10674
693.966	10094
693.970	10075
694.013	9393
694.056	8693
694.086	8143
694.099	8132
694.142	7996
694.185	8329
694.206	8137
694.229	8106
694.272	8708
694.315	8880
694.326	8952
694.358	9798
694.401	10606
694.444	11825
694.446	11843
694.487	11481
694.530	10941
694.566	10727
694.573	10609
694.616	9543
694.659	8342
694.686	7755
694.702	7868
694.745	8000
694.787	8147
694.806	8119
694.830	8016
694.873	7853
694.916	7825
694.926	7769
694.959	8120
695.002	8634
695.044	9052
695.046	9053
695.087	9073
695.130	8840
695.166	8611
695.172	8639
695.215	8729
695.258	8903
695.286	9021
695.301	9074
695.343	8871
695.386	9022
695.406	8904
695.428	8724
695.471	8637
695.514	8274
695.526	8211
695.556	8727
695.599	9369
695.641	9930
695.646	9962
695.684	9520
695.726	9179
695.766	8745
695.769	8780
695.811	8947
695.854	9020
695.886	9084
695.896	9092
695.938	8996
695.981	8937
696.005	8930
696.023	9158
696.065	9490
696.108	9944
696.125	10078
696.150	10158
696.192	10276
696.235	10416
696.245	10400
696.277	10210
696.319	9930
696.361	9657
696.365	9615
696.404	9747
696.446	9749
696.485	9750
696.488	9793
696.530	10013
696.572	10115
696.604	10289
696.614	10276
696.656	10054
696.698	9740
696.724	9551
696.740	9575
696.783	9443
696.825	9680
696.844	9629
696.867	9695
696.909	9815
696.951	9803
696.964	9824
696.992	9953
697.034	10088
697.076	10204
697.083	10184
697.118	10424
697.160	10813
697.202	11030
697.203	11008
697.244	10832
697.286	10520
697.323	10299
697.327	10370
697.369	10549
697.411	10933
697.442	11124
697.453	11223
697.494	11569
697.536	11814
697.562	12012
697.578	12057
697.620	12005
697.661	11888
697.682	11837
697.703	12191
697.744	12782
697.786	13559
697.801	13708
697.828	13725
697.869	13860
697.911	13919
697.921	13889
697.952	13188
697.994	12248
698.035	11324
698.040	11171
698.077	11055
698.118	10989
698.160	10855
698.160	10823
698.201	11035
698.243	11200
698.279	11375
698.284	11405
698.325	11343
698.367	11253
698.399	11212
698.408	11274
698.449	11318
698.491	11422
698.518	11439
698.532	11564
698.573	11863
698.614	12161
698.638	12279
698.656	12181
698.697	11880
698.738	11615
698.757	11432
698.779	11619
698.820	11941
698.862	12247
698.877	12331
698.903	12387
698.944	12407
698.985	12437
698.996	12410
699.026	12432
699.067	12418
699.116	12366
699.235	11788
699.354	12381
699.474	11246
699.593	12018
699.713	12463
699.832	12510
699.951	13353
700.070	12879
700.190	11536
700.309	11503
700.428	11864
700.547	11270
700.667	11804
700.786	12598
700.905	10859
701.024	12434
701.143	10236
701.262	10546
701.381	11064
701.500	12965
701.619	14732
701.738	11112
701.857	10930
701.976	10435
702.095	10626
702.214	12453
702.333	13070
702.452	11979
702.571	11249
702.690	10675
702.809	10500
702.928	10239
703.047	11201
703.165	9581
703.284	10269
703.403	11179
703.522	10795
703.640	11749
703.759	13056
703.878	14004
703.997	9904
704.115	9524
704.234	11162
704.353	9891
704.471	8853
704.590	8596
704.708	8952
704.827	9642
704.946	9313
705.064	9670
705.183	9486
705.301	9060
705.420	11815
705.538	10513
705.656	9760
705.775	8768
705.893	10076
706.012	9739
706.130	10108
706.249	9851
706.367	9071
706.485	9954
706.604	9673
706.722	10627
706.840	14206
706.958	11336
707.077	9483
707.195	9139
707.313	9161
707.431	8736
707.549	9217
707.668	9017
707.786	9514
707.904	8722
708.022	8441
708.140	9240
708.258	9100
708.376	8586
708.494	9035
708.612	10314
708.730	11096
708.848	10460
708.966	11904
709.084	10545
709.202	9578
709.320	10261
709.438	8276
709.556	9302
709.674	9018
709.791	9568
709.909	8123
710.027	8770
710.145	7690
710.263	8945
710.380	8956
710.498	9460
710.616	8336
710.733	8817
710.851	8622
710.969	9506
711.086	8991
711.204	8479
711.322	8420
711.439	8078
711.557	8420
711.674	8854
711.792	7914
711.909	7836
712.027	8213
712.144	7945
712.262	8601
712.379	8331
712.497	9221
712.614	9695
712.732	10002
712.849	9463
712.966	11512
713.084	15473
713.201	9383
713.318	10500
713.436	8974
713.553	9269
713.670	10082
713.787	10492
713.905	10028
714.022	9826
714.139	10433
714.256	14949
714.373	20954
714.490	40235
714.608	119301
714.725	531114
714.842	457951
714.959	30531
715.076	15806
715.193	12011
715.310	11525
715.427	10689
715.544	8801
715.661	8964
715.778	8732
715.895	9759
716.011	8673
716.128	8125
716.245	9450
716.362	13911
716.479	13179
716.596	9029
716.713	8355
716.829	8534
716.946	8370
717.063	7449
717.180	7366
717.296	7309
717.413	7132
717.530	8005
717.646	7650
717.763	7171
717.880	6966
717.996	7248
718.113	8296
718.229	7490
718.346	7145
718.462	8415
718.579	13601
718.695	30302
718.812	13291
718.928	8771
719.045	7970
719.161	7314
719.277	7572
719.394	6574
719.510	7539
719.626	8391
719.743	10258
719.859	16380
719.975	35515
720.092	155344
720.208	328671
720.324	30058
720.440	10599
720.557	10569
720.673	22125
720.789	16627
720.905	19169
721.021	8818
721.137	6031
721.253	7388
721.369	6188
721.486	6411
721.602	8400
721.718	6326
721.834	6045
721.950	7427
722.066	6495
722.181	6218
722.297	7888
722.413	5630
722.529	6270
722.645	6409
722.761	5063
722.877	5390
722.993	6493
723.108	7539
723.224	6669
723.340	6245
723.456	5924
723.571	5562
723.687	4920
723.803	6032
723.918	6158
724.034	5507
724.150	5726
724.265	5937
724.381	9508
724.497	10152
724.612	5095
724.728	4622
724.843	5463
724.959	5796
725.074	8262
725.190	8920
725.305	5873
725.421	5093
725.536	5246
725.651	5095
725.767	4311
725.882	5099
725.997	5031
726.113	5628
726.228	4263
726.343	4563
726.459	4622
726.574	5402
726.689	4626
726.804	4140
726.920	4863
727.035	4633
727.150	4632
727.265	5601
727.380	5177
727.495	5004
727.610	3722
727.725	4552
727.841	4031
727.956	5420
728.071	6030
728.186	4075
728.301	4346
728.416	5940
728.531	4856
728.645	4694
728.760	4990
728.875	6999
728.990	5800
729.105	4274
729.220	6121
729.335	6425
729.449	4671
729.564	4026
729.679	3468
729.794	5009
729.908	4948
730.023	4729
730.138	3959
730.253	4484
730.367	3581
730.482	4043
730.596	5362
730.711	5139
730.826	4782
730.940	4025
731.055	5907
731.169	5279
731.284	5536
731.398	4918
731.513	5256
731.627	4839
731.742	5728
731.856	6378
731.970	7171
732.085	8602
732.199	11605
732.313	20877
732.428	60152
732.542	199592
732.656	99692
732.771	14819
732.885	8220
732.999	6849
733.113	6734
733.227	5887
733.342	6805
733.456	5922
733.570	5074
733.684	5918
733.798	5927
733.912	5126
734.026	4673
734.140	5362
734.254	5130
734.368	7457
734.482	7900
734.596	4855
734.710	5441
734.824	5717
734.938	4602
735.052	5904
735.166	5723
735.280	5772
735.393	4096
735.507	5008
735.621	5777
735.735	7368
735.849	5204
735.962	4303
736.076	5075
736.190	4906
736.303	5245
736.417	5941
736.531	5363
736.644	4230
736.758	4118
736.872	4059
736.985	4168
737.099	5448
737.212	4116
737.326	4144
737.439	4521
737.553	3492
737.666	4804
737.780	4301
737.893	4096
738.007	4036
738.120	4407
738.233	4421
738.347	4954
738.460	4181
738.573	5545
738.687	4989
738.800	5264
738.913	9651
739.026	5509
739.140	4620
739.253	4223
739.366	3861
739.479	3886
739.592	3221
739.705	3875
739.818	4535
739.932	3585
740.045	4407
740.158	3656
740.271	4083
740.384	3830
740.497	4555
740.610	5084
740.723	4476
740.836	4782
740.949	5679
741.062	8924
741.174	5712
741.287	4397
741.400	3061
741.513	4238
741.626	5319
741.739	4704
741.851	3629
741.964	3204
742.077	4169
742.189	3988
742.302	4468
742.415	4588
742.527	4153
742.640	3619
742.753	3275
742.865	3275
742.978	3764
743.090	3843
743.203	3681
743.316	3783
743.428	3726
743.541	3458
743.653	3345
743.766	3390
743.878	3472
743.990	4086
744.103	5061
744.215	3359
744.327	3780
744.440	6455
744.552	11908
744.664	3979
744.777	3329
744.889	2797
745.001	3536
745.113	2745
745.226	3850
745.338	3578
745.450	3594
745.562	2398
745.674	3145
745.786	2995
745.898	3298
746.010	2687
746.122	3437
746.234	3366
746.347	3229
746.459	3127
746.570	2710
746.682	3319
746.794	3327
746.906	2830
747.018	3502
747.130	3307
747.242	2917
747.354	3253
747.466	3354
747.577	1870
747.689	3186
747.801	2802
747.913	2842
748.024	3246
748.136	2918
748.248	2135
748.359	3231
748.471	2874
748.583	2327
748.694	2106
748.806	3773
748.918	3118
749.029	3851
749.141	4878
749.252	4507
749.364	5918
749.475	14546
749.587	5014
749.698	2066
749.809	3133
749.921	2830
750.032	2649
750.144	1744
750.255	1774
750.366	2873
750.478	2830
750.589	2759
750.700	3047
750.811	3916
750.923	5138
751.034	16461
751.145	13605
751.256	2562
751.367	2989
751.479	2470
751.590	2103
751.701	2454
751.812	1633
751.923	2877
752.034	2443
752.145	2179
752.256	1643
752.367	2365
752.478	2349
752.589	2594
752.700	2398
752.811	2685
752.922	2496
753.032	4146
753.143	4212
753.254	1947
753.365	2745
753.476	2553
753.586	1263
753.697	2925
753.808	1536
753.919	1584
754.029	2323
754.140	1502
754.251	2039
754.361	2225
754.472	2815
754.582	2753
754.693	3202
754.804	3567
754.914	1976
755.025	1812
755.135	1903
755.246	1541
755.356	2276
755.466	2049
755.577	1767
755.687	2744
755.798	1573
755.908	2538
756.018	1596
756.129	1357
756.239	1819
756.349	2540
756.460	2828
756.570	3323
756.680	3151
756.790	2949
756.900	4271
757.011	1363
757.121	2339
757.231	2351
757.341	1739
757.451	2225
757.561	1562
757.671	1526
757.781	1116
757.891	3261
758.001	1762
758.111	3329
758.221	2698
758.331	4122
758.441	4184
758.551	7107
758.661	4951
758.771	2935
758.880	2955
758.990	2173
759.100	2035
759.210	2752
759.320	2394
759.429	3073
759.539	2500
759.649	2563
759.758	4150
759.868	3863
759.978	3407
760.087	4082
760.197	3959
760.307	4258
760.416	3340
760.526	3390
760.635	3689
760.745	3321
760.854	3829
760.964	4858
761.073	3823
761.182	3924
761.292	2904
761.401	3963
761.511	1532
761.620	2170
761.729	1669
761.839	1753
761.948	3142
762.057	2788
762.166	2383
762.276	1500
762.385	2878
762.494	1549
762.603	1670
762.712	2728
762.822	2884
762.931	2438
763.040	687
763.149	1690
763.258	1661
763.367	1954
763.476	2194
763.585	2014
763.694	1782
763.803	2099
763.912	2270
764.021	2071
764.130	1960
764.238	2104
764.347	2260
764.456	2594
764.565	2700
764.674	1949
764.783	2440
764.891	1247
765.000	4132
765.109	2775
765.217	1861
765.326	3923
765.435	4225
765.543	4429
765.652	4593
765.761	5214
765.869	7346
765.978	9836
766.086	18502
766.195	35248
766.303	100252
766.412	313680
766.520	239273
766.629	47069
766.737	16981
766.846	10335
766.954	7124
767.062	5974
767.171	4156
767.279	4288
767.387	3499
767.496	3458
767.604	2706
767.712	3228
767.820	2976
767.928	3457
768.037	2574
768.145	3186
768.253	2937
768.361	1698
768.469	2304
768.577	2453
768.685	3128
768.793	2225
768.901	1541
769.009	2764
769.117	2573
769.225	3329
769.333	5469
769.441	7606
769.549	14549
769.657	33883
769.765	124497
769.873	261037
769.981	67278
770.088	12264
770.196	6458
770.304	4612
770.412	4172
770.519	3499
770.627	3122
770.735	2785
770.842	2662
770.950	2661
771.058	2508
771.165	2604
771.273	2416
771.380	3067
771.488	3118
771.595	2689
771.703	2023
771.810	3286
771.918	2778
772.025	3067
772.133	2751
772.240	2585
772.348	3747
772.455	3580
772.562	2135
772.670	2231
772.777	3130
772.884	3152
772.991	2628
773.099	2052
773.206	1753
773.313	3112
773.420	2383
773.528	2123
773.635	2275
773.742	2228
773.849	2864
773.956	2888
774.063	2552
774.170	2709
774.277	3087
774.384	1691
774.491	2211
774.598	3164
774.705	3440
774.812	3988
774.919	2794
775.026	2605
775.133	2484
775.239	2720
775.346	2577
775.453	2275
775.560	2341
775.667	2481
775.773	1641
775.880	2715
775.987	1369
776.093	2930
776.200	2249
776.307	1698
776.413	2204
776.520	2972
776.627	2711
776.733	1596
776.840	824
776.946	3234
777.053	2043
777.159	1776
777.266	1464
777.372	2586
777.478	2326
777.585	2441
777.691	2268
777.798	2180
777.904	3237
778.010	5639
778.117	4708
778.223	1901
778.329	2416
778.435	1404
778.542	2350
778.648	2490
778.754	1592
778.860	1600
778.966	2199
779.072	1231
779.178	2168
779.284	1738
779.391	1061
779.497	405
779.603	2578
779.708	578
779.815	2938
779.920	3550
780.026	4740
780.132	1995
780.238	1634
780.344	1940
780.450	2382
780.556	1949
780.661	1333
780.767	1923
780.873	1415
780.979	2213
781.085	2112
781.190	1827
781.296	1483
781.402	980
781.507	1458
781.613	2192
781.719	1794
781.824	1574
781.930	1708
782.035	1952
782.141	1849
782.246	1379
782.352	670
782.457	1466
782.563	2156
782.668	1391
782.773	1177
782.879	1236
782.984	1843
783.090	2438
783.195	6260
783.300	2907
783.405	1593
783.511	815
783.616	2022
783.721	1187
783.826	1287
783.932	1584
784.037	1586
784.142	1015
784.247	1094
784.352	1417
784.457	2239
784.562	1720
784.667	2180
784.772	564
784.877	579
784.982	2352
785.087	1549
785.192	1377
785.297	808
785.402	1400
785.507	1608
785.611	1295
785.716	625
785.821	1388
785.926	1155
786.031	1051
786.135	676
786.240	1445
786.345	-507
786.450	1541
786.554	402
786.659	784
786.763	654
786.868	1077
786.973	1609
787.077	976
787.182	835
787.286	1241
787.391	1447
787.495	1389
787.600	286
787.704	34
787.809	249
787.913	1088
788.017	1459
788.122	1527
788.226	1292
788.330	1231
788.435	618
788.539	1211
788.643	736
788.747	1362
788.852	1237
788.956	820
789.060	1315
789.164	878
789.268	-237
789.372	935
789.476	626
789.580	535
789.684	557
789.788	1403
789.892	585
789.996	1820
790.100	40
790.204	1011
790.308	205
790.412	361
790.516	772
790.620	1049
790.724	1155
790.828	718
790.931	431
791.035	2651
791.139	710
791.242	433
791.346	1451
791.450	764
791.554	673
791.657	37
791.761	1936
791.864	895
791.968	78
792.072	1640
792.175	442
792.279	88
792.382	807
792.486	1063
792.589	353
792.693	846
792.796	-303
792.899	1703
793.003	590
793.106	-679
793.209	266
793.313	1725
793.416	-936
793.519	2061
793.623	3766
793.726	6433
793.829	1760
793.932	621
794.035	-146
794.138	2711
794.242	1443
794.345	811
794.448	2341
794.551	4825
794.654	4219
794.757	2624
794.860	513
794.963	-164
795.066	444
795.169	1221
795.272	-456
795.375	663
795.477	267
795.580	920
795.683	-587
795.786	526
795.889	-763
795.991	1376
796.094	1681
796.197	-66
796.300	1791
796.402	194
796.505	306
796.608	-788
796.710	790
796.813	-111
796.915	-118
797.018	1106
797.120	868
797.223	-794
797.326	1570
797.428	125
797.530	-8
797.633	534
797.735	1214
797.838	709
797.940	646
798.042	-82
798.145	641
798.247	742
798.349	-841
798.452	1304
798.554	-163
798.656	-594
798.758	1124
798.860	552
798.962	-252
799.065	92
799.167	-520
799.269	1177
799.371	1517
799.473	1187
799.575	324
799.677	1410
799.779	2728
799.881	3795
799.983	1971
800.085	280
800.187	1146
800.289	-11
800.390	328
800.492	309
800.594	367
800.696	314
800.798	609
800.899	-24
801.001	-440
801.103	234
801.205	-878
801.306	405
801.408	-638
801.509	-2
801.611	-397
801.713	-104
801.814	17
801.916	100
802.017	611
802.119	-960
802.220	1517
802.322	-949
802.423	1129
802.525	-243
802.626	-46
802.727	874
802.829	1048
802.930	-1681
803.031	1524
803.133	-482
803.234	30
803.335	-80
803.436	-1066
803.538	-50
803.639	-1400
803.740	43
803.841	-620
803.942	331
804.043	637
804.144	-372
804.245	811
804.346	-942
804.447	385
804.548	2669
804.649	3529
804.750	885
804.851	197
804.952	-852
805.053	425
805.154	-1482
805.255	534
805.355	45
805.456	531
805.557	-481
805.658	-1034
805.758	677
805.859	-154
805.960	260
806.061	-260
806.161	-362
806.262	426
806.362	-15
806.463	-152
806.564	490
806.664	-765
806.765	319
806.865	-159
806.966	187
807.066	-1076
807.166	58
807.267	1116
807.367	-158
807.468	750
807.568	-507
807.668	715
807.769	898
807.869	-679
807.969	265
808.069	157
808.170	351
808.270	-123
808.370	169
808.470	944
808.570	-14
808.670	-258
808.770	-133
808.870	-740
808.970	668
809.070	-803
809.170	-333
809.271	277
809.370	-244
809.470	357
809.570	-559
809.670	-590
809.770	-680
809.870	-255
809.970	-77
810.070	-44
810.169	513
810.269	-2055
810.369	333
810.469	-486
810.568	-329
810.668	-585
810.768	-864
810.867	-89
810.967	-606
811.066	-478
811.166	-513
811.265	76
811.365	-892
811.464	-1133
811.564	-270
811.663	146
811.763	-677
811.862	24
811.962	-294
812.061	-78
812.160	-1130
812.260	-244
812.359	413
812.458	392
812.557	958
812.657	317
812.756	541
812.855	586
812.954	-927
813.053	158
813.153	10
813.252	-348
813.351	453
813.450	-1052
813.549	-1445
813.648	-808
813.747	-111
813.846	1060
813.945	219
814.044	210
814.143	-495
814.242	-733
814.341	-599
814.439	-534
814.538	184
814.637	-112
814.736	-639
814.835	-24
814.933	-330
815.032	130
815.131	-341
815.229	1093
815.328	1885
815.427	577
815.525	1062
815.624	330
815.722	28
815.821	1209
815.919	470
816.018	-355
816.116	840
816.215	723
816.313	1162
816.412	1478
816.510	914
816.609	2395
816.707	2162
816.805	961
816.904	1004
817.002	1250
817.100	2623
817.198	2079
817.296	1290
817.395	1283
817.493	2022
817.591	1662
817.689	2620
817.787	2567
817.885	4530
817.983	8287
818.081	20847
818.179	52967
818.277	146696
818.375	110023
818.473	21428
818.571	8120
818.669	6420
818.767	5301
818.865	4397
818.963	6051
819.061	10012
819.158	17574
819.256	44911
819.354	109525
819.452	259779
819.549	139122
819.647	29204
819.745	10616
819.842	6310
819.940	6243
820.038	2969
820.135	2229
820.233	3681
820.330	1701
820.428	1362
820.525	2156
820.623	1264
820.720	1574
820.818	1010
820.915	1403
821.012	1428
821.110	467
821.207	1650
821.304	-829
821.402	689
821.499	1341
821.596	1342
821.693	733
821.791	2076
821.888	3183
821.985	7559
822.082	4997
822.179	1470
822.276	-119
822.373	511
822.470	132
822.567	504
822.664	-279
822.761	942
822.858	-290
822.955	715
823.052	473
823.149	727
823.246	1071
823.343	-308
823.440	709
823.536	175
823.633	-515
823.730	240
823.827	62
823.923	772
824.020	645
824.117	-325
824.213	-1155
824.310	872
824.407	384
824.503	407
824.600	358
824.696	84
824.793	804
824.889	-449
824.986	-274
825.082	-463
825.179	129
825.275	-212
825.371	-24
825.468	-500
825.564	-114
825.660	937
825.757	553
825.853	704
825.949	-381
826.045	66
826.142	-15
826.238	8
826.334	667
826.430	-304
826.526	-141
826.622	275
826.718	-32
826.814	193
826.910	1269
827.006	-376
827.102	-202
827.198	920
827.294	434
827.390	-273
827.486	401
827.582	-1150
827.678	-610
827.774	916
827.869	-1153
827.965	613
828.061	-1358
828.157	-604
828.252	-55
828.348	42
828.444	403
828.539	-960
828.635	-221
828.731	411
828.826	-1198
828.922	385
829.017	-556
829.113	361
829.208	-523
829.304	32
829.399	368
829.495	-1136
829.590	829
829.685	-665
829.781	95
829.876	-1440
829.971	-1259
830.066	-750
830.162	-592
830.257	-402
830.352	-762
830.447	385
830.543	-263
830.638	-1024
830.733	143
830.828	21
830.923	964
831.018	-271
831.113	-631
831.208	-1232
831.303	232
831.398	-91
831.493	-223
831.588	550
831.683	-785
831.778	12
831.873	-735
831.967	-246
832.062	-1264
832.157	-536
832.252	582
832.346	674
832.441	486
832.536	2322
832.631	7809
832.725	5259
832.820	-230
832.914	-237
833.009	-838
833.104	877
833.198	660
833.293	-311
833.387	217
833.482	-49
833.576	-753
833.670	453
833.765	-276
833.859	-298
833.954	941
834.048	-186
834.142	-166
834.237	-354
834.331	-1014
834.425	-89
834.519	-1032
834.613	-295
834.708	-1055
834.802	60
834.896	-622
834.990	33
835.084	223
835.178	-564
835.272	-665
835.366	-910
835.460	20
835.554	-48
835.648	-646
835.742	-543
835.836	155
835.930	-1482
836.024	522
836.117	289
836.211	-906
836.305	-648
836.399	230
836.493	-1256
836.586	906
836.680	-314
836.774	-1146
836.867	77
836.961	-407
837.055	-901
837.148	-935
837.242	-481
837.335	-792
837.429	-332
837.522	-996
837.616	-364
837.709	334
837.803	-830
837.896	-395
837.989	-623
838.083	279
838.176	-273
838.269	-724
838.363	457
838.456	211
838.549	1505
838.642	3246
838.735	9937
838.829	3254
838.922	-714
839.015	-509
839.108	-1382
839.201	366
839.294	-447
839.387	-477
839.480	-678
839.573	25
839.666	-225
839.759	-514
839.852	-1695
839.945	-155
840.038	218
840.131	-797
840.223	-981
840.316	337
840.409	-169
840.502	-884
840.594	1124
840.687	-1903
840.780	-25
840.873	-723
840.965	-345
841.058	-426
841.150	335
841.243	-1104
841.336	379
841.428	-831
841.521	-1325
841.613	-1612
841.706	-263
841.798	-1110
841.890	-635
841.983	-810
842.075	39
842.167	-816
842.260	-497
842.352	713
842.444	-261
842.537	599
842.629	790
842.721	-702
842.813	-1244
842.905	-1239
842.997	-635
843.090	-1135
843.182	485
843.274	-537
843.366	2628
843.458	3658
843.550	2754
843.642	-421
843.734	-277
843.826	-475
843.918	30
844.009	-563
844.101	-748
844.193	-743
844.285	-1136
844.377	-634
844.469	-630
844.560	-768
844.652	-1192
844.744	81
844.835	-626
844.927	-1021
845.019	-460
845.110	-789
845.202	-353
845.293	-520
845.385	-930
845.476	-699
845.568	-240
845.659	-1283
845.751	-808
845.842	-1037
845.934	-602
846.025	-1328
846.116	-542
846.208	-727
846.299	-1318
846.390	-1282
846.482	-616
846.573	-152
846.664	169
846.755	1417
846.846	1231
846.937	-1487
847.029	-322
847.120	-261
847.211	-1023
847.302	100
847.393	-840
847.484	-338
847.575	-621
847.666	-589
847.757	-874
847.847	-605
847.938	328
848.029	-1702
848.120	-1056
848.211	-743
848.302	-1235
848.392	-230
848.483	20
848.574	-1496
848.664	-706
848.755	-263
848.846	42
848.936	-956
849.027	-190
849.118	-498
849.208	-531
849.299	1136
849.389	2176
849.480	6453
849.570	15330
849.661	30551
849.751	52935
849.841	15290
849.932	1390
850.022	-284
850.112	-386
850.203	-731
850.293	-128
850.383	-1388
850.474	-1424
850.564	-573
850.654	-385
850.744	-663
850.834	-1011
850.924	-666
851.014	-458
851.104	-258
851.194	-1028
851.284	270
851.374	1095
851.464	-54
851.554	-543
851.644	-975
851.734	235
851.824	194
851.914	-1246
852.004	-519
852.094	-1363
852.183	-653
852.273	231
852.363	98
852.452	-854
852.542	-143
852.632	-404
852.721	-599
852.811	-1125
852.901	-269
852.990	-814
853.080	141
853.169	167
853.259	-334
853.348	-476
853.438	696
853.527	1786
853.617	1790
853.706	8688
853.795	15595
853.885	39246
853.974	76472
854.063	144508
854.152	223303
854.242	76417
854.331	12755
854.420	4292
854.509	2622
854.598	2057
854.687	1149
854.777	739
854.866	175
854.955	268
855.044	-272
855.133	5
855.222	-124
855.311	-770
855.400	45
855.488	-919
855.577	-1174
855.666	-471
855.755	247
855.844	-413
855.933	-878
856.021	-444
856.110	-127
856.199	-82
856.288	-1169
856.376	-540
856.465	-1545
856.554	-853
856.642	-1055
856.731	-412
856.819	-628
856.908	-1378
856.996	-1415
857.085	-763
857.173	40
857.262	-923
857.350	-852
857.438	-1100
857.527	30
857.615	-1121
857.703	-106
857.792	-1468
857.880	-1095
857.968	-252
858.056	-510
858.145	7
858.233	-951
858.321	-1132
858.409	-561
858.497	-1081
858.585	-385
858.673	-1270
858.761	-1119
858.849	-940
858.937	-1303
859.025	-786
859.113	-850
859.201	-1033
859.289	-491
859.377	-1255
859.465	-631
859.552	-810
859.640	-1506
859.728	-545
859.816	-1370
859.903	-603
859.991	-450
860.079	25
860.166	-1115
860.254	-55
860.342	-798
860.429	-1283
860.517	-719
860.604	-732
860.692	-356
860.779	-772
860.867	-847
860.954	-268
861.042	248
861.129	-119
861.216	-11
861.304	-1822
861.391	36
861.478	-920
861.565	-339
861.653	-673
861.740	-1076
861.827	-652
861.914	-1105
862.001	-1716
862.089	22
862.176	-756
862.263	-1055
862.350	-55
862.437	-1052
862.524	-1369
862.611	-865
862.698	-1138
862.785	-635
862.871	-907
862.958	-1244
863.045	-335
863.132	-1335
863.219	-431
863.306	-1621
863.392	-780
863.479	-651
863.566	-832
863.652	-396
863.739	232
863.826	-606
863.912	-1265
863.999	-342
864.086	-556
864.172	-1387
864.259	-720
864.345	-452
864.432	-657
864.518	-560
864.604	-869
864.691	-1146
864.777	-79
864.863	-598
864.950	165
865.036	-88
865.122	606
865.209	1380
865.295	1336
865.381	1136
865.467	1858
865.553	2398
865.639	4378
865.726	8570
865.812	19522
865.898	41542
865.984	62681
866.070	121300
866.156	125121
866.242	28840
866.328	5595
866.414	1418
866.499	1742
866.585	1157
866.671	896
866.757	1539
866.843	874
866.928	189
867.014	-407
867.100	-73
867.186	395
867.271	1146
867.357	1125
867.442	190
867.528	691
867.614	174
867.699	317
867.785	148
867.870	-532
867.956	-350
868.041	280
868.127	-353
868.212	-296
868.297	-7
868.383	903
868.468	2478
868.553	3283
868.639	5361
868.724	10750
868.809	9113
868.894	769
868.979	373
869.065	-303
869.150	-697
869.235	-319
869.320	-937
869.405	-478
869.490	-433
869.575	-86
869.660	-1407
869.745	-797
869.830	-551
869.915	-695
870.000	-517
870.085	-785
870.169	-41
870.254	-267
870.339	-854
870.424	-749
870.509	-776
870.593	185
870.678	-524
870.763	-265
870.847	305
870.932	-429
871.016	538
871.101	-1207
871.186	-1462
871.270	244
871.355	-714
871.439	-606
871.523	-1005
871.608	-107
871.692	-1235
871.777	-257
871.861	-330
871.945	-1355
872.030	-506
872.114	-83
872.198	-847
872.282	-675
872.367	-695
872.451	-756
872.535	-575
872.619	-934
872.703	-1064
872.787	-40
872.871	-1037
872.955	-499
873.039	-1325
873.123	-385
873.207	-219
873.291	-1017
873.375	-635
873.459	-474
873.543	-603
873.627	-1081
873.711	-761
873.794	-143
873.878	-955
873.962	-730
874.045	-652
874.129	-882
874.137	-887
874.213	-936
874.245	-786
874.296	-537
874.352	-808
874.380	-945
874.460	-1197
874.464	-1208
874.547	-942
874.568	-770
874.631	-274
874.676	-630
874.714	-912
874.784	-501
874.798	-426
874.881	72
874.892	-19
874.965	-587
874.999	-479
875.048	-397
875.107	-631
875.131	-707
875.215	-207
875.215	-207
875.298	-951
875.323	-851
875.381	-580
875.430	19
875.465	448
875.538	-647
875.548	-805
875.631	-1217
875.646	-1133
875.714	-681
875.753	-401
875.798	-66
875.861	-605
875.881	-790
875.964	-378
875.968	-392
876.047	-649
876.076	-456
876.130	-123
876.183	4
876.213	136
876.291	-129
876.296	-154
876.379	-922
876.398	-839
876.462	-518
876.506	-780
876.545	-1051
876.613	-652
876.628	-562
876.711	-779
876.721	-672
876.794	133
876.828	-513
876.877	-1364
876.935	-1493
876.960	-1562
877.043	-106
877.043	-107
877.125	-158
877.150	-223
877.208	-402
877.258	-553
877.291	-595
877.365	-429
877.374	-425
877.456	-297
877.472	-351
877.539	-549
877.579	-62
877.622	402
877.687	-642
877.704	-854
877.787	-1266
877.794	-1153
877.869	-181
877.901	-275
877.952	-482
878.008	-478
878.034	-356
878.115	-780
878.117	-793
878.199	-1129
878.222	-993
878.282	-591
878.329	-679
878.364	-742
878.437	-67
878.447	39
878.529	-801
878.544	-688
878.611	-190
878.651	-257
878.694	-372
878.758	-185
878.776	-162
878.858	-824
878.865	-844
878.941	-881
878.972	-714
879.023	-435
879.078	-1087
879.105	-1350
879.185	-334
879.187	-315
879.269	149
879.292	-9
879.351	-529
879.399	-584
879.433	-454
879.506	-458
879.516	-485
879.598	-552
879.613	-560
879.680	-648
879.720	-753
879.762	-825
879.827	-423
879.844	-307
879.926	-426
879.933	-392
880.007	-235
880.040	-151
880.089	251
880.147	967
880.171	1158
880.253	2530
880.254	2543
880.335	4222
880.360	4571
880.417	5471
880.467	9233
880.499	11676
880.574	12610
880.580	12583
880.662	3171
880.680	2384
880.744	194
880.787	-43
880.825	-444
880.893	-558
880.907	-603
880.989	-825
881.000	-831
881.070	-561
881.106	-690
881.152	-750
881.213	-949
881.233	-1055
881.315	-533
881.319	-541
881.396	-425
881.426	-472
881.478	-644
881.532	-472
881.559	-357
881.639	118
881.641	115
881.722	-583
881.745	-765
881.803	-442
881.852	-123
881.885	-273
881.958	-402
881.966	-357
882.047	185
882.064	177
882.129	51
882.171	360
882.210	741
882.277	1771
882.291	1866
882.372	64
882.383	-92
882.454	-449
882.489	-220
882.535	-310
882.596	-634
882.616	-639
882.697	-694
882.702	-674
882.778	-412
882.808	-385
882.859	-348
882.914	-494
882.940	-503
883.020	-458
883.021	-457
883.102	-522
883.127	-503
883.183	-523
883.233	-517
883.264	-320
883.339	69
883.345	24
883.426	-1074
883.445	-1106
883.507	-105
883.551	280
883.587	10
883.657	-229
883.668	-183
883.749	-111
883.763	-172
883.830	-579
883.869	-504
883.910	-291
883.975	-393
883.991	-488
884.072	-647
884.081	-670
884.152	-427
884.187	-307
884.233	-312
884.292	-272
884.314	-171
884.394	-220
884.398	-204
884.475	-579
884.504	-768
884.555	-444
884.610	-272
884.636	-442
884.716	-659
884.716	-653
884.797	-276
884.821	-249
884.877	-678
884.927	-770
884.958	-520
885.033	-193
885.038	-230
885.118	-1107
885.139	-1227
885.199	-946
885.244	-787
885.279	-657
885.350	-368
885.359	-338
885.439	-67
885.456	-113
885.520	-418
885.561	-318
885.600	-33
885.667	185
885.680	119
885.760	-109
885.773	-207
885.840	-293
885.878	-199
885.920	-330
885.984	-625
886.000	-605
886.080	-381
886.089	-376
886.160	-638
886.195	-711
886.240	-359
886.300	-62
886.320	-208
886.400	-616
886.406	-636
886.480	-89
886.511	98
886.560	-14
886.616	-322
886.640	-315
886.720	-496
886.722	-493
886.800	-313
886.827	-292
886.879	-368
886.932	-620
886.959	-476
887.038	62
887.039	61
887.119	-572
887.143	-737
887.198	-475
887.248	-331
887.278	-255
887.354	26
887.358	11
887.437	-528
887.459	-623
887.517	-145
887.564	188
887.596	124
887.669	-146
887.676	-110
887.755	451
887.774	547
887.835	-90
887.880	-521
887.914	-369
887.985	-155
887.994	-146
888.073	-11
888.090	-1
888.153	-126
888.195	-214
888.232	-275
888.300	-369
888.311	-268
888.391	402
888.405	520
888.470	-387
888.510	-983
888.549	-492
888.615	416
888.628	337
888.708	-223
888.720	-312
888.787	6
888.825	154
888.866	159
888.930	220
888.945	288
889.024	624
889.035	662
889.103	92
889.140	-231
889.182	17
889.245	404
889.261	325
889.340	-102
889.349	-147
889.419	116
889.454	226
889.498	-2
889.559	-315
889.577	-253
889.656	17
889.664	45
889.735	-348
889.768	-536
889.814	-285
889.873	53
889.978	58
890.083	410
890.187	-62
890.292	346
890.397	-1028
890.501	-71
890.606	187
890.710	270
890.815	-407
890.919	-412
891.024	-428
891.128	586
891.233	-342
891.337	-39
891.442	-800
891.546	-59
891.650	-607
891.755	-188
891.859	442
891.963	47
892.068	-264
892.172	635
892.276	-701
892.380	96
892.484	19
892.589	-277
892.693	-18
892.797	-52
892.901	-561
893.005	75
893.109	-594
893.213	436
893.317	-476
893.421	1146
893.525	122
893.629	-118
893.733	-234
893.837	430
893.941	-772
894.045	191
894.148	-155
894.252	-517
894.356	-1000
894.460	366
894.564	-510
894.667	-821
894.771	-262
894.875	-741
894.978	12
895.082	-114
895.186	-428
895.289	-166
895.393	90
895.496	4
895.600	-769
895.703	307
895.807	-316
895.910	127
896.014	-190
896.117	715
896.221	-810
896.324	-158
896.427	-807
896.531	270
896.634	-559
896.737	218
896.840	-425
896.944	-444
897.047	-986
897.150	282
897.253	-295
897.356	679
897.460	-1015
897.563	21
897.666	320
897.769	15
897.872	-391
897.975	286
898.078	-328
898.181	381
898.284	1
898.387	166
898.490	-337
898.593	553
898.695	-308
898.798	493
898.901	-3
899.004	222
899.107	-165
899.209	-204
899.312	-1368
899.415	140
899.518	-291
899.620	-540
899.723	151
899.826	-503
899.928	-337
900.031	397
900.133	-848
900.236	-281
900.338	-805
900.441	-669
900.543	-87
900.646	133
900.748	-804
900.851	-277
900.953	-1174
901.055	483
901.158	-480
901.260	-733
901.362	-104
901.465	-508
901.567	-120
901.669	362
901.771	-1225
901.873	295
901.976	-817
902.078	117
902.180	-753
902.282	-713
902.384	-1505
902.486	-119
902.588	-1268
902.690	-490
902.792	384
902.894	453
902.996	-707
903.098	-403
903.200	-885
903.302	-530
903.404	-507
903.505	-542
903.607	-1057
903.709	641
903.811	-279
903.913	-685
904.014	-191
904.116	-12
904.218	-529
904.319	49
904.421	-210
904.523	229
904.624	-680
904.726	-73
904.827	-533
904.929	-740
905.030	-1359
905.132	-404
905.233	-1147
905.335	-416
905.436	-588
905.537	-730
905.639	-634
905.740	-50
905.841	-721
905.943	-803
906.044	-845
906.145	-161
906.247	-782
906.348	36
906.449	-396
906.550	-879
906.651	-742
906.752	-571
906.854	-857
906.955	-208
907.056	-876
907.157	-495
907.258	-820
907.359	-418
907.460	-871
907.561	-26
907.662	-1158
907.762	46
907.863	-86
907.964	-609
908.065	-605
908.166	-358
908.267	-909
908.367	-1125
908.468	-1031
908.569	-602
908.670	-485
908.770	408
908.871	-1200
908.971	-510
909.072	-522
909.173	-419
909.273	-849
909.374	85
909.474	-614
909.575	47
909.675	-326
909.776	-119
909.876	-1414
909.977	-406
910.077	-1422
910.177	-350
910.278	-585
910.378	-439
910.478	-382
910.579	141
910.679	-1033
910.779	-504
910.879	-366
910.980	130
911.080	-698
911.180	-454
911.280	-640
911.380	-152
911.480	-411
911.580	-876
911.680	-795
911.780	461
911.880	-463
911.980	-880
912.080	-629
912.180	-247
912.280	-1409
912.380	-607
912.480	-1227
912.580	-784
912.679	-1906
912.779	113
912.879	-202
912.979	333
913.078	-1797
913.178	-956
913.278	-1156
913.377	-157
913.477	-350
913.577	-661
913.676	51
913.776	-397
913.875	-665
913.975	-543
914.074	-1105
914.174	-1424
914.273	-1222
914.373	-329
914.472	-1431
914.572	-281
914.671	-1816
914.770	-614
914.870	-1603
914.969	-315
915.068	-884
915.167	-80
915.267	-630
915.366	-347
915.465	-987
915.564	-1107
915.663	-1900
915.763	-1034
915.862	-856
915.961	-432
916.060	-1634
916.159	-463
916.258	-1098
916.357	-1118
916.456	-1319
916.555	-793
916.654	-981
916.752	-704
916.851	-1457
916.950	-574
917.049	-974
917.148	-506
917.247	-1558
917.345	-1088
917.444	-1167
917.543	-560
917.642	-1271
917.740	-818
917.839	-555
917.937	-494
918.036	-1271
918.135	93
918.233	-1070
918.332	212
918.430	-1250
918.529	-1153
918.627	-1538
918.726	-532
918.824	-1193
918.923	-860
919.021	-680
919.119	-270
919.218	-1598
919.316	-314
919.414	-734
919.512	-349
919.611	-439
919.709	-31
919.807	-1949
919.905	-228
920.003	-1243
920.102	-926
920.200	-1535
920.298	-399
920.396	-1542
920.494	666
920.592	-1449
920.690	-236
920.788	-868
920.886	-51
920.984	-784
921.082	-1561
921.180	-942
921.277	110
921.375	-1240
921.473	-189
921.571	-1662
921.669	-846
921.766	-663
921.864	-572
921.962	-786
922.060	184
922.157	-860
922.255	-624
922.352	-1179
922.450	-245
922.548	-1166
922.645	208
922.743	-1574
922.840	-457
922.938	-568
923.035	185
923.133	-1252
923.230	208
923.327	-651
923.425	113
923.522	85
923.619	-1128
923.717	-1134
923.814	177
923.911	-898
924.008	45
924.106	-990
924.203	-144
924.300	-382
924.397	-845
924.494	-583
924.591	-1020
924.688	-1386
924.786	-808
924.883	-971
924.979	-690
925.077	-960
925.173	-654
925.270	-1047
925.367	-223
925.464	-378
925.561	-160
925.658	-421
925.755	-384
925.852	-595
925.948	-259
926.045	-558
926.142	-6
926.239	-815
926.335	45
926.432	-869
926.529	-362
926.625	-329
926.722	-243
926.818	-955
926.915	200
927.011	-869
927.108	-333
927.204	-882
927.301	-350
927.397	-1167
927.494	-768
927.590	-796
927.687	-286
927.783	-706
927.879	-933
927.976	-977
928.072	-263
928.168	-92
928.264	-80
928.361	-1050
928.457	38
928.553	-753
928.649	-12
928.745	-586
928.841	-495
928.937	-409
929.033	-410
929.129	-344
929.225	-461
929.321	-478
929.417	-498
929.513	-1330
929.609	-541
929.705	-1582
929.801	92
929.897	-824
929.993	-426
930.089	-185
930.184	-560
930.280	-1747
930.376	210
930.471	-1459
930.567	-63
930.663	-915
930.758	-529
930.854	18
930.950	-739
931.045	-1313
931.141	-13
931.236	-1039
931.332	-1065
931.427	-1148
931.523	-253
931.618	-893
931.714	-624
931.809	-1218
931.905	-453
932.000	-1783
932.095	-915
932.191	-439
932.286	-185
932.381	-1061
932.476	-532
932.572	-1015
932.667	-59
932.762	-745
932.857	-631
932.952	-1303
933.047	-281
933.142	-816
933.237	-414
933.332	-1078
933.427	-441
933.522	-1269
933.617	-937
933.712	-1274
933.807	-187
933.902	-1621
933.997	-505
934.092	-999
934.187	-42
934.282	-428
934.376	-351
934.471	-334
934.566	-786
934.661	-1400
934.755	-563
934.850	-1291
934.945	-901
935.039	-1356
935.134	-335
935.228	-759
935.323	-136
935.417	-367
935.512	116
935.606	-1497
935.701	-558
935.795	-1445
935.890	-1133
935.984	-804
936.079	-376
936.173	-1318
936.267	-594
936.362	-1759
936.456	-1015
936.550	-1082
936.644	-505
936.738	-1495
936.833	-618
936.927	-1303
937.021	-694
937.115	-851
937.209	-1371
937.303	346
937.397	-169
937.491	-740
937.585	-270
937.679	-711
937.773	-560
937.867	-791
937.961	-373
938.055	-506
938.149	-536
938.243	-457
938.337	-913
938.430	-573
938.524	254
938.618	-610
938.712	-283
938.805	-1070
938.899	-913
938.993	-870
939.086	90
939.180	-561
939.274	-347
939.367	-392
939.461	-309
939.554	-1171
939.648	-559
939.741	-1258
939.835	205
939.928	-869
940.022	133
940.115	-1160
940.208	-38
940.302	-988
940.395	-366
940.488	-1285
940.582	56
940.675	-1243
940.768	-223
940.861	-1342
940.954	-632
941.048	-905
941.141	-577
941.234	-1408
941.327	-598
941.420	-934
941.513	575
941.606	-810
941.699	-112
941.792	-41
941.885	-405
941.978	-746
942.071	-542
942.164	-1487
942.257	-266
942.349	-1479
942.442	-973
942.535	-1043
942.628	159
942.721	-453
942.813	-695
942.906	-592
942.999	-896
943.091	-1138
943.184	-950
943.277	-1160
943.369	2
943.462	-1733
943.554	-194
943.647	-1298
943.739	-437
943.832	-1466
943.924	-1294
944.017	-1248
944.109	-1244
944.201	-1446
944.294	-669
944.386	-733
944.478	-905
944.571	-1327
944.663	59
944.755	-462
944.847	-1617
944.940	-1303
945.032	-1480
945.124	-739
945.216	349
945.308	-1980
945.400	-677
945.492	-475
945.584	-1081
945.676	-1206
945.768	-565
945.860	-896
945.952	-295
946.044	-1287
946.136	-915
946.228	-1522
946.320	-1332
946.412	-1363
946.503	-914
946.595	-876
946.687	-909
946.779	-1389
946.870	-1065
946.962	-1204
947.054	-431
947.145	-676
947.237	-617
947.329	-1420
947.420	-705
947.512	-1656
947.603	-924
947.695	-1291
947.786	-1039
947.878	-1163
947.969	74
948.061	-1714
948.152	-1012
948.243	-2237
948.335	-686
948.426	-1474
948.517	-619
948.609	-1304
948.700	-1207
948.791	-1615
948.882	-1104
948.973	-1215
949.065	-1481
949.156	-259
949.247	-1116
949.338	-985
949.429	-858
949.520	-443
949.611	-553
949.702	-1170
949.793	-420
949.884	-1227
949.975	-1232
950.066	-1493
950.157	-432
950.247	-1451
950.338	-585
950.429	-1206
950.520	-607
950.611	-2308
950.701	-1010
950.792	-1926
950.883	-415
950.973	-1034
951.064	-1099
951.155	-1591
951.245	-602
951.336	-786
951.427	-886
951.517	-337
951.608	-755
951.698	-536
951.788	-880
951.879	-614
951.969	-795
952.060	-1549
952.150	-1298
952.240	-911
952.331	-1869
952.421	-444
952.511	-731
952.602	-1005
952.692	-369
952.782	-1015
952.872	-308
952.962	-1536
953.052	-1090
953.143	-1462
953.233	411
953.323	-849
953.413	-1582
953.503	-989
953.593	-556
953.683	-1306
953.773	-1100
953.863	-997
953.953	-1176
954.042	-957
954.132	-1487
954.222	-962
954.312	-401
954.402	-1446
954.492	-751
954.581	-1402
954.671	-1574
954.761	-1904
954.850	-348
954.940	-941
955.030	-780
955.119	-1358
955.209	-1360
955.298	-1593
955.388	-395
955.477	-722
955.567	-1650
955.656	-1052
955.746	-934
955.835	-1865
955.925	-1103
956.014	-769
956.103	-1091
956.193	-2172
956.282	-613
956.371	-285
956.461	-596
956.550	-2085
956.639	-965
956.728	-1951
956.817	-1235
956.906	-1639
956.995	-241
957.085	-2208
957.174	-754
957.263	-1503
957.352	-314
957.441	-1454
957.530	-2128
957.619	-1389
957.708	-1299
957.796	-1235
957.885	-712
957.974	-2151
958.063	-1587
958.152	-2385
958.241	-501
958.329	-1228
958.418	-1171
958.507	-2440
958.596	-857
958.684	-1967
958.773	-1435
958.861	-1572
958.950	-317
959.039	-1653
959.127	-1112
959.216	-928
959.304	-1417
959.393	-2632
959.481	-774
959.570	-1609
959.658	-1968
959.746	-1801
959.835	-1390
959.923	-1680
960.011	-1145
960.100	-1067
960.188	-1013
960.276	-1143
960.365	-1111
960.453	-1273
960.541	-2452
960.629	-2200
960.717	-1810
960.805	-2063
960.893	-1399
960.981	-1878
961.069	311
961.158	-2267
961.245	-285
961.333	-1510
961.421	-1507
961.509	-1104
961.597	-1191
961.685	-647
961.773	-1180
961.861	-2138
961.949	-737
962.036	-1951
962.124	-884
962.212	-1064
962.299	-991
962.387	-1616
962.475	-1222
962.562	-1149
962.650	-450
962.738	-1819
962.825	-1222
962.913	-1684
963.000	-1219
963.088	-888
963.175	-1170
963.263	-1033
963.350	-2559
963.438	-3249
963.525	-1154
963.612	-2142
963.700	-1669
963.787	-1509
963.874	-1467
963.962	-1405
964.049	-477
964.136	-1559
964.223	-1867
964.310	-1522
964.398	-1333
964.485	-1966
964.572	-857
964.659	-1691
964.746	-1670
964.833	-1304
964.920	-1235
965.007	-1026
965.094	-1515
965.181	-1732
965.268	-634
965.355	-1719
965.441	-1804
965.528	-1747
965.615	-499
965.702	-1235
965.789	-2166
965.875	-1602
965.962	-703
966.049	-2222
966.136	-931
966.222	-2313
966.309	-961
966.395	-1441
966.482	-358
966.569	-1966
966.655	-1027
966.742	-1717
966.828	-1077
966.915	-1994
967.001	-874
967.087	-2295
967.174	-357
967.260	-1002
967.347	-1335
967.433	-1805
967.519	-877
967.605	-2357
967.692	-1594
967.778	-1809
967.864	-1269
967.950	-2242
968.036	-1434
968.123	-1686
968.209	-1388
968.295	-2666
968.381	-494
968.467	-1413
968.553	-1969
968.639	-1465
968.725	-2268
968.811	-1553
968.897	-1422
968.983	-1770
969.069	-1864
969.154	-966
969.240	-1079
969.326	-1906
969.412	-2058
969.497	-2074
969.583	-1764
969.669	-1466
969.755	-1803
969.840	-2466
969.926	-1488
970.012	-2517
970.097	-1331
970.183	-2108
970.268	-2171
970.354	-1219
970.439	-2260
970.525	-1159
970.610	-2176
970.696	-772
970.781	-978
970.866	-2518
970.952	-1114
971.037	-2158
971.122	-1494
971.208	-1946
971.293	-1413
971.378	-2229
971.463	-2291
971.549	-1894
971.634	-1990
971.719	-2494
971.804	-1501
971.889	-1202
971.974	-1858
972.059	-1228
972.144	-873
972.229	-2030
972.314	-2915
972.399	-1436
972.484	-1232
972.569	-1400
972.654	-2126
972.739	-1204
972.824	-1447
972.908	-1402
972.993	-771
973.078	-1954
973.163	-2030
973.247	-2291
973.332	-2612
973.417	-545
973.501	-1714
973.586	-1827
973.671	-1160
973.755	-2260
973.840	-579
973.924	-1235
974.009	-1646
974.093	-2392
974.178	-492
974.262	-1821
974.346	-1117
974.431	-2235
974.515	-1271
974.600	-1936
974.684	-1376
974.768	-2758
974.852	-798
974.937	-3211
975.021	-445
975.105	-1130
975.189	-1257
975.273	-2717
975.358	-1724
975.442	-2091
975.526	-456
975.610	-2358
975.694	-1407
975.778	-1693
975.862	-1081
975.946	-3283
976.030	170
976.114	-2311
976.198	-1188
976.281	-2671
976.365	-689
976.449	-1827
976.533	-1206
976.617	-2929
976.700	-1903
976.784	-2085
976.868	-1610
976.951	-1918
977.035	-2023
977.119	-1466
977.202	-1009
977.286	-1620
977.369	-2194
977.453	-1426
977.536	-1695
977.620	-2559
977.703	-1012
977.787	-2320
977.870	-1214
977.953	-1236
978.037	-3062
978.120	-1257
978.203	-2213
978.287	-1509
978.370	-2000
978.453	-2050
978.536	-1465
978.620	-1449
978.703	-1256
978.786	-2183
978.869	-1525
978.952	-3320
979.035	-456
979.118	-1505
979.201	-1957
979.284	-2265
979.367	-1996
979.450	-1765
979.533	-1459
979.616	-2251
979.699	-2854
979.782	-2722
979.865	-1549
979.948	-2475
980.030	-1230
980.113	-1915
980.196	-2384
980.279	-2235
980.361	-1657
980.444	-1999
980.526	-1967
980.609	-2514
980.692	-1943
980.774	-1432
980.857	-2318
980.939	-1868
981.022	-1922
981.104	-2103
981.187	-1898
981.269	-2180
981.352	-2087
981.434	-2605
981.516	-1928
981.599	-1201
981.681	-1443
981.763	-1933
981.846	-1643
981.928	-2226
982.010	-2764
982.092	-1835
982.174	-1167
982.256	-2001
982.339	-1203
982.421	-2563
982.503	-1135
982.585	-2235
982.667	-979
982.749	-2205
982.831	-2021
982.913	-2569
982.995	-941
983.077	-1946
983.158	-663
983.240	-2937
983.322	-993
983.404	-2094
983.486	-2243
983.568	-1659
983.649	-1945
983.731	-1509
983.813	-2320
983.894	-1462
983.976	-2452
984.058	-3139
984.139	-409
984.221	-3370
984.302	-779
984.384	-1852
984.465	-2357
984.547	-2340
984.628	-2559
984.710	-1582
984.791	-1751
984.872	-1781
984.954	-2725
985.035	-1652
985.116	-1736
985.198	-2419
985.279	-937
985.360	-2266
985.441	-2394
985.522	-1856
985.604	-1676
985.685	-3579
985.766	-610
985.847	-1165
985.928	-2394
986.009	-2154
986.090	-1151
986.171	-2085
986.252	-2208
986.333	-1381
986.414	-2306
986.495	-1853
986.576	-1540
986.656	-2316
986.737	-1828
986.818	-1719
986.899	-2282
986.980	-1652
987.060	-1098
987.141	-2704
987.222	-1332
987.302	-2031
987.383	-1711
987.464	-1741
987.544	-1129
987.625	-2489
987.705	-1080
987.786	-2612
987.866	-2095
987.947	-2345
988.027	-1775
988.108	-2654
988.188	-1016
988.268	-2407
988.349	-1558
988.429	-1936
988.509	-340
988.589	-1733
988.670	-3195
988.750	-1330
988.830	-2352
988.910	-2200
988.990	-1999
989.070	-2959
989.151	-1888
989.231	-2585
989.311	-1549
989.391	-1904
989.471	-2224
989.551	-2095
989.631	-1609
989.711	-1447
989.791	-2800
989.870	-2773
989.950	-622
990.030	-2220
990.110	-1915
990.190	-2592
990.269	-1654
990.349	-2869
990.429	-2222
990.509	-1496
990.588	-2530
990.668	-1689
990.747	-2400
990.827	-1709
990.907	-1287
990.986	-2522
991.066	-1063
991.145	-2284
991.225	-1380
991.304	-2112
991.383	-1248
991.463	-2953
991.542	-1882
991.622	-3154
991.701	-1734
991.780	-3082
991.859	-1547
991.939	-2414
992.018	-2135
992.097	-1942
992.176	-2343
992.256	-2528
992.335	-1906
992.414	-2163
992.493	-1961
992.572	-2629
992.651	-1347
992.730	-1674
992.809	-1957
992.888	-2617
992.967	-2011
993.046	-1907
993.125	-3119
993.203	-2165
993.282	-2633
993.361	-1606
993.440	-2068
993.519	-3010
993.597	-2986
993.676	-2996
993.755	-1532
993.834	-1723
993.912	-2476
993.991	-1411
994.069	-1739
994.148	-2178
994.226	-2284
994.305	-1337
994.384	-2653
994.462	-1835
994.540	-2493
994.619	-2806
994.697	-1650
994.776	-2872
994.854	-1701
994.932	-2144
995.011	-1119
995.089	-2995
995.167	-1696
995.245	-1507
995.324	-2655
995.402	-1552
995.480	-1689
995.558	-2045
995.636	-3141
995.714	-2901
995.792	-1015
995.870	-2626
995.948	-1312
996.026	-1592
996.104	-2060
996.182	-1601
996.260	-2065
996.338	-1795
996.416	-2738
996.494	-2443
996.572	-1678
996.649	-2024
996.727	-3198
996.805	-1796
996.883	-2355
996.960	-2426
997.038	-2617
997.116	-2414
997.193	-2693
997.271	-2004
997.348	-2356
997.426	-1872
997.504	-2033
997.581	-2149
997.658	-1182
997.736	-2859
997.813	-2137
997.891	-1603
997.968	-2606
998.046	-2671
998.123	-2172
998.200	-2372
998.277	-2016
998.355	-1524
998.432	-2246
998.509	-2396
998.586	-706
998.663	-2752
998.741	-2148
998.818	-3161
998.895	-2546
998.972	-2061
999.049	-1497
999.126	-3065
999.203	-764
999.280	-2223
999.357	-2489
999.434	-2864
999.511	-1857
999.587	-1867
999.664	-2320
999.741	-2592
999.818	-1246
999.895	-2276
999.971	-1602
1000.048	-2948
1000.125	-905
1000.202	-3026
1000.278	-2247
1000.355	-3026
1000.431	-2213
1000.508	-2899
1000.584	-2363
1000.661	-2247
1000.738	-2629
1000.814	-2751
1000.890	-1852
1000.967	-2004
1001.043	-1483
1001.120	-3082
1001.196	-1645
1001.272	-2706
1001.349	-1973
1001.425	-1861
1001.501	-2290
1001.577	-2774
1001.654	-1395
1001.730	-2786
1001.806	-2192
1001.882	-2926
1001.958	-2276
1002.034	-2371
1002.110	-2442
1002.186	-2630
1002.262	-2138
1002.338	-3162
1002.414	-1253
1002.490	-2844
1002.566	-2936
1002.642	-2805
1002.718	-1125
1002.794	-2858
1002.870	-2608
1002.945	-2863
1003.021	-2206
1003.097	-2600
1003.173	-1513
1003.248	-3497
1003.324	-1997
1003.400	-2232
1003.475	-2359
1003.551	-2563
1003.626	-2009
1003.702	-2479
1003.777	-1325
1003.853	-2554
1003.928	-2156
1004.004	-2756
1004.079	-1716
1004.155	-2668
1004.230	-2341
1004.305	-1932
1004.381	-1974
1004.456	-2794
1004.531	-2388
1004.607	-1974
1004.682	-1679
1004.757	-2600
1004.832	-2065
1004.907	-2117
1004.982	-1450
1005.057	-2621
1005.133	-2523
1005.208	-3260
1005.283	-2250
1005.358	-2422
1005.433	-2689
1005.508	-2755
1005.583	-2088
1005.657	-2689
1005.732	-1159
1005.807	-3468
1005.882	-2460
1005.957	-2434
1006.032	-1297
1006.106	-2543
1006.181	-2219
1006.256	-1856
1006.331	-1734
1006.405	-2492
1006.480	-1958
1006.554	-2884
1006.629	-2251
1006.704	-2658
1006.778	-2453
1006.853	-2426
1006.927	-2570
1007.002	-2675
1007.076	-1772
1007.150	-1981
1007.225	-2509
1007.299	-1950
1007.373	-2507
1007.448	-2058
1007.522	-1962
1007.596	-2615
1007.671	-2362
1007.745	-1917
1007.819	-2876
1007.893	-2483
1007.967	-1874
1008.041	-3513
1008.115	-1115
1008.190	-3246
1008.264	-2238
1008.338	-3548
1008.412	-2042
1008.486	-2319
1008.560	-2605
1008.633	-2858
1008.707	-2067
1008.781	-1901
1008.855	-1857
1008.929	-2888
1009.003	-2591
1009.076	-2587
1009.150	-2039
1009.224	-2762
1009.298	-1073
1009.371	-3599
1009.445	-1918
1009.519	-3063
1009.592	-2584
1009.666	-1739
1009.739	-941
1009.813	-2474
1009.886	-1728
1009.960	-3265
1010.033	-1797
1010.107	-1567
1010.180	-2426
1010.253	-2464
1010.327	-2627
1010.400	-2542
1010.473	-1880
1010.547	-1437
1010.620	-1773
1010.693	-2936
1010.766	-2198
1010.840	-2069
1010.913	-2475
1010.986	-2994
1011.059	-1735
1011.132	-2336
1011.205	-1442
1011.278	-2547
1011.351	-2373
1011.424	-1954
1011.497	-2114
1011.570	-2898
1011.643	-2330
1011.716	-2291
1011.789	-2570
1011.862	-2469
1011.934	-2131
1012.007	-3882
1012.080	-1801
1012.153	-1600
1012.225	-950
1012.298	-3478
1012.371	-2218
1012.443	-2094
1012.516	-2368
1012.588	-2412
1012.661	-2125
1012.733	-2853
1012.806	-1017
1012.879	-3208
1012.951	-1738
1013.023	-2374
1013.096	-1514
1013.168	-2297
1013.241	-1375
1013.313	-2229
1013.385	-2463
1013.458	-2481
1013.530	-1829
1013.602	-3118
1013.674	-2229
1013.746	-2389
1013.819	-2389
1013.891	-2553
1013.963	-1915
1014.035	-3188
1014.107	-1361
1014.179	-2506
1014.251	-2468
1014.323	-2081
1014.395	-2270
1014.467	-2615
1014.539	-1566
1014.611	-3271
1014.683	-1611
1014.754	-2101
1014.826	-2092
1014.898	-1651
1014.970	-2557
1015.042	-1702
1015.113	-1299
1015.185	-2167
1015.257	-2509
1015.328	-2460
1015.400	-1840
1015.471	-2154
1015.543	-2605
1015.615	-2989
1015.686	-2117
1015.757	-1751
1015.829	-2137
1015.901	-1658
1015.972	-2075
1016.043	-1741
1016.115	-1544
1016.186	-2163
1016.257	-2477
1016.328	-2043
1016.400	-1804
1016.471	-3618
1016.542	-2237
1016.613	-2634
1016.685	-2461
1016.756	-2150
1016.827	-2600
1016.898	-3043
1016.969	-1560
1017.040	-2431
1017.111	-2126
1017.182	-2637
1017.253	-2406
1017.324	-2188
1017.395	-1805
1017.466	-1921
1017.537	-1745
1017.608	-1838
1017.678	-1317
1017.749	-3678
1017.820	-2301
1017.891	-2675
1017.961	-2164
1018.032	-2605
1018.103	-1079
1018.173	-2460
1018.244	-2280
1018.315	-2875
1018.385	-1723
1018.456	-1662
1018.526	-2629
1018.597	-1801
1018.667	-2184
1018.738	-2447
1018.808	-2208
1018.878	-3058
1018.949	-2159
1019.019	-1845
1019.089	-1848
1019.160	-2583
1019.230	-2839
1019.300	-2643
1019.371	-2660
1019.441	-2148
1019.511	-1557
1019.581	-3056
1019.651	-2175
1019.721	-2806
1019.791	-1512
1019.861	-2438
1019.931	-1506
1020.001	-2676
1020.071	-1727
1020.141	-3028
1020.211	-2535
1020.281	-2238
1020.351	-2452
1020.421	-2270
1020.491	-801
1020.560	-2795
1020.630	-2701
1020.700	-2676
1020.770	-2401
1020.839	-2973
1020.909	-2506
1020.979	-3711
1021.048	-1873
1021.118	-2986
1021.187	-2074
1021.257	-2431
1021.326	-1619
1021.396	-2161
1021.465	-2639
1021.535	-2972
1021.604	-2438
1021.674	-1944
1021.743	-2392
1021.812	-3205
1021.882	-1817
1021.951	-2527
1022.020	-2894
1022.089	-2227
1022.159	-2504
1022.228	-2167
1022.297	-2953
1022.366	-2416
1022.435	-2537
1022.504	-2380
1022.573	-2733
1022.642	-2400
1022.711	-2618
1022.781	-2310
1022.849	-2002
1022.918	-3145
1022.987	-2023
1023.056	-2711
1023.125	-1956
1023.194	-2133
1023.263	-1531
1023.331	-2765
1023.400	-2172
1023.469	-2491
1023.538	-1492
1023.606	-2874
1023.675	-2354
1023.744	-3233
1023.812	-2551
1023.881	-3118
1023.949	-1717
1024.018	-3267
1024.086	-2234
1024.155	-3291
1024.223	-2141
1024.292	-2355
1024.360	-1629
1024.429	-2925
1024.497	-2764
1024.565	-2785
1024.634	-2262
1024.702	-2322
1024.770	-2047
1024.838	-3327
1024.907	-2554
1024.975	-3228
1025.043	-2442
1025.111	-2168
1025.179	-2652
1025.247	-2973
1025.315	-2344
1025.383	-3082
1025.451	-2681
1025.519	-2484
1025.587	-2657
1025.655	-2742
1025.723	-2303
1025.791	-2495
1025.859	-2051
1025.927	-2118
1025.995	-2082
1026.062	-2044
1026.130	-2358
1026.198	-3496
1026.266	-2021
1026.333	-2527
1026.401	-1647
1026.469	-3611
1026.536	-1952
1026.604	-2346
1026.671	-1957
1026.739	-2997
1026.806	-2221
1026.874	-3130
1026.941	-1997
1027.009	-3580
1027.076	-2216
1027.144	-2857
1027.211	-2876
1027.278	-3636
1027.345	-1750
1027.413	-2899
1027.480	-1982
1027.547	-2787
1027.614	-2477
1027.682	-2820
1027.749	-2420
1027.816	-2469
1027.883	-2560
1027.950	-2492
1028.017	-2860
1028.084	-1127
1028.151	-3273
1028.218	-3585
1028.285	-1656
1028.352	-3433
1028.419	-2555
1028.486	-2829
1028.553	-2227
1028.619	-2812
1028.686	-2133
1028.753	-3040
1028.820	-1762
1028.886	-2743
1028.953	-2019
1029.020	-2477
1029.086	-3139
1029.153	-2810
1029.220	-2122
1029.286	-2800
1029.353	-2387
1029.419	-2988
1029.486	-2744
1029.552	-2647
1029.619	-2686
1029.685	-3109
1029.751	-3016
1029.818	-1480
1029.884	-2345
1029.951	-1243
1030.017	-2665
1030.083	-2875
1030.149	-2183
1030.216	-3813
1030.282	-2481
1030.348	-3548
1030.414	-3008
1030.480	-2553
1030.546	-2537
1030.612	-2059
1030.678	-2550
1030.744	-2795
1030.810	-2618
1030.876	-2828
1030.942	-2853
1031.008	-2632
1031.074	-2829
1031.140	-3205
1031.206	-1954
1031.272	-3316
1031.337	-2691
1031.403	-2497
1031.469	-2942
1031.534	-2592
1031.600	-1793
1031.666	-3170
1031.731	-3539
1031.797	-3093
1031.863	-2360
1031.928	-2346
1031.994	-1962
1032.059	-2873
1032.125	-2330
1032.190	-3202
1032.256	-3092
1032.321	-4096
1032.386	-2707
1032.452	-2228
1032.517	-2794
1032.582	-3444
1032.647	-2559
1032.713	-2949
1032.778	-2175
1032.843	-2781
1032.908	-2641
1032.974	-3129
1033.039	-3123
1033.104	-1938
1033.169	-3292
1033.234	-3344
1033.299	-2047
1033.364	-2551
1033.429	-2452
1033.494	-3701
1033.559	-2021
1033.624	-2742
1033.688	-2052
1033.753	-3470
1033.818	-3000
1033.883	-2508
1033.948	-3043
1034.013	-2987
1034.077	-2624
1034.142	-3489
1034.207	-2452
1034.271	-3480
1034.336	-2119
1034.400	-3056
1034.465	-2993
1034.530	-3017
1034.594	-2464
1034.658	-2407
1034.723	-1726
1034.787	-2983
1034.852	-1809
1034.916	-3036
1034.981	-3039
1035.045	-2778
1035.109	-2442
1035.173	-2931
1035.238	-2971
1035.302	-3248
1035.366	-2332
1035.430	-3499
1035.495	-2609
1035.559	-2244
1035.623	-2192
1035.687	-3492
1035.751	-2449
1035.815	-2312
1035.879	-3534
1035.943	-3016
1036.007	-2207
1036.071	-3472
1036.135	-1974
1036.198	-3655
1036.262	-1883
1036.326	-3014
1036.390	-2413
1036.454	-3079
1036.517	-2151
1036.581	-2534
1036.645	-2086
1036.709	-3168
1036.772	-3060
1036.836	-2676
1036.900	-2498
1036.963	-3256
1037.026	-2254
1037.090	-3439
1037.154	-2522
1037.217	-2964
1037.280	-2715
1037.344	-2433
1037.407	-2318
1037.471	-2716
1037.534	-2283
1037.597	-2532
1037.661	-2480
1037.724	-3842
1037.787	-2871
1037.850	-2762
1037.913	-2130
1037.977	-2565
1038.040	-2432
1038.103	-3223
1038.166	-2609
1038.229	-3234
1038.292	-2321
1038.355	-3094
1038.418	-2567
1038.481	-3201
1038.544	-3399
1038.607	-3720
1038.670	-2955
1038.732	-1767
1038.795	-2581
1038.858	-2903
1038.921	-1659
1038.984	-2626
1039.046	-3023
1039.109	-3345
1039.172	-1868
1039.234	-3654
1039.297	-2491
1039.360	-3364
1039.422	-2241
1039.485	-3555
1039.547	-3667
1039.610	-2682
1039.672	-2953
1039.734	-3139
1039.797	-2676
1039.859	-2326
1039.922	-2166
1039.984	-2497
1040.046	-2271
1040.109	-3434
1040.171	-2194
1040.233	-3300
1040.295	-2051
1040.358	-2921
1040.420	-3045
1040.482	-3442
1040.544	-2483
1040.606	-3105
1040.668	-2199
1040.730	-3102
1040.792	-2452
1040.854	-2300
1040.916	-2242
1040.978	-2383
1041.040	-2555
1041.102	-2698
1041.164	-3369
1041.225	-3553
1041.287	-2826
1041.349	-3671
1041.411	-1796
1041.472	-2216
1041.534	-2574
1041.596	-3097
1041.657	-2228
1041.719	-2983
1041.781	-2084
1041.842	-3307
1041.904	-1471
1041.965	-2772
1042.027	-1862
1042.088	-2931
1042.150	-2762
1042.211	-2667
1042.272	-2677
1042.334	-3759
1042.395	-2460
1042.456	-2562
1042.518	-2537
1042.579	-3056
1042.640	-2373
1042.701	-2222
1042.763	-2550
1042.824	-2740
1042.885	-1972
1042.946	-3089
1043.007	-2573
1043.068	-3441
1043.129	-2628
1043.190	-2643
1043.251	-1983
1043.312	-2660
1043.373	-2008
1043.434	-2440
1043.495	-2001
1043.556	-2015
1043.616	-2403
1043.677	-2603
1043.738	-2482
1043.799	-3289
1043.859	-2035
1043.920	-2420
1043.981	-2466
1044.041	-2663
1044.102	-1799
1044.162	-2255
1044.223	-2197
1044.284	-2977
1044.344	-1790
1044.405	-3313
1044.465	-2396
1044.525	-2866
1044.586	-2037
1044.646	-3144
1044.707	-2216
1044.767	-2133
1044.827	-2310
1044.887	-2473
1044.948	-1518
1045.008	-2944
1045.068	-3152
1045.128	-2322
1045.188	-2269
1045.249	-2712
1045.309	-2710
1045.369	-2874
1045.429	-2338
1045.489	-2547
1045.549	-2303
1045.609	-3318
1045.669	-2108
1045.729	-2248
1045.789	-2082
1045.848	-2878
1045.908	-2533
1045.968	-2240
1046.028	-1855
1046.088	-2190
1046.147	-1563
1046.207	-2445
1046.267	-1870
1046.326	-1700
1046.386	-1392
1046.446	-1964
1046.505	-1772
1046.565	-1140
1046.624	-893
1046.684	-1383
1046.743	-949
1046.803	-907
1046.862	-832
1046.922	0
