'Start Wavelength	183.907
'End Wavelength	1046.922
'Gate Delay	5.000
'Gate Width (ms)	1.050
'Laser Output Level	0.000
'X Position	0.000
'Y Position	0.000
'Z Position	0.000
'Grid Point Number	1.000
'Shot Number	100.000
183.907	311.000
183.977	-38.000
184.047	2
184.116	387
184.186	507
184.256	-425
184.325	369
184.395	57
184.465	435
184.534	470
184.604	-413
184.674	96
184.743	310
184.813	-66
184.883	498
184.952	485
185.022	-151
185.092	212
185.161	-381
185.231	376
185.301	-230
185.370	750
185.440	-294
185.509	-927
185.579	275
185.649	7
185.718	-289
185.788	296
185.857	-154
185.927	-247
185.996	340
186.066	2
186.136	84
186.205	-452
186.275	262
186.344	-64
186.414	304
186.483	-240
186.553	311
186.622	-59
186.692	184
186.761	36
186.831	574
186.900	60
186.970	-158
187.039	230
187.109	333
187.178	136
187.248	238
187.317	356
187.387	-281
187.456	397
187.526	178
187.595	1235
187.664	-47
187.734	243
187.803	286
187.873	-821
187.942	-346
188.012	139
188.081	55
188.150	-192
188.220	68
188.289	138
188.358	-339
188.428	117
188.497	-186
188.567	-1
188.636	-689
188.705	-171
188.775	-152
188.844	-568
188.913	-73
188.983	-260
189.052	344
189.121	223
189.191	-460
189.260	34
189.329	463
189.399	-5
189.468	-411
189.537	84
189.606	210
189.676	-369
189.745	-417
189.814	-208
189.883	-269
189.953	-860
190.022	212
190.091	11
190.161	66
190.230	2
190.299	-253
190.368	-190
190.437	108
190.507	-7
190.576	-504
190.645	-209
190.714	-1194
190.783	213
190.853	620
190.922	-630
190.991	-9
191.060	-86
191.129	-661
191.198	375
191.268	-381
191.337	-681
191.406	34
191.475	-580
191.544	-536
191.613	-843
191.682	-682
191.752	25
191.821	-970
191.890	-625
191.959	-1222
192.028	-475
192.097	-96
192.166	-318
192.235	-181
192.304	-4
192.373	-65
192.442	-169
192.511	-488
192.580	-109
192.650	657
192.719	-487
192.788	243
192.857	401
192.926	-503
192.995	-960
193.064	-147
193.133	-872
193.202	-336
193.271	-438
193.340	-637
193.409	378
193.478	-573
193.547	-678
193.615	-389
193.684	-643
193.753	-1196
193.822	-357
193.891	-531
193.960	-59
194.029	244
194.098	-327
194.167	-582
194.236	-150
194.305	-18
194.374	231
194.443	-1012
194.512	1088
194.580	-212
194.649	-526
194.718	122
194.787	-1054
194.856	-621
194.925	-129
194.994	-631
195.062	-96
195.131	-493
195.200	-617
195.269	-498
195.338	-685
195.407	-148
195.475	-310
195.544	-501
195.613	-741
195.682	161
195.751	83
195.819	-1079
195.888	-88
195.957	516
196.026	-135
196.094	-11
196.163	-511
196.232	-436
196.301	367
196.369	-261
196.438	-530
196.507	-331
196.576	-714
196.644	-452
196.713	-13
196.782	-118
196.850	-547
196.919	-233
196.988	-223
197.056	-962
197.125	72
197.194	19
197.262	-397
197.331	-986
197.400	-1088
197.468	-739
197.537	-711
197.606	-1547
197.674	-134
197.743	-217
197.812	-365
197.880	-528
197.949	-545
198.017	-536
198.086	-574
198.155	-294
198.223	-143
198.292	-354
198.360	-714
198.429	-648
198.497	-372
198.566	-71
198.635	-602
198.703	44
198.772	64
198.840	-160
198.909	-1398
198.977	416
199.046	68
199.114	-221
199.183	-732
199.251	-348
199.320	-451
199.388	-394
199.457	111
199.525	-299
199.594	-563
199.662	-871
199.731	20
199.799	-482
199.867	-957
199.936	-447
200.004	-659
200.073	-513
200.141	-493
200.210	-512
200.278	-900
200.346	-442
200.415	331
200.483	-318
200.552	-143
200.620	-437
200.688	-1091
200.757	-1120
200.825	-779
200.893	-1090
200.962	-4
201.030	-508
201.098	-1498
201.167	-1080
201.235	-668
201.303	-657
201.372	-117
201.440	-309
201.508	-540
201.577	-968
201.645	-313
201.713	-485
201.781	-784
201.850	-773
201.918	-562
201.986	-932
202.055	-434
202.123	-980
202.191	-108
202.259	-429
202.327	-811
202.396	-1237
202.464	-603
202.532	-371
202.600	-3
202.669	-458
202.737	-881
202.805	-661
202.873	-636
202.941	237
203.009	-624
203.078	-955
203.146	-963
203.214	-379
203.282	-1509
203.350	-732
203.418	-366
203.487	-436
203.555	-644
203.623	-608
203.691	-445
203.759	-1183
203.827	-280
203.895	-917
203.963	-1073
204.031	-1292
204.099	-785
204.168	-1227
204.236	-161
204.304	-782
204.372	-1249
204.440	-688
204.508	-536
204.576	-893
204.644	-319
204.712	-409
204.780	-917
204.848	-361
204.916	-490
204.984	-731
205.052	-437
205.120	-738
205.188	-1154
205.256	-927
205.324	-1225
205.392	-930
205.460	-615
205.528	-514
205.596	-833
205.664	-328
205.732	-910
205.799	-275
205.867	-261
205.935	-603
206.003	-1057
206.071	-1190
206.139	-864
206.207	-365
206.275	-1209
206.343	-438
206.411	-662
206.478	-856
206.546	-353
206.614	-792
206.682	-364
206.750	-514
206.818	-708
206.885	-990
206.953	-863
207.021	55
207.089	-180
207.157	-1393
207.225	-315
207.292	-762
207.360	-1052
207.428	-1439
207.496	-1133
207.563	-601
207.631	-1182
207.699	-282
207.767	-744
207.834	-1196
207.902	-1008
207.970	-1177
208.038	-1202
208.105	-914
208.173	-763
208.241	-639
208.309	-785
208.376	-848
208.444	-904
208.512	-1029
208.579	-1283
208.647	-906
208.715	-1441
208.782	-180
208.850	-986
208.918	-304
208.985	-868
209.053	-535
209.120	-716
209.188	-1073
209.256	-810
209.323	-1192
209.391	-1031
209.459	-63
209.526	-95
209.594	-1206
209.661	-701
209.729	-757
209.796	-258
209.864	-1335
209.932	-860
209.999	-618
210.067	-742
210.134	-924
210.202	-443
210.269	-615
210.337	-433
210.404	-1571
210.472	-259
210.539	-551
210.607	-1621
210.674	-529
210.742	-790
210.809	-902
210.877	-1071
210.944	-297
211.012	-1396
211.079	-317
211.146	-683
211.214	-882
211.281	-741
211.349	-1030
211.416	-752
211.484	-644
211.551	-1260
211.618	-686
211.686	-956
211.753	-1595
211.821	-962
211.888	-632
211.955	-993
212.023	-838
212.090	-1169
212.157	-912
212.225	-1186
212.292	-147
212.359	-561
212.427	-113
212.494	-345
212.561	-988
212.629	-1415
212.696	-338
212.763	-377
212.831	-1357
212.898	-543
212.965	-877
213.032	-725
213.100	-452
213.167	-1311
213.234	-641
213.301	-649
213.369	-1650
213.436	-615
213.503	-1242
213.570	-924
213.638	-107
213.705	-839
213.772	-688
213.839	-998
213.906	-739
213.973	-713
214.041	-673
214.108	-661
214.175	-627
214.242	-1166
214.309	-1280
214.376	-588
214.444	-922
214.511	-1155
214.578	-1415
214.645	-1197
214.712	-480
214.779	-1200
214.846	-939
214.913	-275
214.980	-983
215.048	-925
215.115	-1014
215.182	-1360
215.249	-1486
215.316	-956
215.383	-1308
215.450	-844
215.517	-545
215.584	-755
215.651	-782
215.718	-812
215.785	-223
215.852	-1322
215.919	-222
215.986	-1046
216.053	-325
216.120	-330
216.187	61
216.254	-1152
216.321	-660
216.388	-1454
216.455	-1311
216.522	-185
216.589	-1343
216.656	-24
216.722	-327
216.789	-81
216.856	-1258
216.923	-223
216.990	-953
217.057	-534
217.124	-692
217.191	-482
217.258	-718
217.324	-1127
217.391	-1008
217.458	-1194
217.525	-649
217.592	-1121
217.659	-1689
217.725	-424
217.792	-1484
217.859	-844
217.926	-1181
217.993	-706
218.059	-681
218.126	-1232
218.193	-770
218.260	-801
218.327	-1022
218.393	-485
218.460	-1098
218.527	-1489
218.594	-903
218.660	-602
218.727	-324
218.794	-1798
218.860	-540
218.927	-1311
218.994	-730
219.061	-996
219.127	-669
219.194	-310
219.261	-597
219.327	-640
219.394	-849
219.461	-1781
219.527	-487
219.594	-868
219.661	-1488
219.727	-1233
219.794	-758
219.860	-1908
219.927	-723
219.994	-1000
220.060	-1218
220.127	-409
220.193	-467
220.260	-900
220.326	-558
220.393	-496
220.460	-678
220.526	-1109
220.593	-942
220.659	-153
220.726	-1055
220.792	-104
220.859	-435
220.925	545
220.992	677
221.058	-552
221.125	-545
221.191	-991
221.258	-1510
221.324	-1047
221.391	-1198
221.457	-837
221.524	-560
221.590	-1201
221.657	9
221.723	-335
221.789	-957
221.856	-588
221.922	-870
221.989	-1124
222.055	-1830
222.121	-1808
222.188	-290
222.254	-1107
222.321	-526
222.387	-1697
222.453	-1261
222.520	-928
222.586	-532
222.652	-1543
222.719	-1170
222.785	-397
222.851	-1347
222.918	-328
222.984	-1141
223.050	-670
223.116	-1524
223.183	-306
223.249	-1164
223.315	-1142
223.382	-1661
223.448	-1308
223.514	-1912
223.580	-1649
223.647	-1300
223.713	-956
223.779	-1408
223.845	-544
223.911	-236
223.978	-1145
224.044	-695
224.110	-1205
224.176	-1610
224.242	-674
224.309	-1782
224.375	-717
224.441	-300
224.507	-1342
224.573	-1510
224.639	-784
224.705	-1080
224.772	-983
224.838	-1517
224.904	-1211
224.970	-1188
225.036	-893
225.102	-1124
225.168	-1323
225.234	-303
225.300	-1473
225.366	-990
225.432	-1010
225.499	-983
225.565	-1214
225.631	-1139
225.697	-1586
225.763	-1869
225.829	-1274
225.895	-1254
225.961	-1385
226.027	-727
226.093	-1387
226.159	-1100
226.225	-1076
226.291	-1127
226.357	222
226.423	-223
226.489	-1169
226.554	-903
226.620	-624
226.686	-1142
226.752	-216
226.818	-923
226.884	938
226.950	1306
227.016	-649
227.082	-827
227.148	-1390
227.214	-1021
227.279	-1654
227.345	-1180
227.411	-715
227.477	-1431
227.543	-942
227.609	-1175
227.674	-1304
227.740	-1726
227.806	-729
227.872	-1151
227.938	-875
228.003	-879
228.069	-1198
228.135	-1753
228.201	-2140
228.267	-845
228.332	-1231
228.398	-2002
228.464	-795
228.530	-1623
228.595	-415
228.661	-1380
228.727	-1036
228.792	-914
228.858	-757
228.924	-2087
228.990	65
229.055	-1066
229.121	-888
229.187	-890
229.252	-1669
229.318	-637
229.384	-1498
229.449	-1538
229.515	-1946
229.581	-1790
229.646	-206
229.712	-1725
229.777	-851
229.843	-1234
229.909	-929
229.974	-714
230.040	-618
230.105	-981
230.171	-1354
230.236	-611
230.302	-694
230.368	-999
230.433	-820
230.499	-1123
230.564	-478
230.630	-2287
230.695	-678
230.761	-1591
230.826	-1377
230.892	-873
230.957	-1158
231.023	-1162
231.088	-1511
231.154	-807
231.219	-1254
231.284	-1814
231.350	-739
231.415	-1919
231.481	-911
231.546	-1474
231.612	-1601
231.677	-1779
231.742	-1816
231.808	-1179
231.873	-1398
231.939	-2027
232.004	-120
232.069	-475
232.135	-1348
232.200	-1961
232.265	-1221
232.331	-1519
232.396	-1170
232.461	-1271
232.527	-1181
232.592	-1207
232.657	-1155
232.723	-1429
232.788	-1769
232.853	-1091
232.918	-1520
232.984	-1889
233.049	-1359
233.114	-1168
233.179	-1355
233.245	-1622
233.310	-1278
233.375	-2369
233.440	-1398
233.506	-1451
233.571	-1142
233.636	-1567
233.701	-885
233.766	-1599
233.832	-1192
233.897	-1422
233.962	-1675
234.027	-1107
234.092	-583
234.157	-1046
234.222	-1907
234.288	-1512
234.353	-1096
234.418	-744
234.483	-339
234.548	-1290
234.613	-991
234.678	-1315
234.743	-1753
234.808	-170
234.873	-1951
234.938	-941
235.004	-1104
235.069	-1671
235.134	-1599
235.199	-1093
235.264	-1348
235.329	-2193
235.394	-919
235.459	-1095
235.524	-1482
235.589	-1207
235.654	-1147
235.719	-1863
235.784	-847
235.849	-1685
235.913	-698
235.978	-1154
236.043	-1198
236.108	-1364
236.173	-1278
236.238	-1413
236.303	-1409
236.368	-1280
236.433	-1407
236.498	-876
236.563	-675
236.627	-911
236.692	1744
236.757	1094
236.822	-709
236.887	-2045
236.952	-574
237.017	-1488
237.081	-737
237.146	-1385
237.211	195
237.276	1592
237.341	3676
237.405	-307
237.470	-890
237.535	-670
237.600	-133
237.664	-411
237.729	-1612
237.794	-1162
237.859	-881
237.923	-1927
237.988	-1190
238.053	-928
238.118	-793
238.182	-1109
238.247	845
238.312	-2203
238.376	-827
238.441	-2389
238.506	-223
238.570	-2611
238.635	128
238.700	-1419
238.764	-1116
238.829	-768
238.893	-1389
238.958	-796
239.023	-1253
239.087	-803
239.152	-1119
239.216	-1481
239.281	-1091
239.346	-1197
239.410	-1397
239.475	-1989
239.539	55
239.604	-1887
239.668	-712
239.733	-1398
239.797	-1203
239.862	-684
239.926	-1121
239.991	-1456
240.055	-1316
240.120	-808
240.184	-418
240.249	-1184
240.313	-1273
240.378	-998
240.442	-834
240.507	-552
240.571	-1116
240.635	-1076
240.700	-849
240.764	-1602
240.829	-1479
240.893	-1362
240.957	-1009
241.022	-98
241.086	-840
241.151	-1923
241.215	-2145
241.279	-534
241.344	-1080
241.408	-903
241.472	-2197
241.537	-225
241.601	-165
241.665	-2164
241.730	-1712
241.794	-546
241.858	-1725
241.922	-1187
241.987	-931
242.051	-1920
242.115	-2678
242.179	-1108
242.244	-1548
242.308	-339
242.372	-1176
242.436	-1759
242.501	-1309
242.565	-1468
242.629	-2384
242.693	-1112
242.757	-2372
242.822	-1362
242.886	-648
242.950	-1369
243.014	-2465
243.078	-1085
243.142	-1352
243.206	-2011
243.271	-1558
243.335	-1673
243.399	-1392
243.463	-293
243.527	2062
243.591	-955
243.655	-393
243.719	-1951
243.783	-281
243.847	-897
243.911	-1423
243.975	-1278
244.040	-2398
244.104	-957
244.168	-1029
244.232	-1622
244.296	-537
244.360	-1283
244.424	-2034
244.488	-1629
244.552	-1354
244.615	-2382
244.679	-1350
244.743	-1835
244.807	-1290
244.871	-1031
244.935	-446
244.999	-2151
245.063	-1521
245.127	-1077
245.191	-2097
245.255	-1260
245.319	-1119
245.383	-3019
245.446	-676
245.510	-2064
245.574	-996
245.638	-1898
245.702	-2489
245.766	-1098
245.829	-843
245.893	-1094
245.957	-1992
246.021	-372
246.085	-1540
246.149	-1697
246.212	197
246.276	-681
246.340	-1270
246.404	-491
246.467	-449
246.531	-2217
246.595	363
246.659	-687
246.722	-1905
246.786	-1164
246.850	-1339
246.913	-903
246.977	-1894
247.041	-1620
247.104	-1018
247.168	-948
247.232	-1616
247.295	583
247.359	-745
247.423	-925
247.486	-253
247.550	-441
247.614	-1848
247.677	-807
247.741	-1580
247.804	-1474
247.868	-1589
247.932	-1655
247.995	607
248.059	-1380
248.122	-1985
248.186	-361
248.249	-1021
248.313	2778
248.376	1949
248.440	197
248.503	-2472
248.567	874
248.630	-1179
248.694	249
248.757	116
248.821	2481
248.884	1211
248.948	-20
249.011	1144
249.075	3172
249.138	2666
249.202	-604
249.265	-1641
249.328	97
249.392	-1028
249.455	-729
249.519	-1663
249.582	-1002
249.645	-480
249.709	-1161
249.772	-1357
249.835	-648
249.899	-1307
249.962	-1037
250.025	-1707
250.089	-475
250.152	727
250.215	-810
250.279	-1613
250.342	-324
250.405	-1414
250.468	-1209
250.532	-1049
250.595	68
250.658	1038
250.721	4425
250.785	-407
250.848	734
250.911	-697
250.974	-206
251.038	-1236
251.101	1178
251.164	-1256
251.227	-138
251.290	-557
251.354	-218
251.417	3866
251.480	2088
251.543	2161
251.606	9029
251.669	3559
251.732	1053
251.795	1277
251.859	1752
251.922	4166
251.985	1668
252.048	472
252.111	-640
252.174	-1568
252.237	340
252.300	2753
252.363	2643
252.426	7473
252.489	-353
252.552	-301
252.615	-950
252.678	-180
252.741	1546
252.804	1655
252.867	6475
252.930	3636
252.993	817
253.056	608
253.119	-670
253.182	-1035
253.245	-1517
253.308	16
253.371	-1525
253.434	-1171
253.497	-156
253.559	1193
253.622	-28
253.685	-424
253.748	-581
253.811	-1118
253.874	-414
253.937	-1533
254.000	-1435
254.062	-1274
254.125	-269
254.188	564
254.251	-1127
254.314	-1033
254.376	-1070
254.439	-676
254.502	-726
254.565	-477
254.628	1133
254.690	-781
254.753	-1464
254.816	-1411
254.878	-682
254.941	39
255.004	-15
255.067	-847
255.129	-1152
255.192	-1389
255.255	-2340
255.317	-817
255.380	-1505
255.443	-1677
255.505	-1766
255.568	-2448
255.631	-1393
255.693	-1273
255.756	-2182
255.819	-322
255.881	-1751
255.944	-1284
256.006	-1621
256.069	-1276
256.132	-2641
256.194	-1271
256.257	-1071
256.319	-1596
256.382	-2148
256.444	-1144
256.507	-1499
256.569	-2471
256.632	-1117
256.694	-1948
256.757	-134
256.819	2706
256.882	-757
256.944	-1080
257.007	-734
257.069	-1684
257.132	-1162
257.194	-890
257.257	-1572
257.319	-2195
257.381	-2287
257.444	-20
257.506	3799
257.569	3303
257.631	-235
257.693	-934
257.756	-755
257.818	-1896
257.880	-2043
257.943	-1598
258.005	-2341
258.067	-2110
258.130	-1581
258.192	-1772
258.254	-821
258.317	-1769
258.379	-1394
258.441	-1170
258.503	-596
258.566	-893
258.628	-988
258.690	-2092
258.753	-1373
258.815	-1215
258.877	-1386
258.939	-1287
259.001	-1417
259.064	-1914
259.126	-2372
259.188	-1994
259.250	-1159
259.312	-2198
259.375	-1601
259.437	-1910
259.499	-1635
259.561	-1790
259.623	-1771
259.685	-2159
259.747	-1740
259.809	-414
259.872	-277
259.934	184
259.996	414
260.058	-589
260.120	-1946
260.182	-820
260.244	-2118
260.306	-2029
260.368	-910
260.430	-1939
260.492	-995
260.554	-790
260.616	-1095
260.678	337
260.740	-319
260.802	-1598
260.864	-1391
260.926	-2668
260.988	-639
261.050	-1455
261.112	-2156
261.174	152
261.236	-1302
261.298	-1343
261.359	-1368
261.421	-609
261.483	-1734
261.545	-1085
261.607	-1771
261.669	-1572
261.731	-1310
261.793	-398
261.854	-2682
261.916	-1393
261.978	-1710
262.040	-1541
262.102	-1113
262.164	-1224
262.225	-1704
262.287	-1922
262.349	-1761
262.411	-1593
262.472	-1366
262.534	-2442
262.596	-1881
262.658	-1306
262.719	-2964
262.781	-1380
262.843	-1881
262.904	-1210
262.966	-1714
263.028	-1213
263.090	475
263.151	2066
263.213	76
263.275	-1962
263.336	-1618
263.398	-832
263.459	-2504
263.521	-1127
263.583	-643
263.644	-2106
263.706	-1935
263.767	-2404
263.829	-1426
263.891	-2144
263.952	-2128
264.014	-2423
264.075	-2208
264.137	-1406
264.198	-1837
264.260	-2169
264.321	-1474
264.383	-1303
264.444	-885
264.506	-2435
264.567	-1855
264.629	-344
264.690	-2802
264.752	-1529
264.813	-1700
264.875	-2636
264.936	-1419
264.998	-1627
265.059	-2184
265.120	-1876
265.182	-1368
265.243	64
265.305	408
265.366	-1318
265.427	-1664
265.489	-1447
265.550	-2468
265.611	-2294
265.673	-2186
265.734	-2289
265.795	-1706
265.857	-2806
265.918	-2288
265.979	-1244
266.040	1593
266.102	255
266.163	-1184
266.224	-2121
266.286	-1442
266.347	-2266
266.408	-1848
266.469	-2108
266.530	-1643
266.592	-2057
266.653	-1440
266.714	-1669
266.775	-2472
266.836	-2388
266.898	-2618
266.959	-2121
267.020	-2553
267.081	-1440
267.142	-1566
267.203	-2121
267.264	-2353
267.326	-1447
267.387	-1099
267.448	-2886
267.509	-2128
267.570	-2271
267.631	-2239
267.692	-2633
267.753	-2047
267.814	-2575
267.875	-961
267.936	-1228
267.997	-1746
268.058	-2519
268.119	-1979
268.180	-2137
268.241	-2171
268.302	-1788
268.363	-1745
268.424	-1903
268.485	-2049
268.546	-2863
268.607	-1739
268.668	-2428
268.729	-2760
268.790	-2042
268.851	-2015
268.912	-1933
268.972	-1161
269.033	-1794
269.094	-2496
269.155	-1883
269.216	-2268
269.277	-2520
269.338	-1601
269.398	-1777
269.459	-2947
269.520	-1702
269.581	-1978
269.642	-2052
269.702	-2040
269.763	-1593
269.824	-2193
269.885	-1907
269.945	-1184
270.006	-2092
270.067	-2307
270.128	-1982
270.188	-2399
270.249	-1902
270.310	-2601
270.370	-1550
270.431	-2031
270.492	-1469
270.553	-2432
270.613	-2253
270.674	-1014
270.734	-1552
270.795	-1405
270.856	-1442
270.916	-2513
270.977	-1746
271.038	-1736
271.098	-1726
271.159	-2153
271.219	-2682
271.280	-1959
271.340	-1894
271.401	-1464
271.462	-1665
271.522	-1723
271.583	-1176
271.643	-2011
271.704	-2308
271.764	-1613
271.825	-1663
271.885	1488
271.946	2217
272.006	-1951
272.066	139
272.127	1342
272.187	-1253
272.248	-2213
272.308	-1760
272.369	646
272.429	-1338
272.489	-1389
272.550	-2453
272.610	-927
272.671	-1692
272.731	-1066
272.791	-1611
272.852	-2501
272.912	-1309
272.972	-1970
273.033	-1992
273.093	-2615
273.153	-1513
273.214	-1742
273.274	-2317
273.334	-40
273.394	110
273.455	-943
273.515	-693
273.575	412
273.635	-1225
273.696	-605
273.756	544
273.816	-637
273.876	-1242
273.936	-1849
273.997	-1138
274.057	-3403
274.117	-2057
274.177	-1697
274.237	1838
274.297	1679
274.358	-846
274.418	414
274.478	186
274.538	-1162
274.598	-1827
274.658	-519
274.718	-271
274.778	-994
274.838	-1836
274.898	-1584
274.958	143
275.018	1058
275.078	109
275.138	-2060
275.198	-1618
275.258	-1617
275.318	-1538
275.378	-1785
275.438	-1167
275.498	-1951
275.558	-934
275.618	816
275.678	112
275.738	-234
275.798	-1114
275.858	-2272
275.918	-2252
275.978	-1693
276.038	-1512
276.098	-1725
276.157	-1430
276.217	-383
276.277	-1612
276.337	-1360
276.397	-1772
276.457	-2271
276.517	-2249
276.576	-1630
276.636	-2413
276.696	-1531
276.756	-1103
276.815	-1425
276.875	-2016
276.935	-1707
276.995	-1724
277.055	-1742
277.114	-1889
277.174	-1272
277.234	265
277.293	-1887
277.353	-2077
277.413	-1663
277.472	-2012
277.532	-2053
277.592	-2114
277.651	-1714
277.711	-224
277.771	-1359
277.830	336
277.890	-1292
277.950	-579
278.009	1526
278.069	-456
278.128	-630
278.188	-1088
278.248	-1418
278.307	-216
278.367	-1352
278.426	-2373
278.486	-2026
278.545	-2244
278.605	-2142
278.664	-2750
278.724	-2222
278.783	-284
278.843	1220
278.902	-1014
278.962	-1688
279.021	-1802
279.081	-1543
279.140	-1993
279.199	-3196
279.259	-1987
279.318	-998
279.378	-1911
279.437	-1337
279.496	1727
279.556	7338
279.615	4037
279.675	-970
279.734	-760
279.793	-574
279.853	1149
279.912	-1073
279.971	-1939
280.031	-2374
280.090	-91
280.149	-164
280.208	-1221
280.268	4324
280.327	3783
280.386	-1475
280.445	-960
280.505	-564
280.564	-1449
280.623	-2355
280.682	-1352
280.742	-1390
280.801	-2314
280.860	-1699
280.919	-1675
280.978	-2131
281.037	-2499
281.097	-3165
281.156	-2084
281.215	-2563
281.274	-1982
281.333	723
281.392	-1691
281.451	-2293
281.510	-1852
281.569	-1937
281.628	-2294
281.688	-2116
281.747	-2455
281.806	-2587
281.865	-1983
281.924	-2589
281.983	-2491
282.042	-2813
282.101	-2764
282.160	-2061
282.219	-2470
282.278	-2137
282.337	-1673
282.396	-1368
282.454	-1624
282.513	-2628
282.572	-598
282.631	-917
282.690	-2215
282.749	-2593
282.808	-2088
282.867	-1420
282.926	-2578
282.985	-2770
283.043	-2655
283.102	-1803
283.161	-2556
283.220	-1166
283.279	-1233
283.338	-2062
283.396	-1756
283.455	-1386
283.514	-2178
283.573	-1405
283.631	-2007
283.690	-2016
283.749	-1750
283.808	-1845
283.866	-1167
283.925	-3019
283.984	-1216
284.043	-2577
284.101	-2358
284.160	-1923
284.219	-1980
284.277	-1458
284.336	-2404
284.395	-49
284.453	-1137
284.512	-1983
284.570	-1051
284.629	-2046
284.688	-1921
284.746	-2307
284.805	-2329
284.863	-1937
284.922	-1050
284.981	-1904
285.039	-1742
285.098	-124
285.156	4944
285.215	18991
285.273	15726
285.332	4950
285.390	840
285.449	-153
285.507	-1282
285.566	-1190
285.624	-2132
285.683	-1671
285.741	-1646
285.799	-1471
285.858	-1883
285.916	-2017
285.975	-2677
286.033	-2172
286.091	-2114
286.150	-2378
286.208	-2696
286.267	-1113
286.325	-2530
286.383	-1610
286.442	-1783
286.500	-2563
286.558	-1691
286.616	-2822
286.675	-2026
286.733	-2979
286.791	-2309
286.850	-2400
286.908	-2008
286.966	-1717
287.024	-1649
287.083	-2499
287.141	-2685
287.199	-2167
287.257	-2025
287.315	-1747
287.374	-2024
287.432	-1067
287.490	-1995
287.548	-2241
287.606	-2295
287.664	-1316
287.723	-1351
287.781	-1909
287.839	-2078
287.897	-2605
287.955	-2590
288.013	-2064
288.071	-214
288.129	5414
288.187	15904
288.245	3746
288.303	-460
288.361	-1489
288.419	-1259
288.477	-1606
288.535	-2471
288.593	-2072
288.651	-1862
288.709	-2266
288.767	-1865
288.825	-2613
288.883	-1965
288.941	-2317
288.999	-2393
289.057	-2578
289.115	-2605
289.173	-2240
289.231	-1934
289.289	-2052
289.346	-2128
289.404	-2376
289.462	-2275
289.520	-2216
289.578	-2271
289.636	-2447
289.694	-2688
289.751	-2030
289.809	-2285
289.867	-2885
289.925	-2079
289.983	-1987
290.040	-2892
290.098	-3121
290.156	-2746
290.214	-2232
290.271	-2469
290.329	-2301
290.387	-2955
290.444	-2127
290.502	-2967
290.560	-2321
290.617	-2283
290.675	-2726
290.733	-2394
290.790	-2794
290.848	-2306
290.906	-2188
290.963	-2335
291.021	-2159
291.078	-2587
291.136	-1943
291.194	-1868
291.251	-1376
291.309	-1984
291.366	-1650
291.424	-2502
291.481	-2818
291.539	-2755
291.596	-2437
291.654	-2380
291.711	-2720
291.769	-2193
291.826	-1922
291.884	-2527
291.941	-2393
291.999	-3120
292.056	-2295
292.114	-2661
292.171	-2752
292.228	-2100
292.286	-2073
292.343	-2478
292.401	-2008
292.458	-2788
292.515	-2585
292.573	-2184
292.630	-2360
292.687	-2431
292.745	-2852
292.802	-2158
292.859	-1107
292.917	-335
292.974	-1339
293.031	-1945
293.089	-2580
293.146	-2360
293.203	-2594
293.260	-2471
293.318	-2350
293.375	-2091
293.432	-3108
293.489	-2002
293.546	-2818
293.604	-2343
293.661	-1704
293.718	1840
293.775	-573
293.832	-1665
293.889	-2392
293.947	-2539
294.004	-2498
294.061	-2785
294.118	-2598
294.175	-732
294.232	-701
294.289	-2527
294.346	-2585
294.403	-2398
294.460	-2811
294.517	-2138
294.574	-2918
294.631	-2586
294.688	-2747
294.745	-1345
294.802	1597
294.859	170
294.916	-772
294.973	-1499
295.030	-1744
295.087	-3150
295.144	-2304
295.201	-1953
295.258	-2237
295.315	-2588
295.372	-351
295.429	243
295.486	-1516
295.542	-2364
295.599	-1137
295.656	-966
295.713	-2150
295.770	200
295.827	-1446
295.883	-1482
295.940	-2431
295.997	-2300
296.054	-1993
296.111	-2658
296.167	-2465
296.224	-2471
296.281	-2650
296.338	-1791
296.394	-2115
296.451	-2272
296.508	-1071
296.564	-613
296.621	-1158
296.678	673
296.734	1748
296.791	-1294
296.848	-1846
296.904	-1105
296.961	-804
297.018	966
297.074	-402
297.131	-2245
297.187	-1669
297.244	-1653
297.301	1249
297.357	4312
297.414	-531
297.470	-1963
297.527	-2288
297.583	-2569
297.640	-1718
297.696	-2937
297.753	-2270
297.809	-2391
297.866	-2394
297.922	-2423
297.979	-2161
298.035	-2937
298.092	-2313
298.148	-1224
298.204	-948
298.261	-1757
298.317	-1611
298.374	1832
298.430	-171
298.486	-1978
298.543	-2520
298.599	-2054
298.656	-1824
298.712	-2003
298.768	-884
298.824	-1493
298.881	-2059
298.937	-2452
298.993	-2529
299.050	-2092
299.106	-1649
299.162	-2220
299.218	-2126
299.275	-2586
299.331	-1832
299.387	-1550
299.443	831
299.500	733
299.556	-1327
299.612	-2037
299.668	-2050
299.724	-2758
299.780	-1524
299.837	-2022
299.893	-2104
299.949	290
300.005	828
300.061	60
300.117	2268
300.173	-239
300.229	-1490
300.285	-2144
300.341	-1091
300.397	-1252
300.453	-2190
300.510	-1732
300.566	-2452
300.622	-2323
300.678	-1367
300.734	-140
300.790	417
300.845	1195
300.901	-441
300.957	-676
301.013	-929
301.069	-1605
301.125	-2024
301.181	-2125
301.237	-1614
301.293	-2149
301.349	-2262
301.405	-2096
301.461	-2252
301.516	-2807
301.572	-2566
301.628	-2119
301.684	-2756
301.740	-1672
301.796	222
301.851	-2064
301.907	-1401
301.963	-151
302.019	914
302.074	8865
302.130	8081
302.186	2026
302.242	-784
302.297	-1211
302.353	-1276
302.409	-677
302.464	-1261
302.520	-1000
302.576	733
302.631	1667
302.687	-353
302.743	-1688
302.798	-2984
302.854	-2098
302.910	-2565
302.965	-2275
303.021	-1769
303.076	-2195
303.132	-1857
303.187	-1454
303.243	-2370
303.299	-2323
303.354	-2568
303.410	-2693
303.465	-2549
303.521	-2893
303.576	-1752
303.632	-2296
303.687	-1314
303.743	819
303.798	550
303.853	-1519
303.909	-1563
303.964	-3326
304.020	-2389
304.075	-1656
304.130	-1727
304.186	-632
304.241	-189
304.297	-219
304.352	-2022
304.358	-2006
304.407	-1883
304.449	-1691
304.463	-1625
304.518	-2089
304.539	-2074
304.573	-2052
304.629	-1272
304.630	-1272
304.684	-1289
304.720	-188
304.739	379
304.794	1995
304.811	1576
304.850	274
304.902	-1635
304.905	-1745
304.960	-1374
304.992	-1461
305.015	-1524
305.071	-2342
305.083	-2252
305.126	-1956
305.173	-2414
305.181	-2489
305.236	-2349
305.264	-1943
305.292	-1506
305.347	-2020
305.354	-1970
305.402	-1629
305.445	-1868
305.457	-1970
305.512	-1465
305.535	-1306
305.567	-997
305.622	-1661
305.626	-1636
305.678	-403
305.716	2026
305.733	2736
305.788	3263
305.807	2672
305.843	1910
305.897	3684
305.898	3698
305.953	3366
305.988	1432
306.008	398
306.063	-1392
306.078	-1538
306.118	-1596
306.168	-1618
306.173	-1611
306.228	-1746
306.259	-1681
306.283	-1541
306.338	-1277
306.349	-1308
306.393	-1567
306.440	-1516
306.448	-1486
306.503	-616
306.530	-1061
306.558	-1306
306.613	-502
306.620	-298
306.668	1907
306.711	4018
306.723	4045
306.778	2111
306.801	1747
306.833	1477
306.888	-212
306.892	-317
306.943	-965
306.982	-795
306.997	-671
307.052	-1120
307.072	-982
307.107	-691
307.162	-1262
307.163	-1258
307.217	-307
307.253	-59
307.272	-9
307.327	-88
307.343	-169
307.381	-224
307.434	-279
307.436	-216
307.491	1538
307.524	2492
307.546	2664
307.600	3840
307.614	3627
307.655	1671
307.704	-301
307.710	-312
307.765	-181
307.795	295
307.819	800
307.874	1138
307.885	1194
307.929	703
307.975	331
307.984	462
308.038	1591
308.065	2330
308.093	6370
308.148	15092
308.156	16807
308.202	28705
308.246	39155
308.257	37120
308.312	18233
308.336	10404
308.366	7740
308.421	4857
308.426	4539
308.475	2338
308.517	685
308.530	483
308.585	-99
308.607	-264
308.639	-99
308.694	354
308.697	366
308.748	1807
308.787	2972
308.803	2866
308.857	2547
308.877	2188
308.912	1751
308.967	993
308.967	980
309.021	2466
309.058	3099
309.076	4567
309.130	10054
309.148	11999
309.185	27219
309.238	51050
309.239	51311
309.293	56947
309.328	55294
309.348	45865
309.402	17815
309.418	10381
309.457	7142
309.508	3718
309.511	3676
309.566	2927
309.598	2677
309.620	3339
309.674	5321
309.688	5795
309.729	5281
309.778	4241
309.783	4167
309.837	3051
309.868	2558
309.892	4162
309.946	8045
309.959	8969
310.001	12927
310.049	17305
310.055	16601
310.109	9253
310.139	4936
310.163	3431
310.218	573
310.229	-30
310.272	-2
310.319	379
310.326	351
310.381	-202
310.409	-375
310.435	-222
310.489	6
310.499	39
310.543	95
310.589	145
310.598	216
310.652	568
310.679	702
310.706	640
310.760	415
310.769	384
310.814	315
310.859	306
310.868	384
310.923	615
310.948	700
310.977	707
311.031	792
311.038	772
311.085	657
311.128	587
311.139	649
311.193	909
311.218	951
311.247	740
311.301	558
311.308	499
311.356	495
311.398	503
311.410	532
311.464	653
311.488	654
311.518	733
311.572	977
311.578	980
311.626	1241
311.668	1470
311.680	1452
311.734	1311
311.758	1240
311.788	1054
311.842	664
311.847	610
311.896	1252
311.937	1834
311.950	1819
312.004	1659
312.027	1582
312.058	1535
312.112	1416
312.117	1395
312.165	1094
312.207	820
312.297	958
312.386	1075
312.476	835
312.566	3056
312.656	1031
312.745	631
312.835	1347
312.925	1377
313.015	716
313.104	689
313.194	661
313.284	60
313.374	1531
313.463	1587
313.553	704
313.643	296
313.732	554
313.822	185
313.912	1728
314.001	1130
314.091	317
314.180	1209
314.270	1633
314.360	1411
314.449	1238
314.539	699
314.628	791
314.718	483
314.808	972
314.897	957
314.987	1308
315.076	1497
315.166	1501
315.255	1111
315.345	1693
315.434	1059
315.524	961
315.613	1704
315.703	2252
315.792	1642
315.881	3923
315.971	755
316.060	3067
316.150	2802
316.239	2208
316.328	1211
316.418	1728
316.507	387
316.597	1731
316.686	1800
316.775	1382
316.865	2891
316.954	1460
317.043	326
317.133	739
317.222	1088
317.311	611
317.400	-141
317.490	1723
317.579	1904
317.668	1554
317.757	1574
317.847	3352
317.936	7706
318.025	5740
318.114	3464
318.203	1478
318.293	1533
318.382	3903
318.471	3716
318.560	4223
318.649	9903
318.738	2222
318.828	1883
318.917	1501
319.006	1901
319.095	4273
319.184	13605
319.273	10030
319.362	5687
319.451	2186
319.540	1236
319.629	3738
319.718	6462
319.807	2269
319.896	4023
319.985	16881
320.074	7645
320.163	1645
320.252	2390
320.341	2394
320.430	1671
320.519	2501
320.608	1425
320.697	1099
320.786	537
320.875	1875
320.964	2362
321.053	4235
321.142	5931
321.230	6346
321.319	3383
321.408	10504
321.497	4709
321.586	3424
321.675	3213
321.764	3790
321.852	2512
321.941	5988
322.030	4347
322.119	3065
322.207	11436
322.296	5932
322.385	2875
322.474	3048
322.562	12946
322.651	7479
322.740	4407
322.829	5591
322.917	4794
323.006	3773
323.095	2943
323.183	1413
323.272	2593
323.361	4826
323.449	13150
323.538	4670
323.626	8504
323.715	5734
323.804	1667
323.892	7824
323.981	5774
324.069	1256
324.158	3049
324.246	4320
324.335	1791
324.424	4469
324.512	2235
324.601	4131
324.689	13856
324.778	37346
324.866	6266
324.954	1653
325.043	629
325.131	1388
325.220	3037
325.308	3202
325.397	2750
325.485	1600
325.574	325
325.662	69
325.750	700
325.839	789
325.927	121
326.015	142
326.104	298
326.192	1907
326.280	152
326.369	33
326.457	1206
326.545	3279
326.634	1076
326.722	398
326.810	846
326.898	826
326.987	1020
327.075	2345
327.163	2989
327.251	2480
327.340	12589
327.428	27634
327.516	2126
327.604	372
327.692	395
327.781	-39
327.869	741
327.957	855
328.045	1176
328.133	255
328.221	361
328.309	42
328.397	356
328.485	868
328.574	1944
328.662	6693
328.750	3384
328.838	479
328.926	127
329.014	402
329.102	504
329.190	2131
329.278	1599
329.366	-278
329.454	-539
329.542	-204
329.630	-396
329.718	274
329.806	214
329.893	15
329.981	276
330.069	1005
330.157	5049
330.245	24471
330.333	13542
330.421	2134
330.509	1759
330.597	8456
330.684	4937
330.772	178
330.860	779
330.948	1697
331.036	152
331.123	-175
331.211	126
331.299	559
331.387	911
331.475	3396
331.562	95
331.650	1034
331.738	67
331.825	36
331.913	95
332.001	-758
332.089	-463
332.176	996
332.264	1822
332.352	2316
332.439	421
332.527	169
332.614	-212
332.702	270
332.790	-64
332.877	1665
332.965	2907
333.052	831
333.140	18
333.228	1594
333.315	-61
333.403	647
333.490	957
333.578	1118
333.665	2280
333.753	958
333.840	504
333.928	68
334.015	2938
334.103	3164
334.190	14857
334.278	4352
334.365	852
334.452	354
334.540	-193
334.627	-208
334.715	960
334.802	2094
334.889	11656
334.977	14798
335.064	2318
335.151	712
335.239	591
335.326	1068
335.413	6646
335.501	11526
335.588	388
335.675	676
335.762	611
335.850	1633
335.937	865
336.024	3105
336.111	15048
336.199	8365
336.286	1155
336.373	-152
336.460	-852
336.547	-145
336.635	583
336.722	840
336.809	-537
336.896	233
336.983	3597
337.070	11263
337.157	18444
337.245	8811
337.332	5695
337.419	-4
337.506	219
337.593	179
337.680	1744
337.767	10130
337.854	2800
337.941	1639
338.028	2772
338.115	-11
338.202	581
338.289	1581
338.376	9254
338.463	2707
338.550	4958
338.637	6919
338.724	919
338.811	2525
338.898	-272
338.984	-33
339.071	-30
339.158	309
339.245	2683
339.332	1705
339.419	301
339.506	1155
339.593	-1531
339.679	-226
339.766	-120
339.853	-30
339.940	2283
340.027	546
340.113	265
340.200	532
340.287	-448
340.374	553
340.460	1970
340.547	-542
340.634	1361
340.720	8340
340.807	4770
340.894	-693
340.980	2
341.067	-514
341.154	521
341.240	760
341.327	3803
341.414	487
341.500	-99
341.587	-46
341.674	-248
341.760	2052
341.847	2786
341.933	-67
342.020	-1118
342.106	-570
342.193	565
342.279	1521
342.366	405
342.452	2397
342.539	161
342.625	2761
342.712	8353
342.798	3273
342.885	-33
342.971	-1181
343.058	-905
343.144	-591
343.230	-178
343.317	-251
343.403	-1008
343.490	-160
343.576	-776
343.662	-538
343.749	-583
343.835	88
343.921	2505
344.008	19647
344.094	59975
344.180	13782
344.267	3418
344.353	12615
344.439	14459
344.525	3979
344.612	777
344.698	165
344.784	-71
344.870	-467
344.957	-1091
345.043	1049
345.129	-354
345.215	851
345.301	-198
345.387	-45
345.474	-1624
345.560	-1101
345.646	-1162
345.732	-729
345.818	-860
345.904	-223
345.990	-280
346.076	-976
346.162	-268
346.249	-337
346.335	-608
346.421	-834
346.507	3501
346.593	23011
346.679	4167
346.765	-445
346.851	-583
346.937	-333
347.023	-46
347.108	-687
347.194	-992
347.280	276
347.366	960
347.452	3282
347.538	25820
347.624	19722
347.710	14538
347.796	928
347.882	-856
347.967	-243
348.053	-1070
348.139	-222
348.225	-113
348.311	-1035
348.397	-931
348.482	-8
348.568	-160
348.654	-1009
348.740	-773
348.825	-1015
348.911	762
348.997	8555
349.083	25630
349.168	2809
349.254	-500
349.340	-47
349.425	-395
349.511	-699
349.597	-541
349.682	1169
349.768	12857
349.854	7016
349.939	-493
350.025	-1343
350.110	-857
350.196	-1320
350.282	-1242
350.367	-600
350.453	-760
350.538	-729
350.624	-472
350.709	-506
350.795	-1820
350.880	-571
350.966	-412
351.051	-138
351.137	-1058
351.222	-98
351.308	1535
351.393	10570
351.479	1315
351.564	-1855
351.649	-329
351.735	-950
351.820	-1237
351.906	-1767
351.991	-334
352.076	5128
352.162	10896
352.247	376
352.332	-643
352.418	448
352.503	1369
352.588	15611
352.673	13396
352.759	662
352.844	-323
352.929	-411
353.014	232
353.100	-11
353.185	860
353.270	1287
353.355	1542
353.441	-323
353.526	-998
353.611	1402
353.696	1897
353.781	803
353.866	-1151
353.952	-602
354.037	250
354.122	5615
354.207	4516
354.292	1283
354.377	-1106
354.462	-393
354.547	-781
354.632	86
354.717	-507
354.802	8
354.887	-1541
354.972	-1211
355.057	-864
355.142	-1062
355.227	-396
355.312	-284
355.397	890
355.482	8787
355.567	4255
355.652	2776
355.737	3370
355.822	13220
355.907	12984
355.991	887
356.076	-799
356.161	-702
356.246	-1140
356.331	14
356.416	819
356.501	22879
356.585	28631
356.670	1324
356.755	1474
356.840	1643
356.924	11211
357.009	60236
357.094	24114
357.179	2569
357.263	1063
357.348	1462
357.433	572
357.517	-15
357.602	-240
357.687	-896
357.771	-277
357.856	248
357.941	1068
358.025	8587
358.110	56836
358.195	28994
358.279	1448
358.364	386
358.448	6964
358.533	27480
358.617	19516
358.702	19153
358.787	5926
358.871	1381
358.956	920
359.040	-823
359.125	-1436
359.209	-1855
359.294	-764
359.378	-469
359.462	345
359.547	185
359.631	-939
359.716	-1565
359.800	-833
359.885	-579
359.969	-1703
360.053	-573
360.138	-1010
360.222	921
360.306	1239
360.391	381
360.475	-151
360.559	3970
360.644	6215
360.728	4756
360.812	9604
360.896	40006
360.981	13566
361.065	4172
361.149	306
361.233	384
361.318	-1281
361.402	-1662
361.486	47
361.570	-1461
361.654	405
361.739	2897
361.823	19321
361.907	41937
361.991	6014
362.075	1035
362.159	3799
362.243	3440
362.327	1287
362.411	4140
362.495	321
362.580	8
362.664	-767
362.748	-1708
362.832	-743
362.916	-387
363.000	4865
363.084	24903
363.168	46946
363.252	9091
363.336	1244
363.420	1719
363.503	9368
363.587	13471
363.671	1205
363.755	-429
363.839	1630
363.923	95
364.007	825
364.091	1351
364.175	969
364.258	18762
364.342	10914
364.426	14906
364.510	7014
364.594	2854
364.677	3518
364.761	30843
364.845	25316
364.929	4269
365.013	3164
365.096	1385
365.180	2946
365.264	2466
365.347	18566
365.431	7186
365.515	261
365.598	-958
365.682	-328
365.766	-1127
365.849	-605
365.933	-568
366.017	103
366.100	-1330
366.184	-1958
366.267	-492
366.351	-1135
366.435	-1749
366.518	-1479
366.602	-1596
366.685	-1731
366.769	-1784
366.852	-266
366.936	1780
367.019	50
367.103	-1037
367.186	652
367.270	-887
367.353	-1854
367.436	-489
367.520	-1991
367.603	-1103
367.687	-1568
367.770	1735
367.853	769
367.937	8994
368.020	18957
368.104	1698
368.187	808
368.270	2398
368.353	2002
368.437	862
368.520	4071
368.603	2966
368.687	7483
368.770	21088
368.853	3131
368.936	1594
369.020	1225
369.103	-1468
369.186	-1598
369.269	-1948
369.352	-127
369.436	1070
369.519	-280
369.602	-2351
369.685	-415
369.768	-927
369.851	-1245
369.934	-1870
370.018	-1811
370.101	452
370.184	1533
370.267	-733
370.350	-24
370.433	2043
370.516	14638
370.599	24580
370.682	2242
370.765	8800
370.848	11224
370.931	26174
371.014	7643
371.097	-1202
371.180	-998
371.263	-1235
371.346	-1947
371.429	-1843
371.511	-2278
371.594	132
371.677	1031
371.760	1514
371.843	1083
371.926	15394
372.009	51894
372.091	16305
372.174	6361
372.257	27495
372.340	9068
372.423	2383
372.505	3058
372.588	-583
372.671	3959
372.754	23857
372.836	12230
372.919	2855
373.002	9403
373.085	937
373.167	668
373.250	7328
373.332	25578
373.415	28722
373.498	69181
373.580	23267
373.663	25246
373.746	44848
373.828	6907
373.911	1679
373.993	106
374.076	8642
374.159	8594
374.241	2947
374.324	19622
374.406	13038
374.489	14449
374.571	62914
374.654	26742
374.736	7477
374.819	34489
374.901	46738
374.983	52820
375.066	6856
375.148	244
375.231	5451
375.313	15884
375.395	4386
375.478	-873
375.560	-550
375.643	-985
375.725	4808
375.807	38673
375.890	31482
375.972	5750
376.054	1906
376.136	3647
376.219	555
376.301	7133
376.383	36703
376.465	12847
376.548	3495
376.630	5734
376.712	30445
376.794	14096
376.877	-782
376.959	-2025
377.041	-650
377.123	-957
377.205	367
377.287	-2005
377.369	-1207
377.452	-2374
377.534	-1714
377.616	-1590
377.698	-1818
377.780	-2137
377.862	-634
377.944	-808
378.026	-1630
378.108	-1416
378.190	-1955
378.272	-1229
378.354	-1765
378.436	-2632
378.518	-2191
378.600	1518
378.682	2613
378.764	11949
378.846	10897
378.928	812
379.010	1585
379.091	-36
379.173	-1935
379.255	-1748
379.337	-1218
379.419	3412
379.501	21121
379.583	7170
379.664	-547
379.746	561
379.828	11498
379.910	18279
379.991	17524
380.073	1092
380.155	-1806
380.237	-2290
380.318	-2417
380.400	-1784
380.482	-716
380.564	1161
380.645	402
380.727	1190
380.809	73
380.890	-1850
380.972	-2078
381.053	-2212
381.135	-969
381.217	1580
381.298	13606
381.380	5451
381.461	2212
381.543	24325
381.624	37625
381.706	4193
381.787	-466
381.869	303
381.951	7566
382.032	49245
382.113	34788
382.195	2717
382.276	1159
382.358	4501
382.439	28201
382.521	28651
382.602	50897
382.684	17923
382.765	31007
382.846	26950
382.928	25040
383.009	12543
383.090	5133
383.172	29877
383.253	61311
383.334	21028
383.416	38091
383.497	19680
383.578	2464
383.659	4103
383.741	22400
383.822	89050
383.903	49042
383.984	17184
384.066	49017
384.147	29922
384.228	3303
384.309	619
384.390	343
384.471	-997
384.553	-925
384.634	340
384.715	710
384.796	-1301
384.877	-334
384.958	10118
385.039	15249
385.120	3452
385.201	591
385.282	-486
385.363	-167
385.444	-753
385.525	1109
385.606	19319
385.687	21352
385.768	1387
385.849	1298
385.930	17973
386.011	45664
386.092	10607
386.173	158
386.254	-1413
386.335	-63
386.416	-948
386.496	5186
386.577	12657
386.658	2069
386.739	-685
386.820	-287
386.901	-1605
386.981	-1112
387.062	-2186
387.143	-716
387.224	11169
387.304	13496
387.385	2129
387.466	-1738
387.547	73
387.627	-1328
387.708	1598
387.789	23982
387.869	36166
387.950	8998
388.031	-450
388.111	-3297
388.192	731
388.273	1702
388.353	-337
388.434	-220
388.514	1576
388.595	24187
388.676	36533
388.756	14228
388.837	11042
388.917	6700
388.998	-1466
389.078	-1273
389.159	-1586
389.239	-2444
389.320	-112
389.400	-1466
389.480	1501
389.561	15132
389.641	8625
389.722	-385
389.802	173
389.883	2786
389.963	20154
390.043	10995
390.124	-647
390.204	1332
390.284	13503
390.365	7331
390.445	4628
390.525	15905
390.605	17738
390.686	6314
390.766	-127
390.846	-690
390.927	-2297
391.007	-2457
391.087	-1328
391.167	-1939
391.247	-2812
391.328	-667
391.408	-520
391.488	-851
391.568	-2778
391.648	-1170
391.728	-156
391.808	41
391.888	-498
391.969	5517
392.049	14371
392.129	3721
392.209	2581
392.289	19501
392.369	9126
392.449	2521
392.529	309
392.609	345
392.689	1098
392.769	16239
392.849	14617
392.929	5013
393.009	21626
393.089	17070
393.169	5734
393.248	18052
393.328	112814
393.408	145381
393.488	32534
393.568	5322
393.648	1473
393.728	-302
393.807	-2231
393.887	22
393.967	-529
394.047	197
394.127	408
394.206	2203
394.286	11581
394.366	84154
394.446	108516
394.525	19813
394.605	2091
394.685	786
394.764	4306
394.844	8702
394.924	5470
395.003	1005
395.083	-1205
395.163	-996
395.242	-1373
395.322	-725
395.402	-2699
395.481	-59
395.561	1316
395.640	10460
395.720	8544
395.799	10899
395.879	9247
395.958	3421
396.038	17693
396.117	112099
396.197	143736
396.276	33109
396.356	5286
396.435	3191
396.515	1416
396.594	1274
396.673	5719
396.753	24234
396.832	113238
396.912	98079
396.991	21555
397.070	3435
397.150	-1494
397.229	-59
397.308	-312
397.388	2334
397.467	36
397.546	-1078
397.625	-3716
397.705	-162
397.784	-923
397.863	-2383
397.942	-2664
398.022	-2409
398.101	-448
398.180	9112
398.259	3654
398.338	93
398.417	-1869
398.497	-1859
398.576	-959
398.655	-3109
398.734	-2054
398.813	-2362
398.892	312
398.971	10153
399.050	3588
399.129	-2605
399.208	-2346
399.287	-1721
399.366	-3107
399.445	-2763
399.524	-2190
399.603	-3002
399.682	-1749
399.761	477
399.840	11508
399.919	9547
399.998	-1478
400.077	-3208
400.156	-3826
400.235	-986
400.313	-2711
400.392	-2627
400.471	3422
400.550	10154
400.629	-238
400.708	-2326
400.786	-2593
400.865	-346
400.944	-114
401.023	36
401.102	-2733
401.180	-2430
401.259	-3194
401.338	-2118
401.416	-1679
401.495	-3170
401.574	-2255
401.652	-3269
401.731	-1670
401.810	-2905
401.888	-2650
401.967	-2679
402.046	-2614
402.124	-1596
402.203	-3077
402.281	-2192
402.360	-2158
402.438	501
402.517	-1382
402.596	-2417
402.674	-2365
402.753	-2610
402.831	-3314
402.910	-1903
402.988	-67
403.066	11946
403.145	7570
403.223	1333
403.302	7764
403.380	6073
403.459	5655
403.537	-45
403.615	-1996
403.694	-3556
403.772	-1808
403.850	-2487
403.929	-2543
404.007	-3337
404.085	-1443
404.164	-2593
404.242	-2795
404.320	-1708
404.398	879
404.477	3809
404.555	33150
404.633	33301
404.711	3734
404.789	-461
404.868	-2926
404.946	-3395
405.024	-2329
405.102	-2920
405.180	-3309
405.258	-3194
405.336	-2436
405.415	-3074
405.493	-1344
405.571	-1754
405.649	-3198
405.727	-3472
405.805	-1645
405.883	-1843
405.961	-2441
406.039	-2650
406.117	-2783
406.195	-1427
406.273	1871
406.351	29909
406.429	18334
406.507	-288
406.585	-2218
406.663	-1538
406.740	-1527
406.818	-2537
406.896	-3489
406.974	-1910
407.052	-1607
407.130	12998
407.208	25101
407.285	2973
407.363	-3121
407.441	-2789
407.519	-2624
407.596	-2162
407.674	-990
407.752	2482
407.830	4289
407.907	-471
407.985	-2964
408.063	-2237
408.141	-3514
408.218	-2458
408.296	-3480
408.373	-2947
408.451	-2504
408.529	-3490
408.606	-3288
408.684	-2938
408.762	-2617
408.839	-2920
408.917	-2476
408.994	-2419
409.072	-3616
409.149	-2887
409.227	-2340
409.304	-2766
409.382	-2342
409.459	-2607
409.537	-1316
409.614	-1634
409.692	-2981
409.769	-3495
409.846	-1684
409.924	-321
410.001	-3736
410.079	-1608
410.156	-1653
410.233	-2603
410.311	-3508
410.388	-3097
410.465	-3182
410.543	-2849
410.620	-2585
410.697	-1743
410.775	-2489
410.852	-3622
410.929	-1332
411.006	-1371
411.083	-3118
411.161	-3106
411.238	-2869
411.315	-2567
411.392	-3487
411.469	-2030
411.547	-2239
411.624	-4091
411.701	-3396
411.778	-2977
411.855	-1443
411.932	-3224
412.009	-3407
412.086	-1993
412.163	-3080
412.240	-2942
412.317	-2359
412.394	-2748
412.471	-2473
412.548	-2976
412.625	-2806
412.702	-2085
412.779	-1961
412.856	-2889
412.933	-4037
413.010	-3268
413.087	-2880
413.164	2216
413.241	6721
413.318	-1107
413.395	-1499
413.471	-2193
413.548	-1739
413.625	-2773
413.702	-3477
413.779	-2601
413.855	-2905
413.932	-3644
414.009	-3533
414.086	-3075
414.162	-2530
414.239	-1996
414.316	1163
414.393	13093
414.469	2360
414.546	-2398
414.623	-2833
414.699	-2760
414.776	-3004
414.853	-3410
414.929	-3020
415.006	-2852
415.082	-2818
415.159	-2555
415.236	-2851
415.312	-2059
415.389	-1929
415.465	-2051
415.542	-2121
415.618	-3618
415.695	-2485
415.771	-2295
415.848	-2545
415.924	-3078
416.000	-3353
416.077	-2170
416.153	-3913
416.230	-4304
416.306	-2991
416.383	-2945
416.459	-3241
416.535	-3376
416.612	-2901
416.688	-2701
416.764	-3631
416.841	-3890
416.917	-3320
416.993	-2250
417.069	-3075
417.146	-2759
417.222	-2129
417.298	-2748
417.374	-3823
417.451	-2715
417.527	-2804
417.603	-2660
417.679	-2623
417.755	-2744
417.831	-3328
417.908	-2638
417.984	-3182
418.060	-3955
418.136	-1942
418.212	-890
418.288	-2059
418.364	-2673
418.440	-3390
418.516	-2016
418.592	-2336
418.668	-554
418.744	764
418.820	502
418.896	-3006
418.972	-3322
419.048	-3401
419.124	-601
419.200	-2103
419.276	-3174
419.352	-3643
419.428	-3281
419.504	-3113
419.579	-2390
419.655	-3051
419.731	-3334
419.807	-591
419.883	1315
419.959	705
420.034	-2334
420.110	-2077
420.186	5512
420.262	6000
420.337	-2183
420.413	-2843
420.489	-3279
420.565	-1913
420.640	-3297
420.716	-2604
420.792	-4114
420.867	-2430
420.943	-4260
421.019	-2167
421.094	-3143
421.170	-2840
421.245	-3048
421.321	-2443
421.397	-3364
421.472	-2220
421.548	-829
421.623	-430
421.699	-1654
421.774	-2357
421.850	-3212
421.925	-2135
422.001	-1449
422.076	-2438
422.152	-2652
422.227	-855
422.302	-1131
422.378	240
422.453	2368
422.529	12382
422.604	55443
422.679	135290
422.755	84788
422.830	19875
422.905	4334
422.981	-465
423.056	-1233
423.131	-793
423.207	-1223
423.282	-2625
423.357	-205
423.432	-787
423.508	-2163
423.583	306
423.658	261
423.733	-2233
423.808	-2360
423.883	-2071
423.959	-2296
424.034	-2493
424.109	-2078
424.184	-4090
424.259	-2876
424.334	-2915
424.409	-3055
424.484	-3481
424.559	-2429
424.634	-3016
424.709	-2197
424.784	-2886
424.859	-3043
424.934	-3119
425.009	2203
425.084	7725
425.159	749
425.234	-1858
425.309	-3867
425.384	-3559
425.459	-3847
425.534	-3141
425.609	-3364
425.683	-3674
425.758	-2740
425.833	-3071
425.908	-2308
425.983	-972
426.058	7610
426.132	2360
426.207	-2427
426.282	-1852
426.357	-3543
426.431	-3354
426.506	-2034
426.581	-3023
426.655	-2842
426.730	-3439
426.805	-3683
426.879	-2330
426.954	-3121
427.029	-2035
427.103	5512
427.178	25057
427.253	10832
427.327	-2322
427.402	-2802
427.476	-2644
427.551	-2841
427.625	-3325
427.700	-2622
427.774	-3033
427.849	-3080
427.923	-2937
427.998	-3116
428.072	-3488
428.147	-1955
428.221	1895
428.296	14707
428.370	8518
428.444	-2433
428.519	-2445
428.593	-2315
428.667	-1721
428.742	-1783
428.816	-1031
428.890	5716
428.965	14897
429.039	1868
429.113	-751
429.188	-2166
429.262	-3232
429.336	-1831
429.410	1557
429.485	12
429.559	-1776
429.633	-1478
429.707	-3081
429.781	-1931
429.855	6572
429.930	17002
430.004	5188
430.078	7113
430.152	7253
430.226	21742
430.300	30371
430.374	1677
430.448	-1445
430.522	-564
430.596	6423
430.670	4926
430.744	17984
430.818	38652
430.892	7137
430.966	-2603
431.040	-1962
431.114	-3831
431.188	-4022
431.262	-4052
431.336	-3496
431.410	-1970
431.484	-525
431.557	-220
431.631	-2758
431.705	-3610
431.779	-1562
431.853	12187
431.927	10515
432.000	-1613
432.074	-3628
432.148	-3560
432.222	-3199
432.295	-3450
432.369	-3647
432.443	-2296
432.516	4248
432.590	25974
432.664	8271
432.737	-1763
432.811	-3172
432.885	-3083
432.958	-2810
433.032	-3621
433.106	-3466
433.179	-3331
433.253	-3591
433.326	-3450
433.400	-4279
433.473	-3074
433.547	-4770
433.620	-3194
433.694	-2960
433.767	-2082
433.841	-3439
433.914	-4077
433.988	-3144
434.061	-4166
434.134	-3601
434.208	-3352
434.281	-4268
434.355	-3606
434.428	-3549
434.501	-3889
434.575	-4078
434.648	-3596
434.721	-4022
434.795	-3748
434.868	-3747
434.941	-3683
435.014	-4143
435.088	-3840
435.161	-3737
435.234	-2946
435.307	-2841
435.381	-2529
435.454	-3986
435.527	-2916
435.600	-3705
435.673	-2984
435.746	-3491
435.819	-3615
435.892	-3815
435.966	-4130
436.039	-4066
436.112	-3122
436.185	-4207
436.258	-3710
436.331	-4922
436.404	-3963
436.477	-4122
436.550	-3782
436.623	-3266
436.696	-3742
436.769	-3649
436.842	-3704
436.915	-3772
436.987	-3041
437.060	-3497
437.133	-3826
437.206	-3971
437.279	-3323
437.352	-3838
437.425	-4081
437.498	-3254
437.570	-2410
437.643	-2546
437.716	-3338
437.789	-3750
437.861	-3871
437.934	-2715
438.007	-2983
438.080	-2827
438.152	-3099
438.225	-2120
438.298	7671
438.370	38658
438.443	15187
438.516	-1131
438.588	-3493
438.661	-4462
438.734	-3721
438.806	-3677
438.879	-2603
438.951	-3873
439.024	-3311
439.096	-3830
439.169	-3523
439.241	-4070
439.314	-4187
439.386	-4355
439.459	-2794
439.531	-2884
439.604	-3874
439.676	-3455
439.749	-3589
439.821	-3760
439.893	-3619
439.966	-4930
440.038	-4464
440.110	-3599
440.183	-3320
440.255	-3996
440.327	-2811
440.400	267
440.472	19624
440.544	16109
440.617	-2133
440.689	-3448
440.761	-3075
440.833	-2512
440.905	-2920
440.978	-3871
441.050	-3985
441.122	-3232
441.194	-3912
441.266	-3696
441.338	-4344
441.411	-2517
441.483	2381
441.555	8602
441.627	-1343
441.699	-3283
441.771	-4021
441.843	-3595
441.915	-3501
441.987	-3916
442.059	-4117
442.131	-3221
442.203	-3303
442.275	-2829
442.347	-2431
442.419	-3424
442.491	1275
442.563	15573
442.635	6516
442.706	381
442.778	-196
442.850	-3068
442.922	-3601
442.994	-3396
443.066	-3396
443.137	-2747
443.209	-3309
443.281	-2533
443.353	-2316
443.425	3261
443.496	30189
443.568	35146
443.640	11379
443.711	-1081
443.783	-3044
443.855	-3915
443.926	-3261
443.998	-3394
444.070	-4105
444.141	-4189
444.213	-2967
444.285	-1597
444.356	-2938
444.428	-2951
444.499	-3989
444.571	-4195
444.642	-3715
444.714	-3843
444.785	-2748
444.857	-2870
444.928	-1756
445.000	-2391
445.071	-2331
445.143	-2547
445.214	-2791
445.285	-1909
445.357	1349
445.428	14803
445.500	56241
445.571	35023
445.642	15761
445.714	3233
445.785	726
445.856	-3403
445.928	-2294
445.999	-3547
446.070	-3483
446.141	-3120
446.213	-1603
446.284	-3383
446.355	-2932
446.426	-4256
446.497	-2658
446.569	-3410
446.640	-3484
446.711	-2668
446.782	-3537
446.853	-3615
446.924	-3461
446.995	-3497
447.066	-3365
447.138	-3717
447.209	-2593
447.280	-4359
447.351	-4094
447.422	-4725
447.493	-3298
447.564	-3652
447.635	-2939
447.706	-2781
447.777	-4397
447.847	-5005
447.918	-4545
447.989	-4016
448.060	-2646
448.131	-2851
448.202	-2945
448.273	-3079
448.344	-2808
448.414	-3520
448.485	-4038
448.556	-3719
448.627	-4217
448.698	-3093
448.768	-4173
448.839	-3673
448.910	-4432
448.981	-3277
449.051	-3216
449.122	-3437
449.193	-3919
449.263	-3806
449.334	-3914
449.405	-3639
449.475	-2137
449.546	-3084
449.616	-4022
449.687	-2905
449.758	-3666
449.828	-4440
449.899	-4294
449.969	-4510
450.040	-3966
450.110	-3110
450.181	-3960
450.251	-3816
450.322	-3569
450.392	-4133
450.463	-3676
450.533	-4125
450.604	-4146
450.674	-4348
450.744	-3795
450.815	-4547
450.885	-3458
450.955	-4077
451.026	-3912
451.096	-4583
451.166	-3576
451.237	-3683
451.307	-515
451.377	-3051
451.447	-4668
451.518	-3765
451.588	-3823
451.658	-3495
451.728	-3415
451.799	-1861
451.869	-106
451.939	-3048
452.009	-4279
452.079	-3593
452.149	-3596
452.219	-3629
452.289	-903
452.360	-2044
452.430	-3517
452.500	-4293
452.570	-3518
452.640	-2764
452.710	-1964
452.780	696
452.850	263
452.920	-616
452.990	-2870
453.060	-3321
453.129	-3047
453.199	-2644
453.269	-1389
453.339	3639
453.409	8690
453.479	7020
453.549	13543
453.619	14352
453.688	3901
453.758	-3031
453.828	-4191
453.898	-3275
453.968	-3517
454.037	-3757
454.087	-3906
454.107	-3984
454.168	-4347
454.177	-4420
454.247	-3764
454.249	-3765
454.316	-4258
454.330	-4354
454.386	-4795
454.411	-4240
454.456	-3347
454.492	-2823
454.525	-2376
454.574	-2600
454.595	-2722
454.655	-4112
454.665	-4350
454.734	-4079
454.736	-4041
454.804	-3106
454.817	-2949
454.873	-2329
454.898	-1644
454.943	-408
454.979	-1935
455.013	-3376
455.060	-3387
455.082	-3429
455.141	-3563
455.152	-3600
455.221	-2193
455.222	-2165
455.291	-354
455.303	-280
455.360	-135
455.384	2665
455.430	7931
455.465	6359
455.499	4790
455.546	1212
455.569	-476
455.627	-1567
455.638	-1770
455.707	-3264
455.708	-3250
455.777	-3548
455.789	-3527
455.846	-3464
455.869	-3360
455.916	-3085
455.950	-3158
455.985	-3316
456.031	-3686
456.054	-3839
456.112	-3496
456.124	-3463
456.193	-3655
456.193	-3669
456.262	-3499
456.274	-3462
456.332	-3352
456.355	-3332
456.401	-3391
456.436	-3343
456.470	-3327
456.516	-3432
456.540	-3416
456.597	-3419
456.609	-3479
456.678	-3223
456.678	-3233
456.747	-3418
456.759	-3462
456.817	-3675
456.840	-3489
456.886	-3150
456.920	-3073
456.955	-3022
457.001	-3005
457.024	-3038
457.082	-2938
457.093	-2901
457.162	-2853
457.163	-2842
457.232	-2645
457.243	-2662
457.301	-2907
457.324	-3026
457.370	-3109
457.405	-2873
457.439	-2732
457.485	-3118
457.508	-3305
457.566	-2794
457.577	-2708
457.646	-3212
457.647	-3197
457.715	-2396
457.727	-2355
457.784	-2116
457.808	-1728
457.853	-1157
457.889	-621
457.922	-250
457.969	-1138
457.991	-1459
458.050	-1669
458.060	-1701
458.129	-923
458.130	-860
458.198	1915
458.211	1547
458.267	-631
458.292	-1413
458.336	-2162
458.372	-2043
458.405	-2035
458.453	-2407
458.474	-2477
458.533	-746
458.543	-502
458.611	2717
458.614	2770
458.680	2652
458.694	1801
458.749	-583
458.775	-1356
458.818	-2733
458.855	-2430
458.887	-2240
458.936	-2562
458.955	-2647
459.016	-2891
459.024	-2881
459.093	-2039
459.097	-2025
459.162	-2730
459.177	-2780
459.230	-2361
459.257	-2042
459.299	-1875
459.338	-2072
459.368	-2297
459.418	-2642
459.437	-2657
459.499	-2124
459.505	-2062
459.574	-1893
459.579	-1869
459.643	-2170
459.659	-2279
459.711	-2240
459.740	-2219
459.780	-2412
459.820	-2267
459.849	-2152
459.900	-2224
459.917	-2198
459.981	-2146
459.986	-2161
460.054	-1791
460.061	-1856
460.123	-2503
460.141	-2449
460.191	-2039
460.222	-1924
460.260	-1827
460.302	-1390
460.328	-1262
460.382	-1251
460.397	-1252
460.462	-2095
460.465	-2126
460.534	-1514
460.543	-1543
460.602	-975
460.623	-410
460.671	861
460.703	2751
460.739	4055
460.783	4321
460.808	4145
460.864	347
460.876	-312
460.944	-1630
460.945	-1640
461.013	-1718
461.024	-1698
461.081	-1722
461.104	-1500
461.150	-966
461.184	-1027
461.218	-1233
461.264	-1129
461.286	-1175
461.345	-1510
461.355	-1517
461.423	-1502
461.425	-1503
461.491	-1761
461.505	-1705
461.559	-1242
461.585	-1253
461.628	-1205
461.665	-831
461.696	-471
461.745	416
461.764	457
461.825	-318
461.832	-329
461.901	-1060
461.905	-1057
461.969	-1477
461.985	-1525
462.037	-768
462.065	-593
462.105	-1148
462.145	-1317
462.173	-1083
462.225	-869
462.241	-822
462.305	-365
462.310	-366
462.378	-517
462.385	-606
462.446	-1383
462.465	-1480
462.514	-1539
462.545	-1562
462.582	-1369
462.625	-1262
462.650	-1270
462.705	-1125
462.718	-1163
462.785	-1277
462.786	-1277
462.854	-1566
462.865	-1558
462.922	-1138
462.945	-1033
462.990	-842
463.025	-860
463.058	-1122
463.104	-1253
463.126	-1168
463.184	-1110
463.194	-1032
463.262	-698
463.264	-668
463.330	-711
463.344	-781
463.398	-503
463.424	-493
463.466	-859
463.504	-910
463.533	-640
463.583	-563
463.601	-679
463.663	-976
463.669	-982
463.737	-845
463.743	-865
463.805	-566
463.823	-359
463.873	-110
463.903	2
463.940	110
463.982	160
464.008	217
464.062	233
464.076	197
464.142	-389
464.144	-397
464.211	-358
464.221	-379
464.279	-429
464.301	-533
464.347	-606
464.381	-368
464.414	-416
464.461	-744
464.482	-698
464.540	-503
464.550	-516
464.617	-698
464.620	-704
464.685	102
464.699	226
464.753	-158
464.779	-241
464.820	130
464.859	376
464.888	102
464.938	-386
464.956	-177
465.018	545
465.023	514
465.091	-77
465.098	-132
465.158	63
465.177	127
465.226	-115
465.257	-304
465.293	-255
465.336	-261
465.361	-158
465.416	202
465.428	329
465.495	968
465.496	972
465.563	349
465.575	256
465.631	1023
465.654	1432
465.698	849
465.734	86
465.765	208
465.813	391
465.833	197
465.893	-262
465.900	-198
465.968	438
465.972	460
466.035	-186
466.052	-340
466.102	-99
466.131	41
466.170	57
466.210	14
466.237	170
466.290	544
466.304	456
466.369	-95
466.372	-77
466.439	335
466.449	381
466.506	409
466.528	409
466.573	391
466.607	396
466.641	992
466.687	1832
466.708	1950
466.766	2230
466.775	2109
466.842	1133
466.845	1079
466.909	959
466.925	944
466.977	-206
467.004	-834
467.044	-93
467.083	670
467.111	689
467.163	694
467.178	732
467.242	866
467.245	893
467.312	1338
467.321	1391
467.379	759
467.400	523
467.446	792
467.480	980
467.559	1574
467.638	293
467.717	346
467.796	1544
467.875	848
467.955	1040
468.034	1055
468.113	1076
468.192	2641
468.271	736
468.350	760
468.429	1278
468.508	833
468.588	-95
468.667	830
468.746	866
468.825	1010
468.904	1021
468.983	1233
469.062	680
469.141	1852
469.220	258
469.299	1535
469.378	148
469.456	1393
469.535	698
469.614	678
469.693	148
469.772	1556
469.851	1360
469.930	984
470.009	1353
470.088	487
470.166	281
470.245	750
470.324	1185
470.403	1193
470.482	1097
470.560	1368
470.639	663
470.718	906
470.797	1044
470.875	1066
470.954	135
471.033	670
471.111	474
471.190	-178
471.269	437
471.347	917
471.426	1121
471.505	1007
471.583	530
471.662	847
471.740	201
471.819	80
471.898	123
471.976	566
472.055	696
472.133	427
472.212	527
472.290	1234
472.369	28
472.447	802
472.526	26
472.604	1896
472.683	167
472.761	1033
472.839	640
472.918	1428
472.996	341
473.075	682
473.153	1069
473.231	245
473.310	1217
473.388	117
473.466	1012
473.545	1091
473.623	1008
473.701	958
473.780	368
473.858	417
473.936	1531
474.014	-441
474.093	475
474.171	1444
474.249	792
474.327	957
474.405	23
474.484	254
474.562	304
474.640	682
474.718	734
474.796	841
474.874	659
474.952	-19
475.030	303
475.108	477
475.187	221
475.265	1005
475.343	-41
475.421	1185
475.499	-39
475.577	900
475.655	1041
475.733	818
475.811	1010
475.889	658
475.966	1243
476.044	239
476.122	889
476.200	943
476.278	489
476.356	976
476.434	342
476.512	-34
476.590	695
476.667	746
476.745	144
476.823	951
476.901	216
476.979	649
477.056	502
477.134	629
477.212	2
477.290	454
477.367	444
477.445	176
477.523	-266
477.601	794
477.678	-35
477.756	616
477.834	509
477.911	775
477.989	-140
478.066	706
478.144	-73
478.222	496
478.299	-43
478.377	373
478.454	606
478.532	319
478.609	90
478.687	700
478.764	-201
478.842	414
478.919	47
478.997	103
479.074	411
479.152	267
479.229	340
479.307	425
479.384	615
479.461	555
479.539	-57
479.616	-187
479.694	616
479.771	232
479.848	-70
479.926	-305
480.003	873
480.080	-81
480.157	862
480.235	431
480.312	333
480.389	467
480.467	-194
480.544	207
480.621	905
480.698	397
480.775	1337
480.853	265
480.930	359
481.007	77
481.084	110
481.161	756
481.238	1122
481.315	269
481.392	219
481.470	828
481.547	241
481.624	486
481.701	-301
481.778	632
481.855	-363
481.932	277
482.009	466
482.086	-340
482.163	151
482.240	461
482.317	1440
482.393	884
482.470	950
482.547	-41
482.624	-178
482.701	-657
482.778	209
482.855	-112
482.932	-209
483.009	120
483.085	-57
483.162	361
483.239	206
483.316	-36
483.393	55
483.469	188
483.546	109
483.623	193
483.699	-146
483.776	-36
483.853	326
483.930	1276
484.006	678
484.083	3040
484.160	1117
484.236	3474
484.313	2512
484.389	1208
484.466	1830
484.543	1349
484.619	1370
484.696	1616
484.772	477
484.849	885
484.925	1308
485.002	1212
485.078	796
485.155	2085
485.231	-243
485.308	527
485.384	886
485.461	1624
485.537	871
485.614	2583
485.690	1738
485.766	997
485.843	907
485.919	1815
485.995	1988
486.072	860
486.148	552
486.224	1148
486.301	646
486.377	815
486.453	-420
486.530	898
486.606	2276
486.682	2168
486.758	1565
486.835	2274
486.911	1517
486.987	2392
487.063	2879
487.139	3390
487.215	3416
487.292	2412
487.368	654
487.444	405
487.520	1242
487.596	622
487.672	2183
487.748	5474
487.824	7903
487.900	3369
487.976	1494
488.052	382
488.128	1876
488.204	765
488.280	1613
488.356	755
488.432	2271
488.508	2237
488.584	1235
488.660	54
488.736	91
488.812	960
488.888	1388
488.964	1888
489.039	2948
489.115	6474
489.191	4324
489.267	1589
489.343	1002
489.418	1689
489.494	235
489.570	-473
489.646	1476
489.722	1360
489.797	1045
489.873	1260
489.949	1339
490.024	1832
490.100	606
490.176	1125
490.251	622
490.327	1708
490.403	704
490.478	1070
490.554	184
490.629	90
490.705	516
490.781	945
490.856	-200
490.932	1120
491.007	272
491.083	544
491.158	-12
491.234	168
491.309	761
491.385	1304
491.460	600
491.536	1257
491.611	627
491.686	938
491.762	1186
491.837	2541
491.913	4074
491.988	5025
492.063	6397
492.139	2377
492.214	1156
492.289	269
492.365	-16
492.440	596
492.515	194
492.590	321
492.666	3
492.741	1087
492.816	528
492.891	321
492.967	579
493.042	551
493.117	484
493.192	1271
493.267	1641
493.342	4691
493.418	8385
493.493	2353
493.568	416
493.643	748
493.718	214
493.793	656
493.868	723
493.943	741
494.018	141
494.093	-81
494.168	291
494.243	256
494.318	719
494.393	358
494.468	109
494.543	597
494.618	942
494.693	136
494.768	309
494.842	577
494.917	48
494.992	550
495.067	382
495.142	493
495.217	-547
495.292	394
495.366	809
495.441	1367
495.516	1433
495.591	1222
495.665	3961
495.740	11757
495.815	7556
495.890	980
495.964	-620
496.039	1528
496.114	315
496.188	-79
496.263	564
496.338	650
496.412	-374
496.487	-164
496.561	712
496.636	808
496.710	99
496.785	336
496.860	577
496.934	347
497.009	452
497.083	-481
497.158	297
497.232	1090
497.307	188
497.381	1605
497.455	524
497.530	396
497.604	203
497.679	297
497.753	1393
497.827	1468
497.902	1248
497.976	2264
498.050	2973
498.125	11027
498.199	15606
498.273	3707
498.348	2241
498.422	1933
498.496	1337
498.570	1381
498.645	276
498.719	-935
498.793	592
498.867	1401
498.941	315
499.016	3133
499.090	11774
499.164	7925
499.238	1628
499.312	1270
499.386	1197
499.460	918
499.534	297
499.609	1074
499.683	237
499.757	1562
499.831	1562
499.905	7367
499.979	10316
500.053	2154
500.127	890
500.201	901
500.275	429
500.349	1165
500.422	571
500.496	1720
500.570	1642
500.644	5476
500.718	7669
500.792	4117
500.866	379
500.940	529
501.013	860
501.087	-207
501.161	1215
501.235	722
501.309	2937
501.382	6616
501.456	8700
501.530	1723
501.603	1860
501.677	937
501.751	-161
501.825	1184
501.898	211
501.972	2022
502.046	2970
502.119	-340
502.193	1637
502.266	2794
502.340	2013
502.413	826
502.487	2559
502.561	1329
502.634	313
502.708	23
502.781	-418
502.855	505
502.928	-530
503.002	482
503.075	-366
503.149	203
503.222	-514
503.295	74
503.369	520
503.442	253
503.516	856
503.589	4566
503.662	3634
503.736	1878
503.809	2177
503.882	2023
503.956	2521
504.029	4040
504.102	2353
504.175	4949
504.249	1253
504.322	665
504.395	-143
504.468	115
504.542	-127
504.615	-225
504.688	103
504.761	-868
504.834	172
504.907	317
504.980	1291
505.053	128
505.127	-1124
505.200	1589
505.273	-95
505.346	-157
505.419	-337
505.492	536
505.565	-883
505.638	36
505.711	-14
505.784	-327
505.857	-65
505.930	1081
506.003	-1298
506.076	751
506.149	-632
506.221	-1077
506.294	1264
506.367	394
506.440	2091
506.513	3171
506.586	617
506.659	-485
506.731	41
506.804	17
506.877	-323
506.950	-44
507.022	248
507.095	-544
507.168	-30
507.241	1250
507.313	-1108
507.386	-27
507.459	303
507.531	426
507.604	-603
507.677	683
507.749	-1375
507.822	156
507.894	421
507.967	2587
508.040	-680
508.112	524
508.185	105
508.257	-661
508.330	666
508.402	-581
508.475	-144
508.547	-648
508.620	83
508.692	748
508.765	400
508.837	-129
508.909	-388
508.982	-496
509.054	495
509.127	337
509.199	-744
509.271	441
509.344	-1015
509.416	146
509.488	-576
509.560	309
509.633	8
509.705	-148
509.777	288
509.849	142
509.922	-704
509.994	-319
510.066	525
510.138	-779
510.210	2166
510.283	3
510.355	916
510.427	731
510.499	1048
510.571	1345
510.643	-248
510.715	766
510.787	-82
510.859	1305
510.931	1000
511.003	621
511.076	1317
511.148	171
511.219	-840
511.291	1039
511.363	167
511.435	457
511.507	412
511.579	474
511.651	1115
511.723	866
511.795	-623
511.867	289
511.939	-65
512.010	-538
512.082	455
512.154	-418
512.226	209
512.298	881
512.369	1169
512.441	930
512.513	120
512.585	-446
512.656	878
512.728	444
512.800	305
512.871	927
512.943	534
513.015	-150
513.086	859
513.158	714
513.230	506
513.301	707
513.373	1371
513.444	423
513.516	69
513.588	38
513.659	352
513.731	-480
513.802	45
513.874	1745
513.945	2531
514.016	476
514.088	313
514.159	-816
514.231	644
514.302	527
514.374	109
514.445	-1604
514.516	1826
514.588	580
514.659	-636
514.730	-371
514.802	1054
514.873	-715
514.944	2111
515.016	292
515.087	542
515.158	582
515.229	1197
515.301	676
515.372	759
515.443	40
515.514	115
515.585	192
515.656	1022
515.728	-94
515.799	-742
515.870	313
515.941	-11
516.012	-147
516.083	929
516.154	84
516.225	2026
516.296	1672
516.367	446
516.438	172
516.509	190
516.580	1291
516.651	3993
516.722	13636
516.793	13639
516.864	1521
516.935	1583
517.006	1312
517.077	1855
517.148	3932
517.219	12722
517.289	27228
517.360	7252
517.431	4346
517.502	-323
517.573	668
517.643	496
517.714	-404
517.785	721
517.856	116
517.926	754
517.997	1069
518.068	294
518.138	2994
518.209	1391
518.280	6795
518.350	35560
518.421	22989
518.492	2289
518.562	1676
518.633	1032
518.703	-822
518.774	2366
518.845	4196
518.915	5288
518.986	1241
519.056	425
519.127	1749
519.197	2262
519.268	3938
519.338	4565
519.408	1409
519.479	750
519.549	543
519.620	1146
519.690	509
519.760	-268
519.831	48
519.901	-536
519.971	133
520.042	-632
520.112	-377
520.182	1049
520.253	572
520.323	190
520.393	-927
520.463	1212
520.534	-2174
520.604	949
520.674	1448
520.744	-81
520.814	-74
520.885	986
520.955	768
521.025	4172
521.095	2637
521.165	1047
521.235	-182
521.305	-187
521.375	-63
521.445	609
521.515	88
521.585	692
521.655	-572
521.725	614
521.795	1167
521.865	-1799
521.935	1877
522.005	-736
522.075	-535
522.145	410
522.215	-941
522.285	-497
522.355	30
522.424	1232
522.494	444
522.564	488
522.634	1094
522.704	6441
522.774	3025
522.843	350
522.913	-81
522.983	-321
523.053	-44
523.122	-77
523.192	360
523.262	1450
523.331	3780
523.401	279
523.471	210
523.540	695
523.610	-583
523.680	-215
523.749	8
523.819	-176
523.888	-851
523.958	-429
524.027	54
524.097	-522
524.166	57
524.236	-1763
524.305	1356
524.375	-278
524.444	-701
524.514	518
524.583	109
524.653	-814
524.722	486
524.791	-492
524.861	620
524.930	-1667
524.999	-27
525.069	215
525.138	5
525.207	-621
525.277	24
525.346	-813
525.415	829
525.484	-521
525.554	-223
525.623	353
525.692	-109
525.761	131
525.830	317
525.900	-501
525.969	727
526.038	-148
526.107	664
526.176	8947
526.245	8647
526.314	2425
526.383	4963
526.452	4923
526.522	11294
526.591	14799
526.660	2979
526.729	1288
526.797	2794
526.867	2302
526.935	18441
527.004	33549
527.073	23263
527.142	1214
527.211	257
527.280	536
527.349	71
527.418	-880
527.487	1281
527.555	-467
527.624	-426
527.693	-1706
527.762	546
527.831	-1159
527.899	-17
527.968	-552
528.037	-2042
528.106	-34
528.174	121
528.243	-150
528.312	176
528.380	435
528.449	-864
528.518	1185
528.586	-1196
528.655	943
528.723	-899
528.792	-1223
528.861	-534
528.929	-967
528.998	1324
529.066	442
529.135	-355
529.203	-1687
529.272	-2014
529.340	799
529.409	818
529.477	-1062
529.545	-1538
529.614	907
529.682	-1826
529.751	-740
529.819	1485
529.887	66
529.956	-1007
530.024	109
530.092	-228
530.161	155
530.229	-209
530.297	-809
530.365	1458
530.434	128
530.502	-500
530.570	-928
530.638	-2407
530.707	-325
530.775	863
530.843	96
530.911	-206
530.979	-132
531.047	-216
531.115	523
531.183	19
531.252	-868
531.320	-1195
531.388	-1084
531.456	352
531.524	-2002
531.592	93
531.660	432
531.728	-1011
531.796	-1885
531.864	-1092
531.932	-137
532.000	-1172
532.067	-688
532.135	-270
532.203	679
532.271	-1068
532.339	691
532.407	2552
532.475	1757
532.542	289
532.610	621
532.678	-960
532.746	3422
532.814	14781
532.881	6153
532.949	889
533.017	-731
533.084	-46
533.152	-530
533.220	-290
533.287	-1454
533.355	397
533.423	188
533.490	-982
533.558	138
533.625	-102
533.693	-541
533.761	77
533.828	-533
533.896	-1900
533.963	533
534.031	997
534.098	833
534.166	366
534.233	-825
534.300	177
534.368	205
534.435	-1114
534.503	-114
534.570	382
534.637	-1277
534.705	-974
534.772	644
534.840	-400
534.907	3422
534.974	6771
535.041	593
535.109	-823
535.176	-1219
535.243	586
535.310	-627
535.378	-694
535.445	-224
535.512	-623
535.579	-575
535.646	-440
535.714	-536
535.781	-75
535.848	555
535.915	246
535.982	-1099
536.049	-722
536.116	717
536.183	-535
536.250	-1042
536.317	416
536.384	174
536.451	472
536.518	65
536.585	-878
536.652	1078
536.719	1014
536.786	-570
536.853	-418
536.920	756
536.987	1321
537.053	1
537.120	6097
537.187	9793
537.254	237
537.321	-353
537.388	795
537.454	-1142
537.521	-498
537.588	-737
537.654	-49
537.721	-272
537.788	1016
537.855	-659
537.921	-553
537.988	-547
538.055	585
538.121	-1310
538.188	66
538.254	-348
538.321	939
538.388	1128
538.454	260
538.521	-457
538.587	574
538.654	-796
538.720	-133
538.787	94
538.853	303
538.920	-377
538.986	-922
539.053	106
539.119	-20
539.185	74
539.252	940
539.318	-386
539.385	954
539.451	-893
539.517	805
539.583	925
539.650	1456
539.716	4429
539.782	2044
539.849	-1412
539.915	751
539.981	-998
540.047	-347
540.114	-1000
540.180	1201
540.246	-1832
540.312	318
540.378	612
540.444	2211
540.510	813
540.576	5400
540.643	3102
540.709	-1435
540.775	480
540.841	-729
540.907	227
540.973	434
541.039	-39
541.105	286
541.171	-950
541.237	-586
541.303	574
541.369	1959
541.435	528
541.500	900
541.566	83
541.632	-302
541.698	-947
541.764	437
541.830	-325
541.896	-1080
541.961	-89
542.027	39
542.093	-707
542.159	-591
542.224	-824
542.290	1158
542.356	498
542.421	1943
542.487	1350
542.553	-458
542.618	-300
542.684	530
542.750	294
542.815	1110
542.881	178
542.947	3983
543.012	5906
543.078	-49
543.143	-953
543.209	77
543.274	-979
543.340	442
543.405	1046
543.471	3827
543.536	239
543.602	261
543.667	-1695
543.732	834
543.798	-749
543.863	-628
543.928	-1104
543.994	-403
544.059	-175
544.124	173
544.190	-460
544.255	451
544.320	752
544.386	-168
544.451	500
544.516	1220
544.581	-128
544.646	1802
544.712	6656
544.777	2254
544.842	-67
544.907	219
544.972	-147
545.037	-224
545.102	602
545.168	-28
545.233	910
545.298	1442
545.363	-362
545.428	-299
545.493	1743
545.558	3304
545.623	2511
545.688	-873
545.753	677
545.818	-169
545.883	741
545.947	-459
546.012	520
546.077	-623
546.142	934
546.207	153
546.272	463
546.337	734
546.401	927
546.466	-262
546.531	-641
546.596	208
546.661	384
546.725	1607
546.790	-290
546.855	802
546.919	-487
546.984	1019
547.049	368
547.113	-575
547.178	815
547.243	1195
547.307	1744
547.372	1051
547.436	1319
547.501	1925
547.565	2075
547.630	1804
547.695	1122
547.759	919
547.823	1298
547.888	1514
547.952	1249
548.017	1100
548.081	1716
548.146	1271
548.210	1456
548.274	527
548.339	1262
548.403	2142
548.468	416
548.532	749
548.596	1332
548.660	1840
548.725	2115
548.789	843
548.853	3050
548.917	1910
548.982	1446
549.046	1888
549.110	939
549.174	1655
549.238	1112
549.303	1343
549.367	3306
549.431	1933
549.495	1284
549.559	1435
549.623	2046
549.687	2102
549.751	2685
549.815	2061
549.879	3829
549.943	1242
550.007	2718
550.071	2411
550.135	2216
550.199	1646
550.263	1978
550.327	3146
550.391	1377
550.455	1797
550.519	2381
550.582	3322
550.646	2250
550.710	3315
550.774	2935
550.838	3154
550.901	2729
550.965	3840
551.029	3237
551.093	4073
551.156	3958
551.220	5012
551.284	6429
551.347	5022
551.411	4135
551.475	5243
551.538	3190
551.602	2937
551.666	3693
551.729	1593
551.793	3567
551.856	3016
551.920	1793
551.983	3030
552.047	2177
552.110	2933
552.174	2881
552.237	3031
552.301	2720
552.364	2766
552.428	2047
552.491	2007
552.554	2788
552.618	2532
552.681	2162
552.745	1875
552.808	3089
552.871	3965
552.934	3056
552.998	2207
553.061	2532
553.124	2822
553.187	2088
553.251	2800
553.314	3102
553.377	2118
553.440	3583
553.503	6793
553.567	13727
553.630	5575
553.693	2215
553.756	3110
553.819	2632
553.882	2390
553.945	2868
554.008	2772
554.071	1625
554.134	2678
554.197	2143
554.260	2902
554.323	3231
554.386	3427
554.449	2075
554.512	4115
554.575	901
554.638	2477
554.701	2698
554.764	2487
554.827	2259
554.889	2116
554.952	2089
555.015	1089
555.078	2158
555.141	2226
555.203	1895
555.266	1762
555.329	1964
555.391	1519
555.454	1315
555.517	1665
555.580	1277
555.642	936
555.705	559
555.768	1861
555.830	2153
555.893	1511
555.955	922
556.018	1263
556.080	1483
556.143	2167
556.206	682
556.268	1573
556.330	806
556.393	1523
556.455	1812
556.518	1648
556.580	1988
556.643	1837
556.705	1870
556.767	333
556.830	1453
556.892	2146
556.955	1796
557.017	2104
557.079	816
557.142	1081
557.204	1513
557.266	3017
557.328	3399
557.391	1057
557.453	602
557.515	1674
557.577	1587
557.639	1243
557.701	1347
557.764	598
557.826	711
557.888	1413
557.950	367
558.012	1274
558.074	2948
558.136	3838
558.198	11638
558.260	6725
558.322	681
558.384	1758
558.446	2580
558.508	3162
558.570	3575
558.632	6038
558.694	9264
558.756	9825
558.818	19473
558.880	65632
558.942	30030
559.003	13990
559.065	9091
559.127	2940
559.189	3154
559.251	3991
559.312	4855
559.374	8986
559.436	36939
559.498	30020
559.559	3462
559.621	3846
559.683	3981
559.744	5871
559.806	14377
559.868	32354
559.929	8403
559.991	3441
560.052	3922
560.114	11501
560.176	11075
560.237	6627
560.299	13675
560.360	3772
560.422	831
560.483	1145
560.545	600
560.606	191
560.667	-137
560.729	5
560.790	-126
560.852	964
560.913	-380
560.974	532
561.036	759
561.097	628
561.158	173
561.220	936
561.281	764
561.342	953
561.403	1360
561.465	2063
561.526	3362
561.587	7350
561.648	576
561.709	118
561.771	132
561.832	-59
561.893	504
561.954	-251
562.015	722
562.076	544
562.137	1077
562.198	-188
562.259	695
562.320	327
562.381	161
562.442	1009
562.503	1747
562.564	666
562.625	422
562.686	859
562.747	-592
562.808	-262
562.869	261
562.930	999
562.991	-203
563.051	1155
563.112	262
563.173	432
563.234	-244
563.294	118
563.355	371
563.416	1301
563.477	476
563.537	-219
563.598	-49
563.659	427
563.720	331
563.780	503
563.841	438
563.901	962
563.962	-153
564.023	1215
564.083	218
564.144	-69
564.204	612
564.265	268
564.325	569
564.386	1573
564.446	2109
564.507	-172
564.567	369
564.628	101
564.688	-227
564.749	438
564.809	-166
564.869	1219
564.930	330
564.990	1064
565.050	-322
565.111	1345
565.171	-145
565.231	136
565.292	980
565.352	-152
565.412	476
565.472	541
565.532	1131
565.593	889
565.653	-20
565.713	744
565.773	1105
565.833	798
565.893	1248
565.953	1283
566.013	285
566.074	968
566.134	1507
566.194	1645
566.254	2022
566.314	803
566.374	459
566.434	922
566.494	43
566.554	-135
566.614	1013
566.673	602
566.733	1564
566.793	858
566.853	1017
566.913	258
566.973	1327
567.033	1160
567.092	896
567.152	805
567.212	1190
567.272	879
567.331	895
567.391	1491
567.451	1418
567.511	2255
567.570	1764
567.630	465
567.690	640
567.749	1565
567.809	1128
567.868	1771
567.928	1709
567.988	1768
568.047	2087
568.107	2920
568.166	4489
568.226	6739
568.285	10661
568.345	9432
568.404	5826
568.464	4651
568.523	4152
568.582	4132
568.642	4482
568.701	5764
568.761	8583
568.820	17321
568.879	18463
568.939	10278
568.998	7457
569.057	4474
569.116	2799
569.176	3242
569.235	1080
569.294	1345
569.353	1526
569.413	438
569.472	1203
569.531	1319
569.590	719
569.649	68
569.708	537
569.767	2005
569.827	1524
569.886	1071
569.945	335
570.004	1197
570.063	951
570.122	1034
570.181	451
570.240	744
570.299	648
570.358	1406
570.417	123
570.475	990
570.534	1108
570.593	1167
570.652	1020
570.711	1037
570.770	968
570.829	1634
570.887	837
570.946	1834
571.005	1262
571.064	729
571.122	54
571.181	737
571.240	608
571.299	760
571.357	794
571.416	1068
571.475	1410
571.533	1172
571.592	450
571.650	1132
571.709	271
571.768	481
571.826	688
571.885	1127
571.943	508
572.002	492
572.060	527
572.119	211
572.177	604
572.236	233
572.294	258
572.352	1051
572.411	116
572.469	444
572.528	315
572.586	589
572.644	205
572.703	1049
572.761	498
572.819	453
572.877	232
572.936	493
572.994	-397
573.052	70
573.110	-92
573.169	499
573.227	933
573.285	1001
573.343	-174
573.401	234
573.459	666
573.517	275
573.576	399
573.634	948
573.692	1005
573.750	429
573.808	492
573.866	736
573.924	191
573.982	695
574.040	461
574.098	939
574.155	-31
574.213	438
574.271	1288
574.329	1401
574.387	-265
574.445	825
574.503	-307
574.560	870
574.618	-621
574.676	-112
574.734	491
574.792	570
574.849	593
574.907	709
574.965	-138
575.022	-247
575.080	-382
575.138	1126
575.195	944
575.253	348
575.311	913
575.368	443
575.426	-584
575.483	780
575.541	291
575.598	677
575.656	155
575.713	-52
575.771	114
575.828	-250
575.886	740
575.943	1044
576.001	385
576.058	504
576.115	99
576.173	867
576.230	322
576.287	1899
576.345	1003
576.402	503
576.459	1157
576.517	59
576.574	425
576.631	780
576.688	1142
576.746	746
576.803	6
576.860	160
576.917	725
576.974	494
577.031	-97
577.089	664
577.146	1060
577.203	395
577.260	597
577.317	981
577.374	315
577.431	1017
577.488	772
577.545	503
577.602	1128
577.659	382
577.716	872
577.773	2269
577.830	-264
577.886	8
577.943	125
578.000	718
578.057	1566
578.114	927
578.171	769
578.227	1671
578.284	655
578.341	650
578.398	754
578.454	589
578.511	933
578.568	1514
578.625	590
578.681	1203
578.738	689
578.794	1009
578.851	405
578.908	1195
578.964	395
579.021	1632
579.077	-116
579.134	601
579.190	440
579.247	535
579.303	-230
579.360	-99
579.416	863
579.473	-216
579.529	656
579.586	306
579.642	1049
579.698	427
579.755	893
579.811	657
579.867	523
579.924	823
579.980	265
580.036	988
580.093	856
580.149	773
580.205	1224
580.261	1770
580.317	689
580.374	877
580.430	1068
580.486	800
580.542	441
580.598	916
580.619	821
580.654	654
580.692	551
580.710	501
580.765	543
580.767	540
580.823	1413
580.838	1118
580.879	315
580.911	301
580.935	284
580.984	1393
580.991	1547
581.047	1120
581.057	1046
581.103	647
581.130	871
581.159	1117
581.203	737
581.215	638
581.270	1419
581.276	1376
581.326	912
581.349	780
581.382	570
581.422	1052
581.438	1255
581.494	695
581.494	699
581.550	749
581.567	861
581.606	1144
581.640	1184
581.661	1146
581.713	1752
581.717	1808
581.773	937
581.786	860
581.829	553
581.859	705
581.885	891
581.932	1466
581.940	1537
581.996	767
582.004	828
582.052	1251
582.077	1358
582.107	1493
582.150	1410
582.163	1352
582.219	1588
582.223	1594
582.274	1607
582.296	1188
582.330	576
582.368	1658
582.386	2178
582.441	1236
582.441	1232
582.497	1116
582.514	1259
582.552	1662
582.587	1805
582.608	1858
582.659	1598
582.663	1566
582.719	1812
582.732	1811
582.774	1978
582.805	1780
582.830	1601
582.877	2305
582.885	2408
582.941	2148
582.950	2091
582.996	1795
583.023	2057
583.052	2378
583.095	1685
583.107	1506
583.162	2441
583.168	2469
583.218	2637
583.240	2483
583.273	2177
583.313	2011
583.328	2035
583.384	2452
583.385	2446
583.439	1932
583.458	1929
583.494	2111
583.531	1966
583.549	1864
583.603	2085
583.605	2090
583.660	1978
583.676	1986
583.715	2023
583.748	1717
583.770	1651
583.820	2345
583.825	2372
583.881	2501
583.893	2438
583.936	2397
583.965	2470
583.991	2481
584.038	3066
584.046	3186
584.101	2170
584.110	2190
584.156	2247
584.183	2255
584.211	2365
584.255	2441
584.266	2422
584.321	2570
584.328	2576
584.376	2999
584.400	3316
584.431	3436
584.472	3162
584.486	3080
584.541	2386
584.545	2389
584.596	2637
584.617	2600
584.651	2863
584.689	3830
584.706	4106
584.761	3409
584.762	3404
584.816	3585
584.834	3645
584.871	3668
584.906	3725
584.926	3804
584.978	3865
584.980	3878
585.035	4144
585.051	4187
585.090	4518
585.123	4894
585.145	4868
585.195	4773
585.200	4845
585.254	6132
585.267	6315
585.309	6891
585.340	7789
585.364	8387
585.412	8406
585.419	8398
585.473	8921
585.484	9017
585.528	10219
585.556	11539
585.583	14492
585.628	21863
585.637	25217
585.692	50639
585.700	55923
585.747	78049
585.772	73983
585.801	51750
585.845	17907
585.856	13826
585.910	8688
585.917	8039
585.965	6874
585.989	6713
586.019	6496
586.061	6087
586.074	6130
586.128	6229
586.133	6289
586.183	6959
586.205	7208
586.237	7600
586.277	7283
586.292	7080
586.346	7152
586.349	7136
586.401	7488
586.421	7494
586.455	7530
586.493	7701
586.509	8288
586.564	10220
586.565	10251
586.618	14207
586.637	15496
586.672	13986
586.709	10909
586.727	10081
586.781	9787
586.781	9809
586.835	8196
586.853	8121
586.889	8660
586.925	8313
586.944	8068
586.996	8412
586.998	8457
587.052	8862
587.068	9079
587.106	9602
587.140	9670
587.161	9757
587.212	10144
587.215	10208
587.269	10589
587.284	10716
587.323	10424
587.356	10181
587.377	10505
587.427	11712
587.431	11802
587.485	11895
587.499	11887
587.539	12110
587.571	12271
587.593	12568
587.643	13384
587.648	13501
587.702	14543
587.715	14645
587.755	15123
587.786	15261
587.810	15582
587.858	16925
587.864	17141
587.917	18666
587.930	18897
587.971	20611
588.001	22019
588.025	22896
588.073	24231
588.079	24596
588.133	27304
588.145	27952
588.187	31317
588.217	33492
588.241	35868
588.288	40578
588.295	41378
588.348	47686
588.360	48963
588.402	56477
588.431	61485
588.456	66349
588.503	76776
588.510	78917
588.564	94380
588.575	97669
588.617	114893
588.646	126662
588.671	144360
588.718	179468
588.725	190387
588.778	276808
588.789	295433
588.832	454766
588.861	566671
588.886	707321
588.932	974836
588.939	985913
588.993	1010859
589.004	1011475
589.047	879821
589.075	771434
589.100	630807
589.147	362687
589.154	347835
589.207	240684
589.218	219092
589.261	197824
589.290	185080
589.314	191629
589.361	205149
589.368	215783
589.421	303727
589.433	323442
589.475	514374
589.504	651217
589.528	767404
589.576	979462
589.582	965257
589.635	782053
589.647	734541
589.689	471684
589.718	287473
589.742	232849
589.790	132181
589.795	128625
589.849	94744
589.861	86981
589.902	75304
589.932	66769
589.955	61385
590.004	49293
590.009	48736
590.062	41491
590.075	39582
590.115	36714
590.146	34523
590.168	33509
590.218	30884
590.222	30862
590.275	29161
590.289	28606
590.328	27017
590.360	25534
590.381	25037
590.431	23712
590.435	23732
590.488	22441
590.503	22127
590.541	22408
590.574	22346
590.594	21978
590.645	20678
590.647	20726
590.700	20075
590.716	19770
590.753	19398
590.787	18964
590.806	18893
590.859	18571
590.859	18636
590.912	18184
590.930	18004
590.965	18112
591.001	18144
591.018	18089
591.071	17557
591.072	17483
591.124	17574
591.143	17543
591.177	17421
591.214	17204
591.230	17512
591.283	18365
591.285	18316
591.336	17973
591.356	17874
591.389	18393
591.427	18712
591.442	18234
591.495	16165
591.498	15946
591.547	16243
591.569	16363
591.600	16433
591.640	16189
591.653	16456
591.706	17489
591.711	17516
591.759	17439
591.782	17323
591.811	17908
591.853	18525
591.864	18395
591.917	17352
591.924	17135
591.969	16873
591.995	16593
592.022	16553
592.066	16295
592.075	16588
592.127	18022
592.137	18207
592.180	19321
592.208	19936
592.233	19098
592.279	17243
592.285	17242
592.338	16642
592.350	16449
592.390	16663
592.421	16672
592.443	16629
592.491	16352
592.495	16435
592.548	16675
592.562	16675
592.600	16364
592.633	15987
592.653	16300
592.704	16862
592.705	16943
592.775	16043
592.846	15495
592.916	16805
592.987	17800
593.058	16946
593.128	15517
593.199	16753
593.270	16215
593.341	14983
593.411	15902
593.482	16075
593.553	16684
593.623	15507
593.694	15801
593.764	16559
593.835	15264
593.906	15507
593.976	15542
594.047	16277
594.117	18375
594.188	18354
594.258	16180
594.329	15584
594.399	17152
594.470	16814
594.540	16915
594.611	15824
594.681	17004
594.751	16336
594.822	18225
594.892	17117
594.963	18065
595.033	17881
595.103	18393
595.174	18842
595.244	22238
595.314	27510
595.384	20459
595.455	18403
595.525	19439
595.595	19568
595.665	20500
595.736	18661
595.806	19601
595.876	19460
595.946	19796
596.016	19755
596.087	20461
596.157	20489
596.227	20398
596.297	20140
596.367	21271
596.437	24196
596.507	26951
596.577	29547
596.647	24364
596.717	23402
596.787	24231
596.857	23644
596.927	23751
596.997	24146
597.067	24155
597.137	24966
597.207	25645
597.277	25301
597.347	24091
597.417	23309
597.487	24463
597.557	24199
597.626	24671
597.696	26504
597.766	26987
597.836	30174
597.906	25064
597.975	22189
598.045	21227
598.115	22303
598.185	24788
598.254	25892
598.324	27980
598.394	28617
598.464	28175
598.533	27568
598.603	26695
598.672	25190
598.742	25127
598.812	24781
598.881	25701
598.951	26215
599.020	25238
599.090	25289
599.159	27810
599.229	25648
599.299	24722
599.368	26640
599.437	26638
599.507	23797
599.576	24071
599.646	23738
599.715	23707
599.785	23564
599.854	22859
599.924	23488
599.993	22951
600.062	21821
600.132	23494
600.201	23524
600.270	28039
600.340	28929
600.409	27395
600.478	26565
600.547	27547
600.617	25799
600.686	23305
600.755	20491
600.824	21119
600.894	20157
600.963	20618
601.032	19024
601.101	19133
601.170	17995
601.239	18558
601.308	19000
601.378	19797
601.447	19178
601.516	18367
601.585	19197
601.654	20156
601.723	19586
601.792	18916
601.861	20070
601.930	21681
601.999	21953
602.068	19812
602.137	21161
602.206	21488
602.275	20193
602.343	22084
602.412	22541
602.481	20445
602.550	20860
602.619	20822
602.688	22184
602.756	20506
602.825	21160
602.894	22184
602.963	21811
603.032	21517
603.100	21615
603.169	22084
603.238	21418
603.307	23157
603.375	21513
603.444	23041
603.513	23598
603.581	21840
603.650	23011
603.719	22029
603.787	22814
603.856	23859
603.924	23034
603.993	24968
604.061	25915
604.130	26089
604.198	26886
604.267	26472
604.335	26999
604.404	27270
604.472	27120
604.541	28607
604.609	27936
604.678	27689
604.746	28098
604.815	29016
604.883	28794
604.951	28699
605.020	29090
605.088	29941
605.156	30939
605.225	30727
605.293	30585
605.361	31086
605.429	30794
605.498	32808
605.566	33405
605.634	33571
605.702	34329
605.771	35781
605.839	35579
605.907	34770
605.975	33835
606.043	34022
606.111	33157
606.180	33735
606.248	34614
606.316	35812
606.384	33340
606.452	36125
606.520	37673
606.588	35431
606.656	33493
606.724	33437
606.792	31941
606.860	28711
606.928	26144
606.996	25343
607.064	24928
607.132	25689
607.200	26972
607.267	27416
607.335	26613
607.403	28343
607.471	28157
607.539	26725
607.607	27472
607.674	25710
607.742	24455
607.810	25513
607.878	24400
607.946	24899
608.013	25048
608.081	27561
608.149	26479
608.216	26606
608.284	28205
608.352	28238
608.419	27570
608.487	31162
608.555	28268
608.622	26737
608.690	28606
608.757	31162
608.825	32319
608.893	31937
608.960	31406
609.028	30468
609.095	32328
609.163	30069
609.230	26589
609.298	25199
609.365	24711
609.432	26340
609.500	28758
609.567	32173
609.635	36815
609.702	38856
609.769	37759
609.837	32591
609.904	25527
609.971	26895
610.039	29845
610.106	36165
610.173	66555
610.241	161938
610.308	116277
610.375	41819
610.442	28253
610.509	27293
610.577	26518
610.644	27403
610.711	27010
610.778	27953
610.845	28503
610.912	32301
610.980	33316
611.047	35530
611.114	33268
611.181	30816
611.248	29737
611.315	32656
611.382	32742
611.449	33966
611.516	34259
611.583	34194
611.650	33169
611.717	33405
611.784	35149
611.851	36784
611.918	38896
611.984	45532
612.051	65000
612.118	135452
612.185	355744
612.252	273377
612.319	57399
612.386	45035
612.452	41686
612.519	38817
612.586	42250
612.653	40986
612.719	39412
612.786	38864
612.853	35593
612.919	34309
612.986	35932
613.053	33690
613.120	30040
613.186	30026
613.253	30748
613.319	30827
613.386	30478
613.453	32041
613.519	32255
613.586	35834
613.652	44393
613.719	38287
613.785	37428
613.852	32565
613.918	32408
613.985	34022
614.051	39526
614.118	54590
614.184	57560
614.250	34246
614.317	33044
614.383	31339
614.449	31283
614.516	32453
614.582	32168
614.648	31838
614.715	31753
614.781	31019
614.847	30225
614.914	31271
614.980	29987
615.046	30216
615.112	30311
615.179	30264
615.245	32073
615.311	33246
615.377	39230
615.443	41616
615.509	33486
615.575	33858
615.642	32983
615.708	34354
615.774	36261
615.840	39015
615.906	43702
615.972	56413
616.038	91876
616.104	184737
616.170	444933
616.236	465273
616.302	87684
616.368	57938
616.434	43669
616.500	39739
616.565	42653
616.631	53547
616.697	42802
616.763	42001
616.829	60325
616.895	110169
616.961	111517
617.026	48622
617.092	33700
617.158	33410
617.224	33374
617.289	31462
617.355	29859
617.421	30148
617.487	30592
617.552	27663
617.618	27333
617.684	26659
617.749	29666
617.815	27487
617.880	25905
617.946	26117
618.012	27670
618.077	27268
618.143	26258
618.208	26694
618.274	28409
618.339	29363
618.405	24677
618.470	24895
618.536	24256
618.601	25739
618.667	24225
618.732	23596
618.798	23148
618.863	22222
618.928	22245
618.994	23398
619.059	25640
619.124	29883
619.190	26022
619.255	22442
619.320	22531
619.386	22135
619.451	21152
619.516	22179
619.581	21756
619.647	22594
619.712	22676
619.777	21443
619.842	21438
619.907	22160
619.972	22584
620.038	23252
620.103	21259
620.168	22078
620.233	21762
620.298	22091
620.363	21720
620.428	21966
620.493	22423
620.558	22462
620.623	22921
620.688	22540
620.753	21883
620.818	22775
620.883	22541
620.948	22914
621.013	22038
621.078	22846
621.143	21530
621.207	25325
621.272	23397
621.337	24924
621.402	23662
621.467	26198
621.532	27386
621.596	24948
621.661	23493
621.726	23052
621.791	22595
621.855	23620
621.920	24777
621.985	24254
622.049	25896
622.114	25471
622.179	23986
622.243	25588
622.308	24244
622.373	26945
622.437	25380
622.502	24805
622.566	25009
622.631	24353
622.695	24648
622.760	25176
622.824	25086
622.889	25037
622.953	27143
623.018	32978
623.082	35520
623.147	26746
623.211	25920
623.276	25781
623.340	24092
623.404	22887
623.469	22995
623.533	23774
623.597	22541
623.662	23168
623.726	21506
623.790	21947
623.854	20341
623.919	21563
623.983	20873
624.047	21627
624.111	21560
624.176	21499
624.240	21656
624.304	22951
624.368	21464
624.432	22012
624.496	22604
624.560	23531
624.625	25219
624.689	23945
624.753	23075
624.817	22861
624.881	21687
624.945	21588
625.009	19133
625.073	20297
625.137	21307
625.201	25222
625.265	27204
625.329	21785
625.393	21773
625.456	21992
625.520	21018
625.584	22860
625.648	25316
625.712	30003
625.776	49576
625.839	60786
625.903	31830
625.967	19431
626.031	26876
626.095	39939
626.158	24479
626.222	16698
626.286	16677
626.349	14807
626.413	13979
626.477	17008
626.540	16194
626.604	14723
626.668	15716
626.731	15168
626.795	15166
626.858	15462
626.922	14788
626.986	14301
627.049	13063
627.113	14563
627.176	14369
627.240	13942
627.303	14142
627.366	14171
627.430	14333
627.493	14103
627.557	13981
627.620	14890
627.684	14323
627.747	14332
627.810	13108
627.874	13651
627.937	11980
628.000	15082
628.064	13249
628.127	10986
628.190	11426
628.253	12062
628.317	11461
628.380	10681
628.443	10510
628.506	11463
628.569	10409
628.632	9751
628.696	9892
628.759	10818
628.822	9560
628.885	9221
628.948	10593
629.011	9717
629.074	10391
629.137	8959
629.200	8253
629.263	10680
629.326	8489
629.389	8528
629.452	7887
629.515	9006
629.578	9061
629.641	10941
629.704	9018
629.767	10165
629.830	9427
629.892	8612
629.955	8307
630.018	10617
630.081	9384
630.144	12115
630.207	9444
630.269	10157
630.332	9444
630.395	9453
630.458	7849
630.520	7632
630.583	8703
630.646	8195
630.708	7809
630.771	8621
630.834	8180
630.896	7693
630.959	7842
631.021	7616
631.084	7287
631.146	9234
631.209	9423
631.272	8598
631.334	7951
631.397	7744
631.459	7187
631.522	7770
631.584	8314
631.646	9079
631.709	9060
631.771	10169
631.834	10231
631.896	8546
631.958	7013
632.021	8616
632.083	6762
632.145	8812
632.208	7724
632.270	8254
632.332	7306
632.395	7072
632.457	7985
632.519	7518
632.581	7484
632.643	7579
632.706	6670
632.768	7045
632.830	6272
632.892	7429
632.954	6473
633.016	8510
633.078	7045
633.141	7331
633.203	6893
633.265	8252
633.327	7065
633.389	7169
633.451	8379
633.513	9409
633.575	8883
633.637	8976
633.698	8771
633.760	7522
633.822	7692
633.884	7132
633.946	7621
634.008	7384
634.070	7861
634.132	8793
634.193	7968
634.255	8493
634.317	9023
634.379	9098
634.441	7899
634.502	7280
634.564	6666
634.626	7381
634.687	7393
634.749	6804
634.811	7212
634.873	6090
634.934	6745
634.996	6613
635.057	6707
635.119	6105
635.181	6587
635.242	6639
635.304	5186
635.365	7602
635.427	5856
635.488	7064
635.550	5723
635.611	6418
635.673	4835
635.734	6988
635.796	6515
635.857	8257
635.918	6673
635.980	8446
636.041	7250
636.102	8804
636.164	8176
636.225	9621
636.286	6760
636.348	7241
636.409	6524
636.470	6484
636.531	6483
636.593	6336
636.654	7224
636.715	6215
636.776	4778
636.838	4836
636.899	6100
636.960	5312
637.021	4874
637.082	5525
637.143	5824
637.204	5356
637.265	4424
637.326	6071
637.387	5654
637.448	4477
637.509	5559
637.570	5151
637.631	6121
637.692	4811
637.753	4290
637.814	4772
637.875	4427
637.936	5228
637.997	4101
638.058	5304
638.119	4383
638.179	4616
638.240	4610
638.301	5468
638.362	3963
638.423	4999
638.483	5653
638.544	3452
638.605	5148
638.666	4489
638.726	4851
638.787	5119
638.848	3361
638.908	4869
638.969	4305
639.030	4938
639.090	3312
639.151	3909
639.211	5437
639.272	6824
639.332	11342
639.393	6845
639.453	3880
639.514	4557
639.574	4563
639.635	4365
639.695	4434
639.756	3933
639.816	4910
639.877	5809
639.937	8538
639.997	12610
640.058	4692
640.118	3611
640.178	4699
640.239	3816
640.299	3365
640.359	4059
640.420	4358
640.480	4808
640.540	4842
640.600	5178
640.661	5074
640.721	3884
640.781	6367
640.841	4807
640.901	5071
640.961	4297
641.021	4640
641.082	5560
641.142	7560
641.202	6793
641.262	2972
641.322	4748
641.382	2922
641.442	4297
641.502	3602
641.562	4654
641.622	3097
641.682	4020
641.742	4477
641.802	4167
641.861	4778
641.921	4026
641.981	5749
642.041	4974
642.101	5030
642.161	4909
642.221	3344
642.280	3882
642.340	2554
642.400	2965
642.460	3688
642.519	4163
642.579	3417
642.639	4612
642.698	2254
642.758	5877
642.818	3717
642.877	4224
642.937	3733
642.997	4796
643.056	7910
643.116	3802
643.175	4373
643.235	3127
643.294	3983
643.354	4006
643.414	4345
643.473	5348
643.532	5257
643.592	7390
643.651	13558
643.711	25487
643.770	48899
643.830	116569
643.889	318537
643.948	97356
644.008	11882
644.067	6488
644.126	4364
644.186	4536
644.245	4233
644.304	2591
644.363	4141
644.423	2771
644.482	4050
644.541	4239
644.600	2296
644.659	5159
644.719	4621
644.778	7573
644.837	11466
644.896	22703
644.955	60667
645.014	27458
645.073	5940
645.132	3633
645.191	4269
645.250	3771
645.309	5366
645.368	4007
645.427	4877
645.486	5808
645.545	13428
645.604	4089
645.663	3086
645.722	3384
645.781	3934
645.840	4420
645.898	4846
645.957	7439
646.016	10923
646.075	21819
646.134	45050
646.192	114110
646.251	229509
646.310	39054
646.369	6938
646.427	5686
646.486	4294
646.545	3825
646.603	4676
646.662	3608
646.721	3857
646.779	2686
646.838	2178
646.896	4226
646.955	4469
647.014	7616
647.072	11254
647.131	35380
647.189	23611
647.248	4335
647.306	3148
647.365	3207
647.423	840
647.481	3809
647.540	1055
647.598	2832
647.657	2123
647.715	3455
647.773	1227
647.832	3021
647.890	1319
647.948	1684
648.007	2431
648.065	2038
648.123	2365
648.181	3559
648.240	2550
648.298	2250
648.356	1929
648.414	2515
648.472	2348
648.531	2879
648.589	1985
648.647	2500
648.705	1878
648.763	1763
648.821	1725
648.879	2696
648.937	2661
648.995	3372
649.053	2900
649.111	5464
649.169	8803
649.227	16543
649.285	32707
649.343	105973
649.401	72424
649.459	16584
649.516	13487
649.574	5885
649.632	12537
649.690	18945
649.748	6519
649.806	6218
649.863	12491
649.921	23890
649.979	21018
650.037	4810
650.094	872
650.152	2564
650.210	1603
650.268	3173
650.325	2125
650.383	1781
650.440	662
650.498	2659
650.556	1688
650.613	1820
650.671	2034
650.728	1577
650.786	2189
650.843	1935
650.901	1014
650.958	2152
651.016	1085
651.073	1561
651.131	927
651.188	1105
651.246	1151
651.303	789
651.360	2013
651.418	1168
651.475	1808
651.532	575
651.590	1988
651.647	644
651.704	1844
651.762	1400
651.819	1462
651.876	1440
651.933	1164
651.990	1343
652.048	-180
652.105	1329
652.162	2312
652.219	1017
652.276	1037
652.333	1577
652.390	-392
652.448	1666
652.505	1181
652.562	1300
652.619	1075
652.676	2797
652.733	4750
652.790	2234
652.847	569
652.904	1400
652.961	438
653.017	1156
653.074	1563
653.131	1084
653.188	627
653.245	1393
653.302	1075
653.359	825
653.415	2092
653.472	769
653.529	1823
653.586	597
653.642	184
653.699	1325
653.756	141
653.813	1016
653.869	1074
653.926	464
653.983	371
654.039	1475
654.096	205
654.152	2464
654.209	273
654.266	1995
654.322	-106
654.379	2198
654.435	2108
654.492	1430
654.548	1488
654.605	4498
654.661	2236
654.717	1440
654.774	1507
654.830	1316
654.887	1134
654.943	600
655.000	1169
655.056	1568
655.112	1220
655.168	1609
655.225	404
655.281	1733
655.337	1626
655.394	3545
655.450	2971
655.506	2242
655.562	2615
655.618	3705
655.675	114
655.731	2282
655.787	483
655.843	1664
655.899	-55
655.955	1806
656.011	1132
656.067	-185
656.123	1627
656.179	865
656.235	1705
656.291	46
656.347	1991
656.403	994
656.459	497
656.515	1679
656.571	1068
656.627	1189
656.683	841
656.739	2002
656.795	-3
656.850	1874
656.906	1729
656.962	1733
657.018	-245
657.074	978
657.129	922
657.185	1575
657.241	3365
657.297	2958
657.352	784
657.408	403
657.464	2509
657.519	679
657.575	-83
657.630	1411
657.686	274
657.742	288
657.797	849
657.853	876
657.908	1845
657.964	232
658.019	813
658.075	979
658.130	1468
658.186	-80
658.241	1282
658.297	283
658.352	770
658.407	2250
658.463	-122
658.518	688
658.573	1304
658.629	116
658.684	790
658.739	1601
658.795	301
658.850	1328
658.905	1252
658.960	1551
659.016	469
659.071	876
659.126	718
659.181	893
659.236	3222
659.291	4012
659.346	1627
659.401	1497
659.457	1866
659.512	2833
659.567	1741
659.622	1148
659.677	636
659.732	70
659.787	1355
659.842	582
659.897	1693
659.952	1569
660.007	1034
660.061	588
660.116	294
660.171	742
660.226	520
660.281	1966
660.336	572
660.391	1522
660.445	449
660.500	478
660.555	875
660.610	595
660.664	471
660.719	1072
660.774	613
660.828	428
660.883	306
660.938	1647
660.992	-212
661.047	1270
661.101	228
661.156	1044
661.211	647
661.265	317
661.320	640
661.374	944
661.429	773
661.483	1122
661.538	713
661.592	1210
661.647	270
661.701	1470
661.755	938
661.810	1316
661.864	776
661.919	93
661.973	1257
662.027	503
662.081	153
662.136	510
662.190	957
662.244	1196
662.299	72
662.353	720
662.407	-46
662.461	413
662.515	919
662.569	859
662.624	1155
662.678	752
662.732	468
662.786	191
662.840	1167
662.894	645
662.948	-9
663.002	470
663.056	731
663.110	129
663.164	180
663.218	1343
663.272	829
663.326	1605
663.380	1159
663.434	1403
663.488	437
663.542	705
663.595	581
663.649	209
663.703	1366
663.757	1123
663.811	601
663.864	363
663.918	940
663.972	776
664.026	726
664.079	753
664.133	1493
664.187	1079
664.240	1277
664.294	466
664.348	687
664.401	768
664.455	797
664.508	931
664.562	161
664.615	1080
664.669	-109
664.722	674
664.776	-533
664.829	1248
664.883	330
664.936	456
664.990	1061
665.043	1955
665.097	480
665.150	2033
665.203	170
665.257	371
665.310	1078
665.363	915
665.417	1097
665.470	953
665.523	467
665.576	1411
665.630	1116
665.683	538
665.736	810
665.789	1273
665.842	273
665.895	369
665.949	510
666.002	557
666.055	339
666.108	1553
666.161	1254
666.214	1325
666.267	211
666.320	960
666.373	960
666.426	763
666.479	466
666.532	1763
666.585	1159
666.638	1693
666.691	309
666.744	892
666.796	592
666.849	851
666.902	1142
666.955	759
667.008	-194
667.060	1123
667.113	610
667.166	910
667.219	535
667.271	905
667.324	784
667.377	1554
667.430	927
667.482	1210
667.535	1026
667.587	428
667.640	617
667.693	1145
667.745	2837
667.798	3633
667.850	1369
667.903	655
667.955	112
668.008	842
668.060	1111
668.113	297
668.165	1466
668.218	1085
668.270	1028
668.322	562
668.375	309
668.427	1433
668.479	273
668.532	1231
668.584	929
668.636	1098
668.689	189
668.741	985
668.793	588
668.845	455
668.898	1520
668.950	644
669.002	1191
669.054	470
669.106	520
669.158	963
669.211	719
669.263	1471
669.315	1363
669.367	556
669.419	732
669.471	2188
669.523	1259
669.575	2535
669.627	1558
669.679	812
669.731	679
669.783	1961
669.835	1703
669.886	760
669.938	1031
669.990	1360
670.042	872
670.094	1728
670.146	407
670.197	1126
670.249	891
670.301	856
670.353	1446
670.404	3021
670.456	3845
670.508	7729
670.560	12126
670.611	21245
670.663	40174
670.715	89299
670.766	184213
670.818	57489
670.869	7085
670.921	4329
670.972	1788
671.024	2103
671.075	1659
671.127	1453
671.178	1581
671.230	943
671.281	1020
671.333	1668
671.384	1256
671.436	901
671.487	1999
671.538	1736
671.590	2364
671.641	4797
671.692	7514
671.744	17718
671.795	11224
671.846	2561
671.897	1633
671.949	2115
672.000	689
672.051	1210
672.102	502
672.153	1228
672.204	363
672.256	927
672.307	1353
672.358	1520
672.409	1004
672.460	1009
672.511	414
672.562	1061
672.613	58
672.664	622
672.715	510
672.766	748
672.817	363
672.868	132
672.919	-382
672.970	385
673.021	50
673.071	27
673.122	787
673.173	1493
673.224	190
673.275	745
673.326	494
673.376	977
673.427	-418
673.478	529
673.528	556
673.579	210
673.630	445
673.680	1015
673.731	392
673.782	-190
673.832	702
673.883	478
673.934	-134
673.984	1214
674.035	249
674.085	468
674.136	-275
674.186	1035
674.237	669
674.287	2123
674.338	662
674.388	-264
674.438	160
674.489	985
674.539	-114
674.589	421
674.640	128
674.690	1218
674.740	705
674.791	725
674.841	-81
674.891	1037
674.942	-282
674.992	536
675.042	-355
675.092	86
675.142	-374
675.193	164
675.243	-390
675.293	978
675.343	34
675.393	-486
675.443	1112
675.493	411
675.543	-426
675.593	279
675.643	579
675.693	709
675.743	578
675.793	208
675.843	311
675.893	1069
675.943	1142
675.993	-224
676.043	-800
676.093	1031
676.142	-805
676.192	170
676.242	671
676.292	-531
676.341	-257
676.391	996
676.441	-659
676.491	482
676.540	157
676.590	-217
676.640	-837
676.689	-335
676.739	-373
676.789	-53
676.838	-308
676.888	487
676.937	-445
676.987	-345
677.037	-693
677.086	-19
677.136	46
677.185	-141
677.235	-782
677.284	324
677.333	739
677.383	-134
677.432	-1012
677.482	-91
677.531	5
677.580	-233
677.630	-518
677.679	140
677.728	-190
677.778	512
677.827	51
677.876	228
677.925	-1060
677.975	-538
678.024	-379
678.073	321
678.122	-297
678.171	194
678.220	-164
678.269	630
678.319	50
678.368	-58
678.417	-213
678.466	84
678.515	885
678.564	1096
678.613	-114
678.662	-315
678.711	172
678.760	-233
678.809	452
678.857	-660
678.906	108
678.955	-388
679.004	649
679.053	453
679.102	-292
679.151	483
679.199	-198
679.248	-123
679.297	-258
679.346	-611
679.394	79
679.443	194
679.492	-226
679.540	-396
679.589	-42
679.638	51
679.686	-451
679.735	-252
679.784	-221
679.832	-279
679.881	-1200
679.929	806
679.978	-404
680.026	-24
680.075	-280
680.123	-193
680.172	107
680.220	-2
680.268	-268
680.317	-429
680.365	-278
680.414	-733
680.462	-695
680.510	-156
680.559	-522
680.607	-705
680.655	-421
680.703	-13
680.752	-114
680.800	-54
680.848	-223
680.896	-712
680.945	-1157
680.993	-209
681.041	-124
681.089	70
681.137	323
681.185	-479
681.233	-470
681.258	-405
681.281	-354
681.329	-583
681.377	-730
681.380	-671
681.425	207
681.473	364
681.502	-265
681.521	-726
681.569	376
681.617	-230
681.624	-176
681.665	105
681.713	-152
681.745	-271
681.761	-346
681.809	-779
681.857	539
681.867	341
681.904	-378
681.952	-139
681.989	-281
682.000	-341
682.048	-27
682.096	-418
682.111	-237
682.143	102
682.191	-185
682.233	496
682.239	593
682.286	7
682.334	-237
682.354	-149
682.382	-51
682.430	135
682.476	-132
682.477	-148
682.525	164
682.572	-229
682.598	-98
682.620	18
682.667	-532
682.715	-30
682.720	11
682.763	261
682.810	302
682.841	373
682.857	383
682.905	128
682.952	746
682.963	629
683.000	203
683.047	-218
683.085	840
683.095	1131
683.142	286
683.190	616
683.206	330
683.237	-252
683.284	677
683.328	328
683.332	293
683.379	335
683.426	296
683.449	715
683.473	1162
683.521	106
683.568	654
683.571	652
683.615	434
683.662	902
683.693	226
683.709	-132
683.757	1057
683.804	632
683.814	717
683.851	954
683.898	333
683.936	942
683.945	1075
683.992	744
684.039	914
684.057	619
684.086	250
684.133	1314
684.179	947
684.180	919
684.227	1431
684.274	1363
684.300	1360
684.321	1381
684.368	611
684.415	1276
684.422	1230
684.462	847
684.509	656
684.543	311
684.556	206
684.603	816
684.649	813
684.665	1041
684.696	1437
684.743	855
684.786	1562
684.790	1625
684.837	831
684.883	881
684.908	1102
684.930	1310
684.977	1284
685.023	1115
685.029	1192
685.070	1555
685.117	1122
685.150	1104
685.164	1153
685.210	1437
685.257	1426
685.272	1557
685.303	1686
685.350	1514
685.393	1849
685.396	1887
685.443	2339
685.490	1588
685.514	1820
685.536	1932
685.583	2009
685.629	1682
685.636	1661
685.675	1509
685.722	1643
685.757	1598
685.768	1597
685.815	1456
685.861	1722
685.878	1992
685.908	2467
685.954	1373
686.000	2119
686.000	2127
686.047	1819
686.093	1941
686.121	1912
686.139	1897
686.185	2375
686.232	1773
686.242	1910
686.278	2318
686.324	2275
686.363	1778
686.370	1673
686.416	1583
686.463	1990
686.484	1812
686.509	1746
686.555	1756
686.601	1780
686.606	1855
686.647	2359
686.693	1805
686.727	2163
686.739	2313
686.785	1642
686.831	1834
686.848	1803
686.877	1686
686.923	1353
686.969	1790
686.969	1793
687.015	1632
687.061	1655
687.090	1835
687.107	1875
687.153	1847
687.199	2032
687.211	1777
687.245	1238
687.291	1517
687.332	1449
687.336	1447
687.382	2539
687.428	2441
687.453	2378
687.474	2183
687.520	1892
687.565	1803
687.574	1703
687.611	1647
687.657	1994
687.695	2516
687.702	2594
687.748	2864
687.794	2584
687.816	2763
687.839	2828
687.885	2564
687.931	2200
687.937	2169
687.976	2110
688.022	1973
688.058	2225
688.067	2262
688.113	2074
688.158	2071
688.179	1966
688.204	1974
688.249	2243
688.295	2448
688.300	2424
688.340	2356
688.386	3279
688.421	3121
688.431	3006
688.477	3029
688.522	2664
688.542	2691
688.567	2762
688.613	2259
688.658	2286
688.663	2307
688.703	2657
688.749	2163
688.784	2196
688.794	2156
688.839	2356
688.884	2528
688.905	2540
688.930	2603
688.975	2019
689.020	2025
689.026	1965
689.065	1686
689.110	2093
689.146	2212
689.155	2227
689.201	1870
689.246	2068
689.267	2195
689.291	2448
689.336	2163
689.381	2613
689.388	2684
689.426	2915
689.471	2647
689.509	2605
689.516	2612
689.561	2472
689.606	2329
689.630	2418
689.651	2487
689.696	2244
689.741	2592
689.750	2585
689.785	2688
689.830	3208
689.871	2886
689.875	2833
689.920	2796
689.965	2796
689.992	2711
690.010	2764
690.054	2726
690.099	3032
690.112	2885
690.144	2578
690.189	3132
690.233	2575
690.233	2577
690.278	2888
690.323	2956
690.354	2618
690.367	2578
690.412	2372
690.457	2885
690.474	2947
690.501	2957
690.546	2855
690.590	2160
690.595	2205
690.635	2711
690.680	2403
690.716	2520
690.724	2576
690.769	2941
690.813	2916
690.836	2945
690.857	3087
690.902	3802
690.946	3873
690.957	3930
690.991	4519
691.035	5286
691.077	6229
691.080	6241
691.124	6261
691.168	5943
691.198	5601
691.213	5307
691.257	4950
691.301	4053
691.318	3997
691.346	4133
691.390	3317
691.434	3277
691.439	3198
691.478	2875
691.522	3117
691.559	2974
691.567	2984
691.611	3250
691.655	3457
691.680	3627
691.699	3694
691.743	3793
691.787	3653
691.800	3561
691.831	3542
691.875	3847
691.919	3964
691.921	3975
691.964	4194
692.008	3801
692.041	3361
692.052	3322
692.096	3508
692.139	3733
692.162	3612
692.183	3437
692.227	3768
692.271	3621
692.282	3605
692.315	3666
692.359	3940
692.402	3960
692.403	3970
692.447	3837
692.490	3936
692.523	3824
692.534	3728
692.578	3577
692.622	3309
692.643	3303
692.666	3376
692.709	3052
692.753	2908
692.763	2889
692.797	3078
692.840	3407
692.884	3460
692.884	3468
692.928	3272
692.971	3224
693.004	3042
693.015	3073
693.059	3249
693.102	3714
693.124	3685
693.146	3690
693.189	3627
693.233	3829
693.245	3962
693.276	4142
693.320	3783
693.363	3639
693.365	3619
693.407	3667
693.450	4110
693.485	3983
693.493	4008
693.537	4788
693.580	5021
693.605	5123
693.624	5211
693.667	5540
693.710	6140
693.725	6238
693.753	7470
693.797	9389
693.840	11670
693.845	11857
693.883	11114
693.926	10021
693.966	9822
693.970	9724
694.013	7761
694.056	5869
694.086	4564
694.099	4446
694.142	4133
694.185	3906
694.206	3860
694.229	4074
694.272	4201
694.315	4620
694.326	4527
694.358	4244
694.401	4525
694.444	4503
694.446	4496
694.487	4890
694.530	5180
694.566	5450
694.573	5378
694.616	4710
694.659	4178
694.686	3852
694.702	3910
694.745	4041
694.787	3988
694.806	4072
694.830	4163
694.873	3743
694.916	3903
694.926	3879
694.959	3849
695.002	3940
695.044	3632
695.046	3622
695.087	3848
695.130	3874
695.166	4061
695.172	4106
695.215	3982
695.258	4194
695.286	4168
695.301	4139
695.343	4258
695.386	4036
695.406	3989
695.428	4038
695.471	4212
695.514	4309
695.526	4324
695.556	4497
695.599	4631
695.641	4716
695.646	4733
695.684	4726
695.726	4611
695.766	4391
695.769	4395
695.811	4295
695.854	4415
695.886	4321
695.896	4321
695.938	4257
695.981	4300
696.005	4304
696.023	4321
696.065	4249
696.108	4187
696.125	4139
696.150	4351
696.192	4672
696.235	4913
696.245	5041
696.277	4953
696.319	4599
696.361	4247
696.365	4190
696.404	4349
696.446	4738
696.485	5026
696.488	5045
696.530	5092
696.572	5095
696.604	5077
696.614	5065
696.656	4911
696.698	4860
696.724	4770
696.740	4720
696.783	4546
696.825	4408
696.844	4353
696.867	4429
696.909	4463
696.951	4414
696.964	4427
696.992	4554
697.034	4614
697.076	4690
697.083	4693
697.118	4843
697.160	4968
697.202	5223
697.203	5210
697.244	5345
697.286	5491
697.323	5575
697.327	5564
697.369	5430
697.411	5209
697.442	5007
697.453	5046
697.494	5076
697.536	5248
697.562	5272
697.578	5312
697.620	5432
697.661	5476
697.682	5505
697.703	5597
697.744	5727
697.786	5978
697.801	6004
697.828	6104
697.869	6191
697.911	6372
697.921	6389
697.952	5846
697.994	5083
698.035	4345
698.040	4242
698.077	4353
698.118	4438
698.160	4513
698.160	4498
698.201	4783
698.243	5028
698.279	5262
698.284	5294
698.325	5414
698.367	5530
698.399	5600
698.408	5627
698.449	5672
698.491	5713
698.518	5732
698.532	5712
698.573	5590
698.614	5422
698.638	5333
698.656	5387
698.697	5468
698.738	5544
698.757	5565
698.779	5581
698.820	5569
698.862	5554
698.877	5537
698.903	5685
698.944	5887
698.985	6080
698.996	6120
699.026	5927
699.067	5627
699.116	5258
699.235	5094
699.354	5350
699.474	5641
699.593	5479
699.713	6240
699.832	6138
699.951	6481
700.070	5751
700.190	6100
700.309	5843
700.428	5623
700.547	6010
700.667	5812
700.786	5280
700.905	4878
701.024	5404
701.143	4908
701.262	5313
701.381	4655
701.500	5958
701.619	6764
701.738	5502
701.857	5354
701.976	4607
702.095	5469
702.214	5835
702.333	5538
702.452	5707
702.571	5298
702.690	5785
702.809	4960
702.928	4206
703.047	4784
703.165	4660
703.284	3983
703.403	4981
703.522	5444
703.640	4834
703.759	5544
703.878	7429
703.997	4459
704.115	4888
704.234	4925
704.353	4521
704.471	4730
704.590	4697
704.708	4349
704.827	4243
704.946	4219
705.064	4644
705.183	4773
705.301	5209
705.420	6259
705.538	5506
705.656	4919
705.775	5036
705.893	8817
706.012	14999
706.130	5140
706.249	5117
706.367	5399
706.485	4787
706.604	5037
706.722	5504
706.840	6378
706.958	6876
707.077	5388
707.195	5378
707.313	4036
707.431	5035
707.549	4368
707.668	3261
707.786	5420
707.904	4366
708.022	4419
708.140	5257
708.258	4344
708.376	5015
708.494	4807
708.612	4088
708.730	6244
708.848	6746
708.966	5850
709.084	5699
709.202	5366
709.320	5585
709.438	4585
709.556	5233
709.674	5494
709.791	5624
709.909	5682
710.027	4791
710.145	5358
710.263	5227
710.380	5227
710.498	5810
710.616	4650
710.733	5537
710.851	4792
710.969	5378
711.086	5198
711.204	5530
711.322	4247
711.439	4127
711.557	4432
711.674	4829
711.792	4862
711.909	5543
712.027	6266
712.144	4677
712.262	5215
712.379	5289
712.497	6075
712.614	7067
712.732	6360
712.849	5947
712.966	6320
713.084	8282
713.201	6059
713.318	6150
713.436	5610
713.553	6126
713.670	6835
713.787	7034
713.905	6347
714.022	5997
714.139	5524
714.256	6524
714.373	8747
714.490	13251
714.608	29533
714.725	137099
714.842	219706
714.959	15935
715.076	7318
715.193	5666
715.310	6001
715.427	4992
715.544	5733
715.661	5036
715.778	5066
715.895	5350
716.011	5118
716.128	5247
716.245	4487
716.362	6800
716.479	6303
716.596	5056
716.713	5134
716.829	4045
716.946	5044
717.063	4271
717.180	4341
717.296	3822
717.413	4359
717.530	4164
717.646	4267
717.763	4252
717.880	4002
717.996	4020
718.113	4793
718.229	3817
718.346	4376
718.462	3617
718.579	5944
718.695	11631
718.812	8395
718.928	6066
719.045	5130
719.161	3087
719.277	3404
719.394	4368
719.510	5278
719.626	3779
719.743	5026
719.859	6506
719.975	10618
720.092	34265
720.208	111315
720.324	18741
720.440	4984
720.557	5419
720.673	8165
720.789	10055
720.905	14738
721.021	7196
721.137	3965
721.253	3819
721.369	3508
721.486	4212
721.602	5365
721.718	4114
721.834	4186
721.950	3846
722.066	3309
722.181	3179
722.297	3528
722.413	4288
722.529	3667
722.645	3403
722.761	3469
722.877	3195
722.993	3079
723.108	3730
723.224	3606
723.340	3157
723.456	3337
723.571	4009
723.687	3348
723.803	3171
723.918	2278
724.034	3481
724.150	2446
724.265	3138
724.381	5024
724.497	8053
724.612	3391
724.728	2731
724.843	3390
724.959	3099
725.074	5440
725.190	7287
725.305	3611
725.421	2994
725.536	3232
725.651	2983
725.767	2273
725.882	3334
725.997	2857
726.113	3511
726.228	2787
726.343	2778
726.459	2489
726.574	3151
726.689	2933
726.804	2030
726.920	2251
727.035	2913
727.150	2185
727.265	2783
727.380	2819
727.495	3436
727.610	2447
727.725	2061
727.841	2936
727.956	5456
728.071	6401
728.186	3290
728.301	2159
728.416	2814
728.531	3296
728.645	2770
728.760	2053
728.875	3293
728.990	3276
729.105	2600
729.220	2709
729.335	2601
729.449	2412
729.564	1796
729.679	1461
729.794	2052
729.908	2712
730.023	2143
730.138	1938
730.253	1874
730.367	2282
730.482	2317
730.596	2622
730.711	2178
730.826	3671
730.940	3423
731.055	2804
731.169	3023
731.284	1885
731.398	1719
731.513	2690
731.627	2711
731.742	3394
731.856	3415
731.970	2954
732.085	3061
732.199	4294
732.313	5174
732.428	12878
732.542	46164
732.656	41478
732.771	5722
732.885	3505
732.999	2987
733.113	3192
733.227	3462
733.342	2234
733.456	3163
733.570	2962
733.684	2394
733.798	1804
733.912	2599
734.026	2535
734.140	1924
734.254	3215
734.368	3175
734.482	5429
734.596	2629
734.710	1949
734.824	2364
734.938	1981
735.052	3194
735.166	2312
735.280	2392
735.393	2095
735.507	2381
735.621	3348
735.735	4317
735.849	2481
735.962	2153
736.076	2174
736.190	1954
736.303	3083
736.417	3763
736.531	2133
736.644	2212
736.758	1042
736.872	1486
736.985	2221
737.099	2834
737.212	1980
737.326	2561
737.439	1772
737.553	2435
737.666	2132
737.780	2203
737.893	2073
738.007	2503
738.120	1182
738.233	2422
738.347	1766
738.460	2207
738.573	1585
738.687	1767
738.800	2384
738.913	3219
739.026	2995
739.140	1551
739.253	2457
739.366	1965
739.479	1569
739.592	1684
739.705	1918
739.818	2178
739.932	2204
740.045	2515
740.158	2041
740.271	1705
740.384	2162
740.497	1635
740.610	2625
740.723	2265
740.836	2317
740.949	1961
741.062	2689
741.174	3435
741.287	1399
741.400	2170
741.513	1902
741.626	2689
741.739	2268
741.851	2308
741.964	1862
742.077	1635
742.189	1745
742.302	2409
742.415	1874
742.527	1671
742.640	1391
742.753	1945
742.865	1503
742.978	1598
743.090	1002
743.203	1945
743.316	774
743.428	1504
743.541	1632
743.653	1572
743.766	802
743.878	1881
743.990	823
744.103	1608
744.215	1176
744.327	1754
744.440	2265
744.552	3781
744.664	3063
744.777	1523
744.889	1623
745.001	1742
745.113	960
745.226	1759
745.338	2160
745.450	2195
745.562	1497
745.674	1284
745.786	1710
745.898	1664
746.010	1353
746.122	1170
746.234	1330
746.347	939
746.459	1693
746.570	902
746.682	971
746.794	1711
746.906	1463
747.018	837
747.130	1467
747.242	1672
747.354	1522
747.466	2051
747.577	671
747.689	1682
747.801	1468
747.913	1367
748.024	800
748.136	1178
748.248	383
748.359	1633
748.471	1083
748.583	1164
748.694	1086
748.806	2396
748.918	2317
749.029	1616
749.141	2128
749.252	2268
749.364	2365
749.475	4610
749.587	3646
749.698	1497
749.809	1123
749.921	1080
750.032	921
750.144	912
750.255	1505
750.366	1312
750.478	1118
750.589	1382
750.700	1230
750.811	1299
750.923	1209
751.034	4179
751.145	6733
751.256	1529
751.367	1047
751.479	1358
751.590	1418
751.701	837
751.812	1011
751.923	844
752.034	1018
752.145	854
752.256	433
752.367	1170
752.478	1408
752.589	1157
752.700	551
752.811	385
752.922	474
753.032	1389
753.143	1562
753.254	745
753.365	1611
753.476	1183
753.586	1202
753.697	1250
753.808	706
753.919	237
754.029	199
754.140	1440
754.251	855
754.361	656
754.472	1461
754.582	863
754.693	617
754.804	1380
754.914	496
755.025	1446
755.135	445
755.246	1761
755.356	315
755.466	1342
755.577	675
755.687	1145
755.798	662
755.908	285
756.018	265
756.129	627
756.239	513
756.349	937
756.460	579
756.570	1316
756.680	1608
756.790	719
756.900	2139
757.011	1192
757.121	809
757.231	707
757.341	1743
757.451	273
757.561	627
757.671	681
757.781	741
757.891	1247
758.001	730
758.111	714
758.221	428
758.331	1332
758.441	1750
758.551	2495
758.661	2232
758.771	1020
758.880	920
758.990	655
759.100	1273
759.210	1318
759.320	1085
759.429	946
759.539	682
759.649	352
759.758	1687
759.868	1170
759.978	1050
760.087	1956
760.197	1316
760.307	1762
760.416	1409
760.526	1667
760.635	1403
760.745	2064
760.854	1570
760.964	1767
761.073	1058
761.182	1602
761.292	1269
761.401	1183
761.511	833
761.620	1092
761.729	986
761.839	1003
761.948	966
762.057	913
762.166	1685
762.276	338
762.385	1428
762.494	1023
762.603	728
762.712	1312
762.822	385
762.931	695
763.040	587
763.149	619
763.258	1817
763.367	1576
763.476	1450
763.585	1014
763.694	2148
763.803	1603
763.912	1991
764.021	843
764.130	1169
764.238	1530
764.347	1580
764.456	1263
764.565	1028
764.674	1778
764.783	1123
764.891	1204
765.000	1848
765.109	1828
765.217	2026
765.326	2927
765.435	3419
765.543	3174
765.652	3998
765.761	5771
765.869	8647
765.978	14491
766.086	24994
766.195	47615
766.303	118857
766.412	295785
766.520	294894
766.629	115683
766.737	38567
766.846	20120
766.954	13296
767.062	10234
767.171	7540
767.279	6398
767.387	4706
767.496	3009
767.604	3032
767.712	2661
767.820	2491
767.928	3000
768.037	2181
768.145	3162
768.253	1857
768.361	1593
768.469	2069
768.577	3092
768.685	2432
768.793	2817
768.901	2521
769.009	2462
769.117	3434
769.225	3912
769.333	5837
769.441	9721
769.549	17952
769.657	42106
769.765	125516
769.873	269467
769.981	138276
770.088	31839
770.196	14050
770.304	9136
770.412	6112
770.519	4241
770.627	4277
770.735	3068
770.842	2619
770.950	2061
771.058	2005
771.165	1588
771.273	1401
771.380	2422
771.488	2085
771.595	1755
771.703	1383
771.810	1583
771.918	842
772.025	2053
772.133	1397
772.240	1753
772.348	2072
772.455	1947
772.562	1653
772.670	1026
772.777	1977
772.884	1555
772.991	1455
773.099	1164
773.206	1146
773.313	1718
773.420	1517
773.528	517
773.635	992
773.742	1149
773.849	1059
773.956	972
774.063	573
774.170	728
774.277	1065
774.384	1074
774.491	784
774.598	747
774.705	779
774.812	2182
774.919	1338
775.026	1182
775.133	1022
775.239	1182
775.346	555
775.453	723
775.560	893
775.667	1199
775.773	1333
775.880	1705
775.987	1066
776.093	1726
776.200	782
776.307	930
776.413	986
776.520	927
776.627	1977
776.733	1297
776.840	56
776.946	2006
777.053	1417
777.159	1240
777.266	1051
777.372	2145
777.478	1500
777.585	1506
777.691	-357
777.798	983
777.904	1313
778.010	2080
778.117	2678
778.223	872
778.329	415
778.435	371
778.542	1411
778.648	1344
778.754	40
778.860	543
778.966	777
779.072	719
779.178	1437
779.284	861
779.391	758
779.497	70
779.603	1473
779.708	556
779.815	1962
779.920	5147
780.026	11560
780.132	2377
780.238	415
780.344	21
780.450	1361
780.556	347
780.661	239
780.767	1965
780.873	159
780.979	1137
781.085	941
781.190	814
781.296	-37
781.402	979
781.507	336
781.613	844
781.719	165
781.824	1223
781.930	914
782.035	1310
782.141	1058
782.246	-170
782.352	74
782.457	955
782.563	222
782.668	617
782.773	704
782.879	1136
782.984	1094
783.090	1838
783.195	2048
783.300	1640
783.405	196
783.511	921
783.616	1352
783.721	746
783.826	1166
783.932	795
784.037	1232
784.142	753
784.247	608
784.352	827
784.457	837
784.562	434
784.667	1234
784.772	-425
784.877	146
784.982	709
785.087	479
785.192	1012
785.297	473
785.402	924
785.507	804
785.611	810
785.716	574
785.821	233
785.926	404
786.031	-382
786.135	383
786.240	179
786.345	-194
786.450	239
786.554	-727
786.659	205
786.763	-294
786.868	1320
786.973	529
787.077	-290
787.182	468
787.286	-49
787.391	354
787.495	434
787.600	-140
787.704	159
787.809	478
787.913	9
788.017	686
788.122	583
788.226	242
788.330	192
788.435	-104
788.539	533
788.643	-194
788.747	48
788.852	620
788.956	-211
789.060	-263
789.164	643
789.268	178
789.372	406
789.476	-146
789.580	68
789.684	6
789.788	146
789.892	-557
789.996	-31
790.100	-16
790.204	933
790.308	141
790.412	-1
790.516	525
790.620	506
790.724	77
790.828	103
790.931	404
791.035	1060
791.139	691
791.242	-761
791.346	285
791.450	93
791.554	373
791.657	-663
791.761	1279
791.864	580
791.968	-8
792.072	1136
792.175	47
792.279	687
792.382	608
792.486	-84
792.589	320
792.693	199
792.796	-244
792.899	921
793.003	274
793.106	-308
793.209	-264
793.313	589
793.416	-828
793.519	671
793.623	785
793.726	1800
793.829	534
793.932	-490
794.035	284
794.138	853
794.242	777
794.345	857
794.448	477
794.551	951
794.654	3588
794.757	5393
794.860	1393
794.963	615
795.066	-132
795.169	1261
795.272	-15
795.375	-280
795.477	-171
795.580	119
795.683	-770
795.786	33
795.889	-1486
795.991	566
796.094	639
796.197	-435
796.300	782
796.402	-845
796.505	-345
796.608	185
796.710	678
796.813	-176
796.915	163
797.018	148
797.120	252
797.223	-577
797.326	351
797.428	-466
797.530	184
797.633	-806
797.735	1328
797.838	1090
797.940	446
798.042	-346
798.145	21
798.247	1030
798.349	-568
798.452	-249
798.554	-72
798.656	-894
798.758	356
798.860	343
798.962	-169
799.065	267
799.167	-476
799.269	460
799.371	478
799.473	76
799.575	-481
799.677	-130
799.779	1567
799.881	931
799.983	1512
800.085	-498
800.187	362
800.289	-918
800.390	79
800.492	10
800.594	-300
800.696	-556
800.798	-282
800.899	-694
801.001	-169
801.103	139
801.205	-583
801.306	-1041
801.408	-225
801.509	-377
801.611	-1
801.713	318
801.814	-1251
801.916	238
802.017	-575
802.119	170
802.220	44
802.322	-1409
802.423	363
802.525	74
802.626	-291
802.727	622
802.829	464
802.930	-1293
803.031	884
803.133	128
803.234	-243
803.335	455
803.436	-975
803.538	-332
803.639	-742
803.740	308
803.841	-26
803.942	155
804.043	90
804.144	-9
804.245	-353
804.346	-623
804.447	-1230
804.548	-84
804.649	1797
804.750	-534
804.851	-226
804.952	-145
805.053	-458
805.154	-1294
805.255	354
805.355	-728
805.456	-620
805.557	-289
805.658	-1281
805.758	295
805.859	-599
805.960	-413
806.061	-212
806.161	-43
806.262	-654
806.362	-923
806.463	-184
806.564	9
806.664	-139
806.765	-91
806.865	70
806.966	152
807.066	-542
807.166	50
807.267	414
807.367	-242
807.468	-375
807.568	-1092
807.668	360
807.769	-307
807.869	-153
807.969	-151
808.069	-124
808.170	-170
808.270	-13
808.370	320
808.470	-253
808.570	-35
808.670	-489
808.770	-239
808.870	-1160
808.970	49
809.070	-485
809.170	211
809.271	495
809.370	10
809.470	-628
809.570	-202
809.670	-873
809.770	-542
809.870	-132
809.970	22
810.070	-1381
810.169	-559
810.269	-1203
810.369	463
810.469	-446
810.568	-558
810.668	-505
810.768	-604
810.867	-513
810.967	-406
811.066	-427
811.166	-126
811.265	-212
811.365	-179
811.464	-428
811.564	-27
811.663	-547
811.763	-1329
811.862	155
811.962	420
812.061	-414
812.160	-1065
812.260	-963
812.359	-291
812.458	-355
812.557	-170
812.657	65
812.756	315
812.855	28
812.954	-774
813.053	-621
813.153	167
813.252	-471
813.351	-361
813.450	-46
813.549	-840
813.648	-36
813.747	-783
813.846	-128
813.945	-843
814.044	-258
814.143	171
814.242	489
814.341	-964
814.439	-315
814.538	-519
814.637	-288
814.736	-1595
814.835	-4
814.933	-534
815.032	-4
815.131	-223
815.229	-490
815.328	-565
815.427	-953
815.525	358
815.624	169
815.722	-423
815.821	-401
815.919	-423
816.018	-1166
816.116	1071
816.215	-177
816.313	19
816.412	284
816.510	-574
816.609	714
816.707	-378
816.805	302
816.904	-14
817.002	307
817.100	186
817.198	-129
817.296	133
817.395	188
817.493	533
817.591	-108
817.689	1392
817.787	916
817.885	2780
817.983	5967
818.081	15442
818.179	39231
818.277	112136
818.375	124250
818.473	25309
818.571	6969
818.669	4169
818.767	3307
818.865	3704
818.963	4294
819.061	5668
819.158	12693
819.256	31538
819.354	77593
819.452	202926
819.549	159498
819.647	32366
819.745	9823
819.842	5678
819.940	3361
820.038	2200
820.135	1489
820.233	2188
820.330	877
820.428	275
820.525	502
820.623	938
820.720	25
820.818	591
820.915	390
821.012	185
821.110	-957
821.207	103
821.304	-591
821.402	-182
821.499	-363
821.596	929
821.693	760
821.791	401
821.888	613
821.985	2424
822.082	1223
822.179	811
822.276	383
822.373	-23
822.470	-19
822.567	-446
822.664	-612
822.761	151
822.858	-1250
822.955	201
823.052	-486
823.149	-206
823.246	-154
823.343	-327
823.440	-172
823.536	-161
823.633	-862
823.730	-678
823.827	-282
823.923	-124
824.020	408
824.117	-1036
824.213	-1522
824.310	428
824.407	-625
824.503	-16
824.600	-312
824.696	-465
824.793	-347
824.889	-710
824.986	-634
825.082	-253
825.179	203
825.275	-202
825.371	-279
825.468	377
825.564	-974
825.660	-377
825.757	41
825.853	276
825.949	-781
826.045	-262
826.142	-1192
826.238	-600
826.334	-468
826.430	-1630
826.526	-607
826.622	-702
826.718	-698
826.814	-570
826.910	-55
827.006	-590
827.102	-891
827.198	-378
827.294	-845
827.390	-752
827.486	106
827.582	-1142
827.678	-1196
827.774	446
827.869	-1780
827.965	128
828.061	-400
828.157	-873
828.252	-694
828.348	-1123
828.444	-264
828.539	-592
828.635	-733
828.731	60
828.826	-496
828.922	209
829.017	-989
829.113	-220
829.208	-1009
829.304	-681
829.399	123
829.495	-611
829.590	-726
829.685	-1055
829.781	-1402
829.876	-438
829.971	-1302
830.066	-790
830.162	-528
830.257	-1197
830.352	-1398
830.447	341
830.543	-1171
830.638	-1158
830.733	646
830.828	-418
830.923	-142
831.018	-688
831.113	-877
831.208	-470
831.303	-434
831.398	-780
831.493	-379
831.588	-88
831.683	-1241
831.778	-608
831.873	-21
831.967	94
832.062	-1619
832.157	-1106
832.252	272
832.346	-571
832.441	152
832.536	-421
832.631	1760
832.725	1762
832.820	-651
832.914	-717
833.009	-1500
833.104	-974
833.198	-399
833.293	-936
833.387	-292
833.482	-1135
833.576	-1439
833.670	-472
833.765	-1613
833.859	-1383
833.954	-245
834.048	-121
834.142	-953
834.237	-1015
834.331	-878
834.425	-694
834.519	-780
834.613	-59
834.708	-581
834.802	-384
834.896	-496
834.990	-443
835.084	-832
835.178	-399
835.272	-662
835.366	-980
835.460	102
835.554	-964
835.648	-653
835.742	-1438
835.836	-662
835.930	-1458
836.024	-449
836.117	-246
836.211	-792
836.305	-610
836.399	-359
836.493	-1633
836.586	-319
836.680	-941
836.774	-1043
836.867	204
836.961	-1237
837.055	-1746
837.148	-896
837.242	-915
837.335	-659
837.429	-698
837.522	-801
837.616	-894
837.709	-21
837.803	-774
837.896	-104
837.989	-1225
838.083	-459
838.176	-488
838.269	-364
838.363	-613
838.456	-415
838.549	229
838.642	-437
838.735	2758
838.829	-46
838.922	-387
839.015	-934
839.108	-1731
839.201	-648
839.294	-874
839.387	-563
839.480	-632
839.573	-952
839.666	-573
839.759	-1255
839.852	-1355
839.945	-1182
840.038	-602
840.131	-723
840.223	-962
840.316	-355
840.409	-590
840.502	-1821
840.594	-169
840.687	-1476
840.780	-1021
840.873	-1487
840.965	-702
841.058	-1478
841.150	-253
841.243	-1111
841.336	-32
841.428	-1576
841.521	-1456
841.613	-1420
841.706	-710
841.798	-1039
841.890	-1129
841.983	-2111
842.075	-99
842.167	-1160
842.260	-978
842.352	-321
842.444	-711
842.537	-325
842.629	678
842.721	-260
842.813	-710
842.905	-1720
842.997	-652
843.090	-921
843.182	-362
843.274	-1605
843.366	1142
843.458	2983
843.550	2089
843.642	-670
843.734	-556
843.826	-1081
843.918	447
844.009	-843
844.101	-1290
844.193	-1281
844.285	-753
844.377	-486
844.469	-551
844.560	-1357
844.652	-921
844.744	-1235
844.835	-957
844.927	-238
845.019	-1138
845.110	-353
845.202	-696
845.293	-899
845.385	-1897
845.476	-919
845.568	-656
845.659	-990
845.751	17
845.842	-1598
845.934	-601
846.025	-1359
846.116	-319
846.208	-344
846.299	-1190
846.390	-1736
846.482	-970
846.573	-700
846.664	-489
846.755	-486
846.846	652
846.937	-1751
847.029	-1407
847.120	-1416
847.211	-1520
847.302	101
847.393	-1410
847.484	-1211
847.575	-1375
847.666	-1209
847.757	-784
847.847	-1232
847.938	-69
848.029	-1966
848.120	-1719
848.211	-951
848.302	-1197
848.392	-1507
848.483	-1264
848.574	-1194
848.664	-1753
848.755	-750
848.846	-1076
848.936	-966
849.027	-749
849.118	-684
849.208	-711
849.299	-1138
849.389	188
849.480	949
849.570	3590
849.661	7779
849.751	17227
849.841	8075
849.932	-248
850.022	-1158
850.112	-601
850.203	-762
850.293	-1449
850.383	-812
850.474	-1735
850.564	-1171
850.654	-36
850.744	-578
850.834	-1108
850.924	-1171
851.014	-1199
851.104	-1598
851.194	-1163
851.284	-807
851.374	-736
851.464	-490
851.554	-1000
851.644	-1007
851.734	-466
851.824	-827
851.914	-1053
852.004	-1443
852.094	-980
852.183	-1074
852.273	-1175
852.363	-1761
852.452	-999
852.542	-2356
852.632	-412
852.721	-393
852.811	-745
852.901	-461
852.990	-1987
853.080	-982
853.169	-1328
853.259	-964
853.348	-462
853.438	-257
853.527	-135
853.617	-77
853.706	2056
853.795	4033
853.885	11980
853.974	26811
854.063	48975
854.152	100591
854.242	51590
854.331	5643
854.420	1069
854.509	-363
854.598	389
854.687	-736
854.777	19
854.866	-273
854.955	-290
855.044	-1311
855.133	-1481
855.222	-1499
855.311	-608
855.400	-785
855.488	-913
855.577	-1333
855.666	-797
855.755	-398
855.844	-679
855.933	-1163
856.021	-122
856.110	-209
856.199	-173
856.288	-1112
856.376	-1516
856.465	-2083
856.554	-570
856.642	-1255
856.731	-1002
856.819	-864
856.908	-1042
856.996	-1470
857.085	-828
857.173	-819
857.262	-643
857.350	-834
857.438	-218
857.527	-1633
857.615	-1482
857.703	-487
857.792	-1430
857.880	-1444
857.968	-798
858.056	-940
858.145	-864
858.233	-914
858.321	-1905
858.409	-774
858.497	-1830
858.585	-1377
858.673	-1063
858.761	-1394
858.849	-617
858.937	-728
859.025	-722
859.113	-1389
859.201	-2063
859.289	-526
859.377	-1045
859.465	-728
859.552	-760
859.640	-787
859.728	-1229
859.816	-1254
859.903	-333
859.991	-928
860.079	-966
860.166	-786
860.254	-1073
860.342	-1112
860.429	-2074
860.517	-1458
860.604	-481
860.692	-478
860.779	-908
860.867	-1691
860.954	-1186
861.042	-1140
861.129	-721
861.216	-218
861.304	-1236
861.391	-1503
861.478	-1040
861.565	-932
861.653	-607
861.740	-1794
861.827	-1116
861.914	-709
862.001	-1792
862.089	-1691
862.176	-1623
862.263	-1204
862.350	-1126
862.437	-1759
862.524	-1573
862.611	-1722
862.698	-1034
862.785	-1510
862.871	-812
862.958	-1672
863.045	-908
863.132	-1590
863.219	-868
863.306	-1742
863.392	-802
863.479	-842
863.566	-594
863.652	-588
863.739	-1768
863.826	-1460
863.912	-1218
863.999	-1085
864.086	-1146
864.172	-1518
864.259	-1087
864.345	-1420
864.432	-1027
864.518	-578
864.604	-1033
864.691	-1187
864.777	-576
864.863	-678
864.950	-830
865.036	-1442
865.122	-850
865.209	-346
865.295	-878
865.381	-1046
865.467	-740
865.553	386
865.639	604
865.726	1304
865.812	5450
865.898	13583
865.984	21694
866.070	38788
866.156	59632
866.242	19212
866.328	1555
866.414	673
866.499	-1279
866.585	-340
866.671	-632
866.757	-689
866.843	-463
866.928	-92
867.014	-730
867.100	-280
867.186	-752
867.271	-282
867.357	-840
867.442	-1108
867.528	-560
867.614	-266
867.699	-992
867.785	379
867.870	-664
867.956	-1076
868.041	-871
868.127	146
868.212	-397
868.297	-393
868.383	-1309
868.468	-601
868.553	503
868.639	66
868.724	1561
868.809	3312
868.894	607
868.979	-911
869.065	-1248
869.150	-2056
869.235	-1062
869.320	-1242
869.405	-1062
869.490	-1620
869.575	-924
869.660	-859
869.745	-1246
869.830	-252
869.915	-1604
870.000	-1980
870.085	-1277
870.169	-1008
870.254	-679
870.339	-1410
870.424	-1302
870.509	-797
870.593	-436
870.678	-787
870.763	-423
870.847	-1698
870.932	-940
871.016	-1343
871.101	-1283
871.186	-1310
871.270	76
871.355	-1342
871.439	-1314
871.523	-919
871.608	-778
871.692	-974
871.777	-611
871.861	-1066
871.945	-331
872.030	-1084
872.114	-965
872.198	-1853
872.282	-1008
872.367	-1368
872.451	-658
872.535	-437
872.619	-444
872.703	-1244
872.787	-259
872.871	-1676
872.955	-329
873.039	-1348
873.123	-1119
873.207	-1051
873.291	-722
873.375	-1033
873.459	-976
873.543	-1574
873.627	-1430
873.711	-1294
873.794	-1519
873.878	-1199
873.962	-1473
874.045	-1100
874.129	-1574
874.137	-1536
874.213	-1157
874.245	-1529
874.296	-2132
874.352	-1731
874.380	-1536
874.460	-777
874.464	-747
874.547	-532
874.568	-550
874.631	-615
874.676	-989
874.714	-1280
874.784	-761
874.798	-666
874.881	350
874.892	156
874.965	-1161
874.999	-1384
875.048	-1725
875.107	-1468
875.131	-1347
875.215	-214
875.215	-215
875.298	-1464
875.323	-1387
875.381	-1178
875.430	-852
875.465	-630
875.538	-912
875.548	-951
875.631	-1067
875.646	-1155
875.714	-1551
875.753	-1379
875.798	-1214
875.861	-1643
875.881	-1765
875.964	-469
875.968	-509
876.047	-1188
876.076	-1216
876.130	-1332
876.183	-1055
876.213	-892
876.291	-662
876.296	-640
876.379	-1166
876.398	-986
876.462	-537
876.506	-876
876.545	-1081
876.613	-432
876.628	-318
876.711	-1530
876.721	-1441
876.794	-789
876.828	-929
876.877	-1042
876.935	-939
876.960	-911
877.043	-911
877.043	-909
877.125	-322
877.150	-302
877.208	-225
877.258	-689
877.291	-970
877.365	-251
877.374	-173
877.456	-180
877.472	-111
877.539	292
877.579	35
877.622	-422
877.687	-557
877.704	-520
877.787	61
877.794	-17
877.869	-968
877.901	-816
877.952	-509
878.008	-495
878.034	-516
878.115	-579
878.117	-577
878.199	-763
878.222	-668
878.282	-481
878.329	-643
878.364	-800
878.437	-366
878.447	-285
878.529	-1112
878.544	-1001
878.611	-527
878.651	-694
878.694	-808
878.758	-503
878.776	-420
878.858	-839
878.865	-848
878.941	-1363
878.972	-1163
879.023	-615
879.078	-858
879.105	-950
879.185	-574
879.187	-566
879.269	-1104
879.292	-1140
879.351	-1043
879.399	-732
879.433	-662
879.506	-403
879.516	-353
879.598	-665
879.613	-696
879.680	-854
879.720	-769
879.762	-661
879.827	-719
879.844	-821
879.926	-1033
879.933	-1086
880.007	-1052
880.040	-939
880.089	-755
880.147	-405
880.171	-403
880.253	-634
880.254	-634
880.335	83
880.360	339
880.417	521
880.467	596
880.499	796
880.574	2080
880.580	2167
880.662	743
880.680	487
880.744	-382
880.787	-430
880.825	-489
880.893	-912
880.907	-970
880.989	-365
881.000	-383
881.070	-303
881.106	-204
881.152	-432
881.213	-735
881.233	-756
881.315	-756
881.319	-750
881.396	-395
881.426	-479
881.478	-715
881.532	-822
881.559	-971
881.639	-1024
881.641	-1017
881.722	-724
881.745	-739
881.803	-375
881.852	-350
881.885	-632
881.958	-615
881.966	-580
882.047	-266
882.064	-238
882.129	-295
882.171	-174
882.210	123
882.277	239
882.291	224
882.372	-267
882.383	-254
882.454	-210
882.489	-340
882.535	-329
882.596	-496
882.616	-659
882.697	-425
882.702	-451
882.778	-422
882.808	-410
882.859	-395
882.914	-66
882.940	50
883.020	-54
883.021	-53
883.102	-561
883.127	-503
883.183	-158
883.233	-467
883.264	-748
883.339	-391
883.345	-327
883.426	-804
883.445	-563
883.507	282
883.551	208
883.587	-182
883.657	-406
883.668	-377
883.749	-639
883.763	-625
883.830	-423
883.869	-357
883.910	-399
883.975	-333
883.991	-333
884.072	-460
884.081	-501
884.152	-349
884.187	-144
884.233	51
884.292	78
884.314	-60
884.394	-435
884.398	-468
884.475	-302
884.504	-87
884.555	-241
884.610	-631
884.636	-641
884.716	-91
884.716	-86
884.797	-252
884.821	-193
884.877	-309
884.927	-451
884.958	-270
885.033	112
885.038	110
885.118	104
885.139	124
885.199	219
885.244	320
885.279	273
885.350	-162
885.359	-166
885.439	-8
885.456	2
885.520	-20
885.561	-73
885.600	-108
885.667	-95
885.680	-108
885.760	-133
885.773	-154
885.840	-120
885.878	-90
885.920	-13
885.984	-207
886.000	-263
886.080	-85
886.089	-80
886.160	-109
886.195	-134
886.240	-87
886.300	-84
886.320	-69
886.400	61
886.406	43
886.480	168
886.511	402
886.560	426
886.616	275
886.640	245
886.720	-23
886.722	-33
886.800	-125
886.827	-89
886.879	155
886.932	236
886.959	328
887.038	530
887.039	532
887.119	179
887.143	76
887.198	231
887.248	375
887.278	368
887.354	213
887.358	240
887.437	733
887.459	847
887.517	230
887.564	-241
887.596	-86
887.669	215
887.676	194
887.755	-65
887.774	-162
887.835	-216
887.880	-148
887.914	-98
887.985	-235
887.994	-237
888.073	-173
888.090	-146
888.153	-318
888.195	-500
888.232	-322
888.300	73
888.311	128
888.391	450
888.405	509
888.470	289
888.510	121
888.549	-12
888.615	-224
888.628	-211
888.708	-149
888.720	-132
888.787	396
888.825	628
888.866	438
888.930	256
888.945	215
889.024	-156
889.035	-197
889.103	420
889.140	718
889.182	346
889.245	-187
889.261	-197
889.340	-259
889.349	-271
889.419	-264
889.454	-251
889.498	20
889.559	382
889.577	360
889.656	255
889.664	243
889.735	429
889.768	515
889.814	462
889.873	388
889.978	194
890.083	427
890.187	533
890.292	353
890.397	1157
890.501	655
890.606	157
890.710	964
890.815	599
890.919	571
891.024	-1204
891.128	594
891.233	-298
891.337	356
891.442	317
891.546	90
891.650	334
891.755	1022
891.859	913
891.963	80
892.068	417
892.172	404
892.276	-169
892.380	-182
892.484	860
892.589	788
892.693	501
892.797	87
892.901	1241
893.005	152
893.109	-199
893.213	497
893.317	557
893.421	1208
893.525	-270
893.629	435
893.733	400
893.837	-187
893.941	1005
894.045	1044
894.148	-266
894.252	829
894.356	-360
894.460	376
894.564	746
894.667	402
894.771	123
894.875	234
894.978	374
895.082	218
895.186	530
895.289	530
895.393	427
895.496	475
895.600	-44
895.703	372
895.807	-188
895.910	353
896.014	-127
896.117	366
896.221	707
896.324	461
896.427	542
896.531	107
896.634	-57
896.737	-135
896.840	-466
896.944	225
897.047	732
897.150	255
897.253	669
897.356	272
897.460	573
897.563	29
897.666	502
897.769	-544
897.872	-717
897.975	-88
898.078	668
898.181	424
898.284	226
898.387	277
898.490	321
898.593	913
898.695	-83
898.798	431
898.901	339
899.004	842
899.107	22
899.209	537
899.312	90
899.415	114
899.518	685
899.620	113
899.723	-445
899.826	889
899.928	197
900.031	-136
900.133	-425
900.236	239
900.338	495
900.441	342
900.543	-415
900.646	492
900.748	612
900.851	512
900.953	205
901.055	99
901.158	383
901.260	1144
901.362	-180
901.465	173
901.567	235
901.669	627
901.771	-439
901.873	-146
901.976	260
902.078	305
902.180	291
902.282	-68
902.384	289
902.486	285
902.588	406
902.690	92
902.792	-387
902.894	-50
902.996	355
903.098	542
903.200	-476
903.302	452
903.404	-252
903.505	-264
903.607	522
903.709	783
903.811	218
903.913	-110
904.014	351
904.116	28
904.218	614
904.319	425
904.421	310
904.523	167
904.624	-581
904.726	237
904.827	-281
904.929	276
905.030	223
905.132	187
905.233	1124
905.335	504
905.436	-25
905.537	-56
905.639	287
905.740	761
905.841	-143
905.943	522
906.044	-151
906.145	77
906.247	-763
906.348	253
906.449	235
906.550	-359
906.651	-83
906.752	202
906.854	-365
906.955	-622
907.056	123
907.157	904
907.258	437
907.359	57
907.460	-199
907.561	1108
907.662	93
907.762	-743
907.863	172
907.964	501
908.065	-110
908.166	260
908.267	-189
908.367	177
908.468	738
908.569	329
908.670	665
908.770	807
908.871	-11
908.971	134
909.072	-419
909.173	-808
909.273	-166
909.374	296
909.474	-332
909.575	575
909.675	240
909.776	22
909.876	-539
909.977	-31
910.077	781
910.177	-145
910.278	214
910.378	-159
910.478	717
910.579	-122
910.679	-751
910.779	-311
910.879	-495
910.980	-780
911.080	291
911.180	226
911.280	57
911.380	-36
911.480	539
911.580	12
911.680	663
911.780	530
911.880	73
911.980	-209
912.080	-251
912.180	648
912.280	34
912.380	909
912.480	-250
912.580	-229
912.679	-51
912.779	967
912.879	-401
912.979	-439
913.078	-202
913.178	-394
913.278	65
913.377	214
913.477	-148
913.577	-222
913.676	404
913.776	476
913.875	-812
913.975	-174
914.074	-492
914.174	-379
914.273	-570
914.373	584
914.472	-718
914.572	-337
914.671	-25
914.770	-60
914.870	-149
914.969	330
915.068	-87
915.167	-815
915.267	98
915.366	-40
915.465	137
915.564	-1039
915.663	-863
915.763	312
915.862	781
915.961	127
916.060	5
916.159	175
916.258	-211
916.357	-590
916.456	551
916.555	-385
916.654	58
916.752	664
916.851	-894
916.950	577
917.049	-281
917.148	-122
917.247	-158
917.345	-249
917.444	-1277
917.543	-44
917.642	-243
917.740	-86
917.839	-318
917.937	-130
918.036	179
918.135	45
918.233	-756
918.332	-551
918.430	-407
918.529	152
918.627	-191
918.726	-295
918.824	-483
918.923	-258
919.021	-206
919.119	-568
919.218	-336
919.316	223
919.414	-552
919.512	-369
919.611	-228
919.709	141
919.807	-99
919.905	506
920.003	467
920.102	-874
920.200	-48
920.298	-446
920.396	-833
920.494	55
920.592	-169
920.690	71
920.788	271
920.886	149
920.984	-258
921.082	-1276
921.180	-908
921.277	-662
921.375	-403
921.473	-830
921.571	139
921.669	-546
921.766	-104
921.864	258
921.962	-487
922.060	-429
922.157	-561
922.255	-594
922.352	-113
922.450	590
922.548	-84
922.645	-390
922.743	-1262
922.840	-775
922.938	-815
923.035	-1007
923.133	-116
923.230	-650
923.327	-240
923.425	141
923.522	-110
923.619	-929
923.717	-774
923.814	-694
923.911	-1139
924.008	128
924.106	208
924.203	-824
924.300	-404
924.397	628
924.494	83
924.591	-808
924.688	-403
924.786	-790
924.883	-617
924.979	-758
925.077	-46
925.173	352
925.270	-282
925.367	-346
925.464	-442
925.561	-30
925.658	-567
925.755	414
925.852	-354
925.948	263
926.045	-295
926.142	-135
926.239	-523
926.335	-792
926.432	-167
926.529	-133
926.625	-280
926.722	281
926.818	-1284
926.915	-244
927.011	126
927.108	-394
927.204	-585
927.301	-710
927.397	29
927.494	-191
927.590	-427
927.687	197
927.783	-402
927.879	-899
927.976	-399
928.072	-453
928.168	-1332
928.264	4
928.361	-543
928.457	12
928.553	-667
928.649	307
928.745	-491
928.841	583
928.937	-1016
929.033	-93
929.129	-768
929.225	-127
929.321	-630
929.417	-773
929.513	-50
929.609	-651
929.705	-508
929.801	-253
929.897	-428
929.993	-823
930.089	119
930.184	-1186
930.280	-862
930.376	308
930.471	-859
930.567	-77
930.663	-564
930.758	-631
930.854	-92
930.950	-573
931.045	-758
931.141	617
931.236	300
931.332	214
931.427	-1224
931.523	-230
931.618	-138
931.714	-1030
931.809	-36
931.905	-702
932.000	-170
932.095	-560
932.191	-107
932.286	-1121
932.381	-540
932.476	-296
932.572	-1026
932.667	-14
932.762	-299
932.857	-283
932.952	-800
933.047	-624
933.142	-534
933.237	-378
933.332	-942
933.427	321
933.522	-158
933.617	-463
933.712	-449
933.807	-489
933.902	-647
933.997	-781
934.092	-541
934.187	-833
934.282	-364
934.376	-598
934.471	-721
934.566	-390
934.661	-644
934.755	-283
934.850	-170
934.945	-480
935.039	-509
935.134	-578
935.228	-958
935.323	-821
935.417	-1355
935.512	-792
935.606	-705
935.701	-546
935.795	-1081
935.890	-1574
935.984	-807
936.079	-741
936.173	-639
936.267	-337
936.362	-900
936.456	-404
936.550	199
936.644	-339
936.738	-407
936.833	-625
936.927	-445
937.021	-295
937.115	-83
937.209	-613
937.303	263
937.397	-1123
937.491	-914
937.585	-7
937.679	-343
937.773	-846
937.867	-878
937.961	-764
938.055	-492
938.149	553
938.243	-858
938.337	179
938.430	-754
938.524	-114
938.618	325
938.712	254
938.805	-466
938.899	-261
938.993	-871
939.086	-497
939.180	-433
939.274	-517
939.367	-615
939.461	-1231
939.554	-448
939.648	-307
939.741	-295
939.835	-529
939.928	-314
940.022	-676
940.115	-437
940.208	336
940.302	209
940.395	-666
940.488	-1174
940.582	83
940.675	-669
940.768	-387
940.861	-259
940.954	35
941.048	-802
941.141	-696
941.234	-369
941.327	-853
941.420	253
941.513	-633
941.606	-80
941.699	-437
941.792	-645
941.885	-710
941.978	-504
942.071	-376
942.164	-395
942.257	-153
942.349	-300
942.442	374
942.535	-1009
942.628	-369
942.721	42
942.813	-534
942.906	-333
942.999	15
943.091	-262
943.184	-532
943.277	-707
943.369	-86
943.462	-818
943.554	-987
943.647	-600
943.739	399
943.832	-895
943.924	-465
944.017	612
944.109	-1234
944.201	-142
944.294	-486
944.386	-579
944.478	-884
944.571	-277
944.663	92
944.755	-535
944.847	-68
944.940	-305
945.032	-870
945.124	-1235
945.216	738
945.308	-705
945.400	187
945.492	-237
945.584	-1021
945.676	-649
945.768	236
945.860	-707
945.952	-650
946.044	-254
946.136	-24
946.228	70
946.320	-663
946.412	-784
946.503	-555
946.595	102
946.687	-516
946.779	-1682
946.870	-1348
946.962	-444
947.054	-1122
947.145	-360
947.237	-246
947.329	-16
947.420	-1049
947.512	-1028
947.603	-1247
947.695	-483
947.786	-1514
947.878	-815
947.969	-744
948.061	-557
948.152	-814
948.243	-25
948.335	-6
948.426	-933
948.517	-1086
948.609	-646
948.700	-541
948.791	-618
948.882	-619
948.973	-1027
949.065	-707
949.156	-479
949.247	-595
949.338	51
949.429	-808
949.520	-1051
949.611	-1360
949.702	-327
949.793	-829
949.884	-273
949.975	-472
950.066	-866
950.157	-786
950.247	-592
950.338	-474
950.429	-670
950.520	-474
950.611	-929
950.701	-345
950.792	-637
950.883	-648
950.973	-595
951.064	-1038
951.155	-1041
951.245	-673
951.336	-467
951.427	-1120
951.517	-507
951.608	-756
951.698	-1436
951.788	-457
951.879	-748
951.969	26
952.060	158
952.150	-506
952.240	15
952.331	-2049
952.421	237
952.511	-969
952.602	-1000
952.692	-668
952.782	-668
952.872	-1136
952.962	-1045
953.052	-976
953.143	-1452
953.233	-125
953.323	-16
953.413	-1118
953.503	-279
953.593	-1216
953.683	-1485
953.773	-405
953.863	-623
953.953	-1151
954.042	-608
954.132	-1407
954.222	16
954.312	-200
954.402	-310
954.492	-1241
954.581	-466
954.671	-1166
954.761	-1624
954.850	-343
954.940	-974
955.030	-1015
955.119	-1239
955.209	-575
955.298	-1031
955.388	-1013
955.477	-631
955.567	-1027
955.656	-730
955.746	-855
955.835	-1116
955.925	-971
956.014	-840
956.103	-1459
956.193	-830
956.282	-947
956.371	-1320
956.461	-1666
956.550	-1611
956.639	-1173
956.728	-894
956.817	-898
956.906	-763
956.995	-272
957.085	-405
957.174	-1008
957.263	-653
957.352	-573
957.441	-839
957.530	-791
957.619	-1416
957.708	-1177
957.796	-1598
957.885	-440
957.974	-1284
958.063	-1108
958.152	-890
958.241	-394
958.329	-956
958.418	-1357
958.507	-1065
958.596	-326
958.684	-1515
958.773	-566
958.861	-1855
958.950	-569
959.039	-1202
959.127	-348
959.216	-550
959.304	-1431
959.393	-1132
959.481	-699
959.570	-1504
959.658	-627
959.746	-894
959.835	-1273
959.923	-1182
960.011	-473
960.100	-857
960.188	-433
960.276	-843
960.365	-348
960.453	-1118
960.541	-1245
960.629	-965
960.717	-934
960.805	-806
960.893	-443
960.981	-861
961.069	-1440
961.158	-798
961.245	-1190
961.333	-2151
961.421	-1650
961.509	-1236
961.597	-804
961.685	-928
961.773	-1070
961.861	-1600
961.949	-618
962.036	-743
962.124	6
962.212	-581
962.299	-1092
962.387	-1768
962.475	-769
962.562	-1364
962.650	-1151
962.738	-862
962.825	-539
962.913	-834
963.000	-1117
963.088	-1252
963.175	-1922
963.263	-1080
963.350	-1575
963.438	-1589
963.525	-896
963.612	-649
963.700	-1089
963.787	-455
963.874	-993
963.962	-550
964.049	-343
964.136	-1424
964.223	-1626
964.310	-1273
964.398	-1273
964.485	-1575
964.572	-1166
964.659	-1398
964.746	-1194
964.833	-1570
964.920	-1292
965.007	-1056
965.094	-747
965.181	-1484
965.268	-1742
965.355	-922
965.441	-1059
965.528	-1255
965.615	-877
965.702	-1518
965.789	-1179
965.875	-1584
965.962	-1751
966.049	-1572
966.136	-1163
966.222	-2077
966.309	-784
966.395	-1208
966.482	-976
966.569	-1508
966.655	-1824
966.742	-1545
966.828	-917
966.915	-1437
967.001	-490
967.087	-1531
967.174	-1275
967.260	-982
967.347	-1778
967.433	-1654
967.519	-686
967.605	-1650
967.692	-1499
967.778	-600
967.864	-1852
967.950	-1890
968.036	-2054
968.123	-1581
968.209	-967
968.295	-952
968.381	-888
968.467	-279
968.553	-1977
968.639	-1078
968.725	-1004
968.811	-930
968.897	-982
968.983	-1155
969.069	-1325
969.154	-751
969.240	-1252
969.326	-1452
969.412	-1417
969.497	-1101
969.583	-1344
969.669	-1327
969.755	-497
969.840	-1324
969.926	-947
970.012	-1324
970.097	-810
970.183	-1421
970.268	-1576
970.354	-1219
970.439	-1222
970.525	-1121
970.610	-1360
970.696	-1208
970.781	-1279
970.866	-1218
970.952	-562
971.037	-1410
971.122	-850
971.208	-1014
971.293	-893
971.378	-1176
971.463	-867
971.549	-1589
971.634	-815
971.719	-1581
971.804	-521
971.889	-718
971.974	-1411
972.059	-1093
972.144	-839
972.229	-2080
972.314	-1540
972.399	-698
972.484	-872
972.569	-975
972.654	-1909
972.739	-357
972.824	-1185
972.908	-1264
972.993	-1873
973.078	-1637
973.163	-1242
973.247	-1525
973.332	-3032
973.417	-177
973.501	-1286
973.586	-2243
973.671	-713
973.755	-792
973.840	-1043
973.924	-949
974.009	-664
974.093	-1238
974.178	-24
974.262	-594
974.346	-1259
974.431	-1852
974.515	-1254
974.600	-1406
974.684	-719
974.768	-1402
974.852	-709
974.937	-2199
975.021	-1147
975.105	-1365
975.189	-790
975.273	-750
975.358	-892
975.442	-1770
975.526	-1039
975.610	-1901
975.694	-1415
975.778	-921
975.862	-925
975.946	-2590
976.030	-358
976.114	-1165
976.198	-1508
976.281	-993
976.365	-559
976.449	-1858
976.533	-1636
976.617	-1169
976.700	-1402
976.784	-1615
976.868	-1116
976.951	-621
977.035	-1790
977.119	-718
977.202	-176
977.286	-341
977.369	-948
977.453	-1342
977.536	-1696
977.620	-1477
977.703	-1251
977.787	-1548
977.870	-1032
977.953	-709
978.037	-1587
978.120	-488
978.203	-983
978.287	-1011
978.370	-916
978.453	-1041
978.536	-879
978.620	-1108
978.703	-824
978.786	-1940
978.869	-850
978.952	-1987
979.035	-54
979.118	-696
979.201	-1765
979.284	-1055
979.367	-1246
979.450	-1316
979.533	-1942
979.616	-1175
979.699	-1146
979.782	-1085
979.865	-988
979.948	-899
980.030	-1111
980.113	-1121
980.196	-1879
980.279	-497
980.361	-1091
980.444	-907
980.526	-552
980.609	-1132
980.692	-975
980.774	-1622
980.857	-1259
980.939	-1243
981.022	-1403
981.104	-1630
981.187	-1513
981.269	-1038
981.352	-1308
981.434	-2322
981.516	-1297
981.599	-644
981.681	-1250
981.763	-1182
981.846	-813
981.928	-1682
982.010	-603
982.092	-739
982.174	-283
982.256	-1431
982.339	-1294
982.421	-826
982.503	-949
982.585	-1843
982.667	-902
982.749	-605
982.831	-1712
982.913	-1238
982.995	-1499
983.077	-2482
983.158	51
983.240	-2200
983.322	-592
983.404	-1017
983.486	-1525
983.568	-788
983.649	-1562
983.731	-1231
983.813	-1048
983.894	-1175
983.976	-1454
984.058	-1391
984.139	-488
984.221	-2094
984.302	-599
984.384	-1244
984.465	-1635
984.547	-1111
984.628	-1576
984.710	-1585
984.791	-1853
984.872	-1211
984.954	-1246
985.035	-1052
985.116	-1363
985.198	-1495
985.279	-492
985.360	-1023
985.441	-1868
985.522	-1027
985.604	-1253
985.685	-2264
985.766	-44
985.847	-254
985.928	-1558
986.009	-1527
986.090	-1677
986.171	-925
986.252	-600
986.333	-979
986.414	-1395
986.495	-991
986.576	-1195
986.656	-1082
986.737	-1406
986.818	-1176
986.899	-1367
986.980	-990
987.060	-1003
987.141	-2361
987.222	-800
987.302	-1134
987.383	-1065
987.464	-1873
987.544	-1088
987.625	-2134
987.705	-1369
987.786	-1580
987.866	-1836
987.947	-970
988.027	-2104
988.108	-1563
988.188	-1341
988.268	-880
988.349	-951
988.429	-1374
988.509	-1654
988.589	-2012
988.670	-1658
988.750	-551
988.830	-1546
988.910	-1919
988.990	-1873
989.070	-2296
989.151	-1941
989.231	-1370
989.311	-1171
989.391	-1032
989.471	-1307
989.551	-2163
989.631	-1493
989.711	-1026
989.791	-1829
989.870	-1788
989.950	-992
990.030	-1977
990.110	-1573
990.190	-1652
990.269	-1783
990.349	-1736
990.429	-2553
990.509	-1802
990.588	-1523
990.668	-952
990.747	-1185
990.827	-1457
990.907	-1145
990.986	-1616
991.066	-802
991.145	-892
991.225	-1550
991.304	-2035
991.383	-1338
991.463	-1156
991.542	-1669
991.622	-1906
991.701	-1677
991.780	-2001
991.859	-2168
991.939	-1375
992.018	-1005
992.097	-998
992.176	-2434
992.256	-1034
992.335	-1464
992.414	-1328
992.493	-1324
992.572	-1739
992.651	-498
992.730	-1076
992.809	-1526
992.888	-2074
992.967	-2193
993.046	-1878
993.125	-2273
993.203	-1635
993.282	-1427
993.361	-1893
993.440	-1714
993.519	-1663
993.597	-1807
993.676	-1601
993.755	-963
993.834	-1569
993.912	-1810
993.991	-820
994.069	-2161
994.148	-2149
994.226	-2299
994.305	-1708
994.384	-2451
994.462	-855
994.540	-1842
994.619	-1983
994.697	-1566
994.776	-2159
994.854	-1064
994.932	-2005
995.011	-1362
995.089	-1971
995.167	-1868
995.245	-1371
995.324	-1829
995.402	-1010
995.480	-1421
995.558	-1529
995.636	-2226
995.714	-2122
995.792	-1059
995.870	-2680
995.948	-958
996.026	-1698
996.104	-2073
996.182	-689
996.260	-2177
996.338	-1543
996.416	-2550
996.494	-1452
996.572	-1364
996.649	-2496
996.727	-1618
996.805	-1728
996.883	-2068
996.960	-2118
997.038	-1451
997.116	-767
997.193	-1771
997.271	-1145
997.348	-1805
997.426	-1554
997.504	-2523
997.581	-1509
997.658	-1417
997.736	-2508
997.813	-2164
997.891	-1810
997.968	-2158
998.046	-1885
998.123	-1862
998.200	-1434
998.277	-1988
998.355	-1009
998.432	-2457
998.509	-1783
998.586	-1139
998.663	-1565
998.741	-1914
998.818	-2600
998.895	-2432
998.972	-1627
999.049	-2013
999.126	-2302
999.203	-1357
999.280	-2515
999.357	-2120
999.434	-2114
999.511	-2062
999.587	-586
999.664	-1621
999.741	-2226
999.818	-1187
999.895	-2623
999.971	-1942
1000.048	-2358
1000.125	-1660
1000.202	-2132
1000.278	-2315
1000.355	-1237
1000.431	-1150
1000.508	-1706
1000.584	-2214
1000.661	-1714
1000.738	-2270
1000.814	-1565
1000.890	-1669
1000.967	-2289
1001.043	-1797
1001.120	-2826
1001.196	-2192
1001.272	-2093
1001.349	-1476
1001.425	-2261
1001.501	-1682
1001.577	-2501
1001.654	-2435
1001.730	-2350
1001.806	-1544
1001.882	-2775
1001.958	-1766
1002.034	-1044
1002.110	-2131
1002.186	-2798
1002.262	-2136
1002.338	-1729
1002.414	-1597
1002.490	-2156
1002.566	-2500
1002.642	-2230
1002.718	-1615
1002.794	-1646
1002.870	-2142
1002.945	-2329
1003.021	-1557
1003.097	-1696
1003.173	-1574
1003.248	-2094
1003.324	-1713
1003.400	-2431
1003.475	-1822
1003.551	-1751
1003.626	-2507
1003.702	-2113
1003.777	-2311
1003.853	-2515
1003.928	-2131
1004.004	-2099
1004.079	-1838
1004.155	-1825
1004.230	-2246
1004.305	-1616
1004.381	-2308
1004.456	-2291
1004.531	-1871
1004.607	-1319
1004.682	-1996
1004.757	-2937
1004.832	-2308
1004.907	-1594
1004.982	-2202
1005.057	-1716
1005.133	-2271
1005.208	-2357
1005.283	-1421
1005.358	-1700
1005.433	-2105
1005.508	-1231
1005.583	-2399
1005.657	-2091
1005.732	-1444
1005.807	-1867
1005.882	-1862
1005.957	-1169
1006.032	-1306
1006.106	-1630
1006.181	-2004
1006.256	-1438
1006.331	-2806
1006.405	-1939
1006.480	-1654
1006.554	-2193
1006.629	-824
1006.704	-2445
1006.778	-1902
1006.853	-1548
1006.927	-2412
1007.002	-2310
1007.076	-1883
1007.150	-2047
1007.225	-2286
1007.299	-2381
1007.373	-2240
1007.448	-2291
1007.522	-1538
1007.596	-2072
1007.671	-1562
1007.745	-2287
1007.819	-2204
1007.893	-2429
1007.967	-1589
1008.041	-2058
1008.115	-1243
1008.190	-2024
1008.264	-1860
1008.338	-2822
1008.412	-1640
1008.486	-1749
1008.560	-2512
1008.633	-2083
1008.707	-2372
1008.781	-1850
1008.855	-2071
1008.929	-1899
1009.003	-2730
1009.076	-2128
1009.150	-2136
1009.224	-2947
1009.298	-1310
1009.371	-1994
1009.445	-2131
1009.519	-2048
1009.592	-2709
1009.666	-2169
1009.739	-2143
1009.813	-2220
1009.886	-1195
1009.960	-2324
1010.033	-1819
1010.107	-1430
1010.180	-2691
1010.253	-1458
1010.327	-2018
1010.400	-1969
1010.473	-2063
1010.547	-958
1010.620	-2175
1010.693	-1404
1010.766	-3134
1010.840	-678
1010.913	-2133
1010.986	-2769
1011.059	-1805
1011.132	-1949
1011.205	-1488
1011.278	-2203
1011.351	-1162
1011.424	-1448
1011.497	-2255
1011.570	-1818
1011.643	-1102
1011.716	-2096
1011.789	-1864
1011.862	-1842
1011.934	-2103
1012.007	-2485
1012.080	-1510
1012.153	-2009
1012.225	-1375
1012.298	-2124
1012.371	-2411
1012.443	-1824
1012.516	-2390
1012.588	-1670
1012.661	-1432
1012.733	-2041
1012.806	-1164
1012.879	-1903
1012.951	-1558
1013.023	-2359
1013.096	-1109
1013.168	-2303
1013.241	-1471
1013.313	-1638
1013.385	-2235
1013.458	-1591
1013.530	-1302
1013.602	-2526
1013.674	-1759
1013.746	-2653
1013.819	-1989
1013.891	-1949
1013.963	-1901
1014.035	-1790
1014.107	-1875
1014.179	-1768
1014.251	-2655
1014.323	-2084
1014.395	-1929
1014.467	-1336
1014.539	-1984
1014.611	-2266
1014.683	-2187
1014.754	-1126
1014.826	-1587
1014.898	-1606
1014.970	-2647
1015.042	-1149
1015.113	-1105
1015.185	-1810
1015.257	-2887
1015.328	-1188
1015.400	-1800
1015.471	-883
1015.543	-2563
1015.615	-1624
1015.686	-1777
1015.757	-1650
1015.829	-2020
1015.901	-1882
1015.972	-1840
1016.043	-2636
1016.115	-2185
1016.186	-812
1016.257	-2258
1016.328	-1105
1016.400	-1620
1016.471	-2762
1016.542	-1206
1016.613	-1797
1016.685	-1416
1016.756	-1888
1016.827	-2375
1016.898	-2172
1016.969	-1233
1017.040	-1641
1017.111	-1026
1017.182	-2205
1017.253	-2123
1017.324	-2190
1017.395	-1577
1017.466	-1886
1017.537	-1377
1017.608	-2315
1017.678	-1932
1017.749	-2161
1017.820	-1669
1017.891	-2249
1017.961	-1867
1018.032	-1863
1018.103	-2348
1018.173	-1456
1018.244	-1795
1018.315	-1737
1018.385	-977
1018.456	-2043
1018.526	-2362
1018.597	-2321
1018.667	-2169
1018.738	-1955
1018.808	-1739
1018.878	-1895
1018.949	-1471
1019.019	-1438
1019.089	-2094
1019.160	-1241
1019.230	-2341
1019.300	-1317
1019.371	-2607
1019.441	-2370
1019.511	-1511
1019.581	-2147
1019.651	-2256
1019.721	-1604
1019.791	-1571
1019.861	-2006
1019.931	-1816
1020.001	-1857
1020.071	-1468
1020.141	-1785
1020.211	-1927
1020.281	-1790
1020.351	-1663
1020.421	-2329
1020.491	-1681
1020.560	-2186
1020.630	-1374
1020.700	-1371
1020.770	-2092
1020.839	-2294
1020.909	-1939
1020.979	-2204
1021.048	-2193
1021.118	-1889
1021.187	-2145
1021.257	-1754
1021.326	-1237
1021.396	-2493
1021.465	-1155
1021.535	-1853
1021.604	-2239
1021.674	-1978
1021.743	-1243
1021.812	-2701
1021.882	-1767
1021.951	-2121
1022.020	-2046
1022.089	-1658
1022.159	-1968
1022.228	-1621
1022.297	-1381
1022.366	-2083
1022.435	-2335
1022.504	-2895
1022.573	-2404
1022.642	-2139
1022.711	-2186
1022.781	-1768
1022.849	-2573
1022.918	-1951
1022.987	-1878
1023.056	-1853
1023.125	-1889
1023.194	-1260
1023.263	-1487
1023.331	-1847
1023.400	-2252
1023.469	-2631
1023.538	-1226
1023.606	-2434
1023.675	-1550
1023.744	-1220
1023.812	-2346
1023.881	-1610
1023.949	-2057
1024.018	-1537
1024.086	-2176
1024.155	-1795
1024.223	-2450
1024.292	-1905
1024.360	-1757
1024.429	-1996
1024.497	-2109
1024.565	-2017
1024.634	-2341
1024.702	-1861
1024.770	-1997
1024.838	-1571
1024.907	-1343
1024.975	-1985
1025.043	-1790
1025.111	-2967
1025.179	-2204
1025.247	-1041
1025.315	-2363
1025.383	-1771
1025.451	-2102
1025.519	-2770
1025.587	-2271
1025.655	-1747
1025.723	-2064
1025.791	-2186
1025.859	-2183
1025.927	-1399
1025.995	-2187
1026.062	-2453
1026.130	-2096
1026.198	-2607
1026.266	-1611
1026.333	-1787
1026.401	-2023
1026.469	-1649
1026.536	-2100
1026.604	-1727
1026.671	-1898
1026.739	-2336
1026.806	-2601
1026.874	-2494
1026.941	-2204
1027.009	-2486
1027.076	-2317
1027.144	-1250
1027.211	-1877
1027.278	-2524
1027.345	-1211
1027.413	-2122
1027.480	-2450
1027.547	-2159
1027.614	-1556
1027.682	-1483
1027.749	-1821
1027.816	-2200
1027.883	-1619
1027.950	-1605
1028.017	-2242
1028.084	-2009
1028.151	-2030
1028.218	-1563
1028.285	-1781
1028.352	-2931
1028.419	-2327
1028.486	-2084
1028.553	-744
1028.619	-1949
1028.686	-2684
1028.753	-2486
1028.820	-2326
1028.886	-1718
1028.953	-2091
1029.020	-1983
1029.086	-2425
1029.153	-1914
1029.220	-2051
1029.286	-2317
1029.353	-1845
1029.419	-2721
1029.486	-1567
1029.552	-2289
1029.619	-1848
1029.685	-2684
1029.751	-2257
1029.818	-1884
1029.884	-2161
1029.951	-1324
1030.017	-2968
1030.083	-1701
1030.149	-2049
1030.216	-2059
1030.282	-1330
1030.348	-2005
1030.414	-2102
1030.480	-3052
1030.546	-1868
1030.612	-1362
1030.678	-2429
1030.744	-1745
1030.810	-1984
1030.876	-1773
1030.942	-1577
1031.008	-2081
1031.074	-1664
1031.140	-2174
1031.206	-1727
1031.272	-2145
1031.337	-1686
1031.403	-1702
1031.469	-1877
1031.534	-2943
1031.600	-2240
1031.666	-2904
1031.731	-3190
1031.797	-2123
1031.863	-2874
1031.928	-2429
1031.994	-2450
1032.059	-1807
1032.125	-2672
1032.190	-2208
1032.256	-2089
1032.321	-2835
1032.386	-1891
1032.452	-1612
1032.517	-2104
1032.582	-2270
1032.647	-1585
1032.713	-2572
1032.778	-1643
1032.843	-1784
1032.908	-2193
1032.974	-2134
1033.039	-2287
1033.104	-1384
1033.169	-2172
1033.234	-2258
1033.299	-1163
1033.364	-2330
1033.429	-2354
1033.494	-2300
1033.559	-2238
1033.624	-1585
1033.688	-2089
1033.753	-2294
1033.818	-1154
1033.883	-1936
1033.948	-1576
1034.013	-2268
1034.077	-2116
1034.142	-1767
1034.207	-2062
1034.271	-2050
1034.336	-1680
1034.400	-1924
1034.465	-2066
1034.530	-2206
1034.594	-2605
1034.658	-1800
1034.723	-2196
1034.787	-2163
1034.852	-2029
1034.916	-2596
1034.981	-2757
1035.045	-1692
1035.109	-2168
1035.173	-1925
1035.238	-2202
1035.302	-2286
1035.366	-1925
1035.430	-2063
1035.495	-2311
1035.559	-1960
1035.623	-2235
1035.687	-2183
1035.751	-2000
1035.815	-2209
1035.879	-3033
1035.943	-1979
1036.007	-2368
1036.071	-1521
1036.135	-2461
1036.198	-1573
1036.262	-2684
1036.326	-2581
1036.390	-1125
1036.454	-2180
1036.517	-2177
1036.581	-2559
1036.645	-2605
1036.709	-1779
1036.772	-2397
1036.836	-2004
1036.900	-2058
1036.963	-1702
1037.026	-1485
1037.090	-1893
1037.154	-1169
1037.217	-1497
1037.280	-2267
1037.344	-2452
1037.407	-2212
1037.471	-1777
1037.534	-1871
1037.597	-2350
1037.661	-2072
1037.724	-2579
1037.787	-1749
1037.850	-1719
1037.913	-2367
1037.977	-2207
1038.040	-2400
1038.103	-2087
1038.166	-1873
1038.229	-1858
1038.292	-1270
1038.355	-1726
1038.418	-1548
1038.481	-1368
1038.544	-1918
1038.607	-2229
1038.670	-2019
1038.732	-1274
1038.795	-1912
1038.858	-1973
1038.921	-1806
1038.984	-1515
1039.046	-2284
1039.109	-1577
1039.172	-2066
1039.234	-1738
1039.297	-2531
1039.360	-1787
1039.422	-2362
1039.485	-2399
1039.547	-1783
1039.610	-1897
1039.672	-1958
1039.734	-1978
1039.797	-1971
1039.859	-2051
1039.922	-1723
1039.984	-1656
1040.046	-2088
1040.109	-2227
1040.171	-1452
1040.233	-919
1040.295	-1817
1040.358	-2286
1040.420	-2044
1040.482	-1760
1040.544	-2636
1040.606	-1153
1040.668	-1515
1040.730	-2074
1040.792	-1403
1040.854	-1749
1040.916	-2103
1040.978	-1486
1041.040	-1516
1041.102	-1576
1041.164	-2097
1041.225	-1668
1041.287	-2314
1041.349	-2254
1041.411	-1370
1041.472	-1805
1041.534	-1763
1041.596	-1864
1041.657	-2363
1041.719	-1929
1041.781	-1914
1041.842	-1956
1041.904	-1303
1041.965	-1868
1042.027	-1076
1042.088	-1511
1042.150	-1569
1042.211	-1571
1042.272	-1452
1042.334	-1452
1042.395	-1864
1042.456	-1842
1042.518	-2254
1042.579	-1725
1042.640	-1147
1042.701	-2178
1042.763	-2249
1042.824	-2018
1042.885	-1648
1042.946	-2173
1043.007	-1575
1043.068	-2281
1043.129	-1813
1043.190	-1744
1043.251	-1945
1043.312	-1299
1043.373	-1055
1043.434	-1479
1043.495	-1374
1043.556	-1530
1043.616	-1430
1043.677	-1538
1043.738	-1986
1043.799	-2341
1043.859	-2315
1043.920	-2366
1043.981	-1310
1044.041	-2119
1044.102	-1465
1044.162	-1462
1044.223	-2559
1044.284	-1549
1044.344	-1642
1044.405	-1322
1044.465	-1523
1044.525	-2756
1044.586	-1821
1044.646	-1927
1044.707	-1562
1044.767	-2009
1044.827	-1500
1044.887	-2268
1044.948	-1720
1045.008	-1425
1045.068	-1783
1045.128	-1832
1045.188	-2212
1045.249	-551
1045.309	-2238
1045.369	-1229
1045.429	-856
1045.489	-1929
1045.549	-1987
1045.609	-1649
1045.669	-1347
1045.729	-1672
1045.789	-2055
1045.848	-1509
1045.908	-1898
1045.968	-1261
1046.028	-1243
1046.088	-1545
1046.147	-1088
1046.207	-965
1046.267	-1618
1046.326	-2118
1046.386	-1080
1046.446	-1237
1046.505	-364
1046.565	-831
1046.624	-409
1046.684	-1138
1046.743	-832
1046.803	-544
1046.862	-21
1046.922	0
