'Start Wavelength	183.907
'End Wavelength	1046.922
'Gate Delay	5.000
'Gate Width (ms)	1.050
'Laser Output Level	0.000
'X Position	0.000
'Y Position	0.000
'Z Position	0.000
'Grid Point Number	1.000
'Shot Number	100.000
183.907	460.000
183.977	-485.000
184.047	-30
184.116	-116
184.186	411
184.256	-227
184.325	-33
184.395	-940
184.465	294
184.534	-256
184.604	-497
184.674	342
184.743	222
184.813	267
184.883	405
184.952	-308
185.022	-119
185.092	-283
185.161	-498
185.231	-107
185.301	-774
185.370	-96
185.440	14
185.509	-702
185.579	34
185.649	-603
185.718	596
185.788	394
185.857	-391
185.927	362
185.996	113
186.066	-1100
186.136	187
186.205	-29
186.275	-368
186.344	253
186.414	-35
186.483	-779
186.553	756
186.622	213
186.692	-228
186.761	-347
186.831	191
186.900	-1031
186.970	-159
187.039	-301
187.109	1072
187.178	-700
187.248	362
187.317	373
187.387	554
187.456	975
187.526	-445
187.595	-362
187.664	775
187.734	-609
187.803	338
187.873	-213
187.942	-184
188.012	-232
188.081	259
188.150	-591
188.220	605
188.289	54
188.358	76
188.428	-596
188.497	-442
188.567	99
188.636	213
188.705	-166
188.775	-381
188.844	-926
188.913	506
188.983	-592
189.052	370
189.121	113
189.191	-172
189.260	81
189.329	466
189.399	551
189.468	-207
189.537	-945
189.606	752
189.676	-406
189.745	43
189.814	-374
189.883	-277
189.953	-608
190.022	-228
190.091	-288
190.161	515
190.230	909
190.299	104
190.368	-1022
190.437	470
190.507	-372
190.576	-106
190.645	-240
190.714	292
190.783	-744
190.853	-213
190.922	-374
190.991	576
191.060	26
191.129	-245
191.198	-554
191.268	-840
191.337	-769
191.406	-89
191.475	-482
191.544	-128
191.613	-850
191.682	-379
191.752	434
191.821	238
191.890	-292
191.959	-435
192.028	271
192.097	146
192.166	-77
192.235	-220
192.304	499
192.373	-163
192.442	-567
192.511	8
192.580	-640
192.650	373
192.719	-159
192.788	-20
192.857	-421
192.926	-1197
192.995	-61
193.064	-477
193.133	-172
193.202	81
193.271	-265
193.340	-306
193.409	-204
193.478	597
193.547	574
193.615	-238
193.684	-277
193.753	-69
193.822	308
193.891	66
193.960	632
194.029	-117
194.098	32
194.167	-192
194.236	116
194.305	-296
194.374	-359
194.443	-686
194.512	266
194.580	244
194.649	-36
194.718	-512
194.787	-453
194.856	-156
194.925	270
194.994	-542
195.062	95
195.131	-240
195.200	-159
195.269	137
195.338	-381
195.407	273
195.475	-142
195.544	693
195.613	253
195.682	-536
195.751	148
195.819	22
195.888	-8
195.957	1354
196.026	-625
196.094	673
196.163	-197
196.232	946
196.301	134
196.369	-70
196.438	-141
196.507	-3
196.576	-828
196.644	-372
196.713	-368
196.782	548
196.850	-554
196.919	-364
196.988	360
197.056	-134
197.125	-553
197.194	60
197.262	304
197.331	-95
197.400	-1111
197.468	-276
197.537	-14
197.606	-713
197.674	-698
197.743	-461
197.812	-490
197.880	545
197.949	-488
198.017	545
198.086	-127
198.155	517
198.223	728
198.292	62
198.360	-679
198.429	300
198.497	-661
198.566	506
198.635	440
198.703	-88
198.772	-393
198.840	436
198.909	-392
198.977	858
199.046	-138
199.114	-114
199.183	-51
199.251	-147
199.320	-512
199.388	241
199.457	-288
199.525	-299
199.594	-453
199.662	-117
199.731	-88
199.799	333
199.867	-507
199.936	-128
200.004	472
200.073	-181
200.141	-277
200.210	-579
200.278	-422
200.346	-118
200.415	-245
200.483	-259
200.552	-1005
200.620	188
200.688	-442
200.757	161
200.825	35
200.893	-50
200.962	-548
201.030	-719
201.098	-575
201.167	-507
201.235	-486
201.303	572
201.372	-139
201.440	92
201.508	-526
201.577	-816
201.645	-36
201.713	63
201.781	-394
201.850	29
201.918	-47
201.986	-243
202.055	234
202.123	55
202.191	260
202.259	152
202.327	-118
202.396	-592
202.464	-588
202.532	70
202.600	-80
202.669	133
202.737	-510
202.805	-33
202.873	221
202.941	-60
203.009	93
203.078	-375
203.146	-317
203.214	-447
203.282	-1011
203.350	55
203.418	-835
203.487	-253
203.555	-288
203.623	272
203.691	36
203.759	-360
203.827	-844
203.895	64
203.963	-495
204.031	-276
204.099	-257
204.168	235
204.236	-413
204.304	751
204.372	-139
204.440	148
204.508	221
204.576	-476
204.644	364
204.712	-232
204.780	-225
204.848	-692
204.916	-401
204.984	-420
205.052	-16
205.120	-779
205.188	-530
205.256	-392
205.324	-69
205.392	106
205.460	-312
205.528	-428
205.596	408
205.664	-358
205.732	-218
205.799	810
205.867	241
205.935	-197
206.003	793
206.071	249
206.139	-475
206.207	79
206.275	-514
206.343	-880
206.411	250
206.478	-99
206.546	121
206.614	-226
206.682	-609
206.750	-136
206.818	-281
206.885	274
206.953	-1185
207.021	251
207.089	81
207.157	-668
207.225	-395
207.292	-284
207.360	-1284
207.428	-381
207.496	120
207.563	-504
207.631	-431
207.699	-140
207.767	-752
207.834	-321
207.902	386
207.970	-483
208.038	504
208.105	-52
208.173	-801
208.241	395
208.309	-386
208.376	-401
208.444	892
208.512	244
208.579	-1216
208.647	23
208.715	133
208.782	-547
208.850	-207
208.918	46
208.985	-583
209.053	390
209.120	-803
209.188	-300
209.256	55
209.323	-566
209.391	-935
209.459	1543
209.526	-754
209.594	-776
209.661	185
209.729	-465
209.796	-551
209.864	-54
209.932	-1752
209.999	1164
210.067	-444
210.134	-205
210.202	-440
210.269	311
210.337	471
210.404	119
210.472	-293
210.539	73
210.607	-1090
210.674	-161
210.742	-542
210.809	43
210.877	-858
210.944	-36
211.012	-1097
211.079	1257
211.146	-337
211.214	-611
211.281	-1108
211.349	863
211.416	-44
211.484	337
211.551	-481
211.618	93
211.686	-351
211.753	-879
211.821	-83
211.888	387
211.955	425
212.023	-400
212.090	-290
212.157	-348
212.225	-938
212.292	397
212.359	290
212.427	2952
212.494	781
212.561	183
212.629	440
212.696	-870
212.763	448
212.831	-196
212.898	-542
212.965	-235
213.032	-121
213.100	547
213.167	-815
213.234	158
213.301	-255
213.369	390
213.436	-725
213.503	289
213.570	178
213.638	-167
213.705	-1069
213.772	-687
213.839	-735
213.906	1042
213.973	155
214.041	-33
214.108	-117
214.175	307
214.242	-214
214.309	-258
214.376	-591
214.444	-23
214.511	-318
214.578	-201
214.645	281
214.712	251
214.779	-451
214.846	-805
214.913	354
214.980	240
215.048	215
215.115	420
215.182	459
215.249	-407
215.316	-455
215.383	441
215.450	-519
215.517	142
215.584	-166
215.651	6
215.718	-482
215.785	477
215.852	-955
215.919	459
215.986	121
216.053	300
216.120	-189
216.187	159
216.254	-107
216.321	362
216.388	-162
216.455	201
216.522	-767
216.589	154
216.656	712
216.722	432
216.789	318
216.856	682
216.923	315
216.990	405
217.057	-392
217.124	141
217.191	-1141
217.258	737
217.324	-152
217.391	539
217.458	-251
217.525	109
217.592	567
217.659	-1450
217.725	608
217.792	-73
217.859	254
217.926	-994
217.993	-400
218.059	1222
218.126	-614
218.193	-225
218.260	-1055
218.327	-136
218.393	-328
218.460	291
218.527	-731
218.594	120
218.660	121
218.727	583
218.794	-1044
218.860	870
218.927	-475
218.994	-7
219.061	-1197
219.127	209
219.194	676
219.261	160
219.327	-931
219.394	40
219.461	-1204
219.527	-560
219.594	-117
219.661	21
219.727	-636
219.794	624
219.860	-328
219.927	-192
219.994	-68
220.060	156
220.127	529
220.193	-156
220.260	-699
220.326	427
220.393	571
220.460	745
220.526	-6
220.593	-42
220.659	826
220.726	-191
220.792	563
220.859	810
220.925	383
220.992	2205
221.058	1706
221.125	1961
221.191	1181
221.258	-37
221.324	-16
221.391	238
221.457	-1033
221.524	-100
221.590	-276
221.657	1880
221.723	-58
221.789	622
221.856	534
221.922	120
221.989	204
222.055	-691
222.121	-1564
222.188	931
222.254	70
222.321	-308
222.387	-513
222.453	-254
222.520	-501
222.586	-372
222.652	-417
222.719	-305
222.785	-144
222.851	-1087
222.918	-733
222.984	-530
223.050	-511
223.116	-143
223.183	149
223.249	-532
223.315	-821
223.382	-152
223.448	429
223.514	-775
223.580	-671
223.647	-357
223.713	-1620
223.779	-186
223.845	-467
223.911	126
223.978	-1794
224.044	-357
224.110	-354
224.176	122
224.242	-643
224.309	-590
224.375	-729
224.441	-458
224.507	-703
224.573	-1336
224.639	-116
224.705	-507
224.772	-409
224.838	-17
224.904	-382
224.970	-446
225.036	-1092
225.102	-664
225.168	-136
225.234	-167
225.300	-617
225.366	-170
225.432	-535
225.499	308
225.565	-421
225.631	-282
225.697	-505
225.763	-148
225.829	0
225.895	-171
225.961	-128
226.027	131
226.093	-399
226.159	1072
226.225	256
226.291	1859
226.357	3566
226.423	1487
226.489	782
226.554	352
226.620	-563
226.686	663
226.752	1018
226.818	236
226.884	4319
226.950	5141
227.016	924
227.082	957
227.148	18
227.214	327
227.279	-465
227.345	592
227.411	-9
227.477	273
227.543	371
227.609	678
227.674	1088
227.740	-110
227.806	199
227.872	-245
227.938	-74
228.003	1080
228.069	107
228.135	-859
228.201	-149
228.267	-589
228.332	-67
228.398	-1019
228.464	-209
228.530	-594
228.595	-114
228.661	-697
228.727	-459
228.792	1644
228.858	-233
228.924	-332
228.990	1588
229.055	-909
229.121	414
229.187	25
229.252	-84
229.318	-737
229.384	47
229.449	219
229.515	-1549
229.581	-1381
229.646	1320
229.712	-810
229.777	-145
229.843	536
229.909	-199
229.974	597
230.040	144
230.105	230
230.171	-704
230.236	378
230.302	-1057
230.368	497
230.433	-833
230.499	-240
230.564	253
230.630	-679
230.695	-110
230.761	271
230.826	-2291
230.892	1587
230.957	-599
231.023	120
231.088	-298
231.154	-427
231.219	13
231.284	-198
231.350	182
231.415	-1524
231.481	1191
231.546	-941
231.612	-412
231.677	-452
231.742	-1456
231.808	321
231.873	-402
231.939	-1983
232.004	759
232.069	724
232.135	-761
232.200	-1228
232.265	229
232.331	-141
232.396	-729
232.461	-335
232.527	-88
232.592	-874
232.657	-50
232.723	326
232.788	-178
232.853	297
232.918	-606
232.984	-1125
233.049	-865
233.114	-443
233.179	-54
233.245	607
233.310	1289
233.375	-675
233.440	365
233.506	-22
233.571	-359
233.636	329
233.701	-80
233.766	296
233.832	858
233.897	-160
233.962	-1202
234.027	1419
234.092	146
234.157	36
234.222	-1045
234.288	-95
234.353	2365
234.418	3109
234.483	1271
234.548	127
234.613	-556
234.678	1026
234.743	-199
234.808	2455
234.873	-217
234.938	1345
235.004	-391
235.069	-142
235.134	-1759
235.199	139
235.264	324
235.329	-1510
235.394	225
235.459	1223
235.524	-1069
235.589	-52
235.654	5
235.719	-1073
235.784	604
235.849	-710
235.913	669
235.978	568
236.043	1312
236.108	-99
236.173	-629
236.238	435
236.303	-1306
236.368	-154
236.433	501
236.498	1023
236.563	343
236.627	778
236.692	5733
236.757	4323
236.822	1165
236.887	1319
236.952	1298
237.017	-647
237.081	1805
237.146	-72
237.211	1855
237.276	5265
237.341	11223
237.405	4056
237.470	1587
237.535	684
237.600	372
237.664	849
237.729	-972
237.794	-407
237.859	999
237.923	877
237.988	20
238.053	973
238.118	627
238.182	2472
238.247	3730
238.312	378
238.376	488
238.441	-1388
238.506	1201
238.570	-1494
238.635	867
238.700	-140
238.764	-1154
238.829	1061
238.893	801
238.958	1317
239.023	-225
239.087	-192
239.152	-83
239.216	-299
239.281	-43
239.346	215
239.410	-894
239.475	-1286
239.539	2543
239.604	1790
239.668	520
239.733	-189
239.797	75
239.862	2292
239.926	2500
239.991	1220
240.055	-128
240.120	-529
240.184	-239
240.249	-1040
240.313	244
240.378	-503
240.442	913
240.507	3355
240.571	225
240.635	102
240.700	902
240.764	-134
240.829	-842
240.893	-1253
240.957	-21
241.022	1348
241.086	3661
241.151	994
241.215	-1074
241.279	976
241.344	56
241.408	527
241.472	-915
241.537	763
241.601	-334
241.665	-1212
241.730	-976
241.794	772
241.858	-1160
241.922	137
241.987	-247
242.051	-477
242.115	-1852
242.179	129
242.244	-611
242.308	351
242.372	102
242.436	-872
242.501	137
242.565	-849
242.629	-801
242.693	637
242.757	-1347
242.822	-393
242.886	-178
242.950	793
243.014	-1486
243.078	417
243.142	332
243.206	-230
243.271	-441
243.335	-427
243.399	1102
243.463	1441
243.527	9988
243.591	2956
243.655	61
243.719	-85
243.783	484
243.847	1213
243.911	1105
243.975	1835
244.040	882
244.104	1096
244.168	-503
244.232	-12
244.296	1452
244.360	432
244.424	-214
244.488	25
244.552	572
244.615	-2248
244.679	-625
244.743	-15
244.807	-581
244.871	1028
244.935	214
244.999	-1540
245.063	-589
245.127	757
245.191	1331
245.255	670
245.319	255
245.383	5
245.446	1008
245.510	-773
245.574	379
245.638	958
245.702	-1403
245.766	1439
245.829	1405
245.893	-675
245.957	-389
246.021	362
246.085	-467
246.149	303
246.212	2142
246.276	3061
246.340	818
246.404	1189
246.467	848
246.531	-69
246.595	792
246.659	1817
246.722	-715
246.786	1770
246.850	445
246.913	1132
246.977	-749
247.041	714
247.104	-105
247.168	528
247.232	1630
247.295	4410
247.359	3047
247.423	259
247.486	1105
247.550	1398
247.614	285
247.677	1576
247.741	-588
247.804	283
247.868	-548
247.932	863
247.995	4956
248.059	785
248.122	-747
248.186	1730
248.249	1453
248.313	7419
248.376	9030
248.440	4571
248.503	-38
248.567	2313
248.630	831
248.694	3191
248.757	4170
248.821	7803
248.884	5906
248.948	3059
249.011	6627
249.075	9957
249.138	8595
249.202	2876
249.265	779
249.328	2811
249.392	676
249.455	1807
249.519	-585
249.582	846
249.645	1745
249.709	518
249.772	149
249.835	378
249.899	504
249.962	827
250.025	-699
250.089	2767
250.152	4448
250.215	2160
250.279	544
250.342	693
250.405	1209
250.468	1125
250.532	803
250.595	2519
250.658	7085
250.721	16608
250.785	4879
250.848	3678
250.911	353
250.974	1328
251.038	803
251.101	4675
251.164	1044
251.227	2891
251.290	1035
251.354	2900
251.417	11616
251.480	13885
251.543	7396
251.606	23261
251.669	18086
251.732	6319
251.795	5200
251.859	6913
251.922	15429
251.985	10184
252.048	2689
252.111	1393
252.174	497
252.237	4621
252.300	10908
252.363	8703
252.426	21980
252.489	9634
252.552	3381
252.615	1596
252.678	2529
252.741	7110
252.804	8198
252.867	21324
252.930	13801
252.993	7277
253.056	3654
253.119	2425
253.182	812
253.245	2815
253.308	2507
253.371	1842
253.434	2023
253.497	2236
253.559	4746
253.622	2638
253.685	3248
253.748	4846
253.811	776
253.874	2450
253.937	1193
254.000	1758
254.062	2382
254.125	5785
254.188	4907
254.251	3823
254.314	1056
254.376	3153
254.439	4703
254.502	3814
254.565	1648
254.628	7097
254.690	3397
254.753	1618
254.816	191
254.878	1289
254.941	2739
255.004	3005
255.067	1039
255.129	1236
255.192	613
255.255	226
255.317	128
255.380	198
255.443	-709
255.505	-46
255.568	-2044
255.631	-17
255.693	202
255.756	-782
255.819	259
255.881	-732
255.944	-320
256.006	2
256.069	420
256.132	-810
256.194	-291
256.257	2494
256.319	882
256.382	284
256.444	261
256.507	383
256.569	-971
256.632	-271
256.694	-379
256.757	1823
256.819	10132
256.882	3104
256.944	571
257.007	1666
257.069	-5
257.132	-268
257.194	505
257.257	264
257.319	-1421
257.381	-305
257.444	1643
257.506	10484
257.569	14032
257.631	6322
257.693	3293
257.756	1703
257.818	56
257.880	-265
257.943	208
258.005	-56
258.067	-301
258.130	32
258.192	330
258.254	1993
258.317	-205
258.379	596
258.441	1944
258.503	3737
258.566	2928
258.628	6443
258.690	-184
258.753	1390
258.815	1442
258.877	643
258.939	-78
259.001	-275
259.064	108
259.126	-669
259.188	567
259.250	556
259.312	224
259.375	2444
259.437	1171
259.499	-310
259.561	-827
259.623	224
259.685	460
259.747	118
259.809	3290
259.872	7198
259.934	9733
259.996	11981
260.058	2732
260.120	-584
260.182	-198
260.244	-657
260.306	-1321
260.368	451
260.430	-1548
260.492	819
260.554	2789
260.616	1048
260.678	3938
260.740	8849
260.802	976
260.864	1200
260.926	-1018
260.988	1225
261.050	-269
261.112	1639
261.174	7807
261.236	6456
261.298	868
261.359	2279
261.421	4549
261.483	371
261.545	1114
261.607	-1121
261.669	34
261.731	1065
261.793	4444
261.854	1482
261.916	1123
261.978	376
262.040	292
262.102	110
262.164	203
262.225	688
262.287	-306
262.349	1929
262.411	1204
262.472	445
262.534	215
262.596	3771
262.658	576
262.719	-192
262.781	794
262.843	2819
262.904	1326
262.966	990
263.028	718
263.090	5843
263.151	19232
263.213	6316
263.275	1889
263.336	618
263.398	-201
263.459	-195
263.521	310
263.583	2722
263.644	1585
263.706	-490
263.767	-1457
263.829	389
263.891	-631
263.952	-1599
264.014	-1714
264.075	-243
264.137	2178
264.198	1049
264.260	-1047
264.321	126
264.383	570
264.444	5453
264.506	-39
264.567	114
264.629	679
264.690	1936
264.752	1076
264.813	-250
264.875	-1349
264.936	389
264.998	-1315
265.059	-1528
265.120	-646
265.182	18
265.243	3926
265.305	4176
265.366	498
265.427	-214
265.489	-70
265.550	-1287
265.611	-529
265.673	-810
265.734	-846
265.795	544
265.857	-670
265.918	-1734
265.979	707
266.040	7177
266.102	7081
266.163	1121
266.224	480
266.286	-481
266.347	-1000
266.408	369
266.469	-604
266.530	-1361
266.592	-1099
266.653	1080
266.714	2509
266.775	-146
266.836	-465
266.898	-769
266.959	-244
267.020	-930
267.081	-294
267.142	-899
267.203	-1247
267.264	-1208
267.326	-168
267.387	-443
267.448	-1360
267.509	-458
267.570	-820
267.631	-366
267.692	-1348
267.753	-107
267.814	-1642
267.875	805
267.936	3543
267.997	1060
268.058	-77
268.119	-633
268.180	-676
268.241	-1668
268.302	-1317
268.363	-819
268.424	-1070
268.485	-579
268.546	-800
268.607	-1006
268.668	-938
268.729	-820
268.790	-897
268.851	66
268.912	1046
268.972	1186
269.033	683
269.094	-1159
269.155	-1057
269.216	-1099
269.277	-1031
269.338	-560
269.398	-659
269.459	-964
269.520	-25
269.581	195
269.642	1125
269.702	91
269.763	-579
269.824	-1618
269.885	124
269.945	1276
270.006	-390
270.067	-1344
270.128	-706
270.188	-256
270.249	-395
270.310	-1327
270.370	-1714
270.431	-971
270.492	-824
270.553	-1134
270.613	655
270.674	3629
270.734	199
270.795	135
270.856	-672
270.916	-250
270.977	-780
271.038	-508
271.098	-291
271.159	-221
271.219	462
271.280	-775
271.340	-643
271.401	-974
271.462	729
271.522	-84
271.583	-404
271.643	-139
271.704	-1073
271.764	-580
271.825	1300
271.885	8144
271.946	11009
272.006	3857
272.066	2980
272.127	7960
272.187	2820
272.248	379
272.308	-278
272.369	4948
272.429	2162
272.489	1557
272.550	1601
272.610	2300
272.671	847
272.731	204
272.791	1531
272.852	83
272.912	807
272.972	-644
273.033	-796
273.093	-234
273.153	1270
273.214	531
273.274	-770
273.334	2249
273.394	9805
273.455	3175
273.515	2498
273.575	8163
273.635	2573
273.696	3388
273.756	8042
273.816	2759
273.876	260
273.936	2516
273.997	7459
274.057	1429
274.117	76
274.177	814
274.237	9498
274.297	10933
274.358	5794
274.418	6845
274.478	5087
274.538	749
274.598	-171
274.658	4553
274.718	7641
274.778	2623
274.838	472
274.898	1292
274.958	9713
275.018	8126
275.078	5546
275.138	1612
275.198	-757
275.258	-1022
275.318	-289
275.378	2119
275.438	2513
275.498	1243
275.558	2638
275.618	11293
275.678	5853
275.738	2523
275.798	2051
275.858	141
275.918	-985
275.978	-66
276.038	447
276.098	-954
276.157	1070
276.217	7197
276.277	3083
276.337	1708
276.397	419
276.457	283
276.517	-368
276.576	142
276.636	-1406
276.696	370
276.756	2806
276.815	2126
276.875	436
276.935	96
276.995	445
277.055	-561
277.114	-373
277.174	-282
277.234	4759
277.293	641
277.353	-241
277.413	-429
277.472	-585
277.532	92
277.592	-274
277.651	2160
277.711	7447
277.771	1798
277.830	9031
277.890	9157
277.950	3412
278.009	16572
278.069	7037
278.128	4374
278.188	7457
278.248	1640
278.307	7486
278.367	5847
278.426	640
278.486	-235
278.545	-895
278.605	-938
278.664	-1052
278.724	-400
278.783	2189
278.843	9425
278.902	1832
278.962	375
279.021	-32
279.081	466
279.140	450
279.199	-94
279.259	747
279.318	1139
279.378	977
279.437	1796
279.496	10372
279.556	40467
279.615	39103
279.675	8492
279.734	2443
279.793	5565
279.853	8997
279.912	3814
279.971	1116
280.031	959
280.090	3090
280.149	7235
280.208	3691
280.268	26936
280.327	35656
280.386	6412
280.445	3530
280.505	4636
280.564	1106
280.623	487
280.682	1704
280.742	4931
280.801	64
280.860	-76
280.919	-876
280.978	344
281.037	-1045
281.097	-1032
281.156	-422
281.215	31
281.274	-1164
281.333	5496
281.392	4597
281.451	167
281.510	-823
281.569	6
281.628	-1222
281.688	-523
281.747	-779
281.806	-348
281.865	-1177
281.924	-1529
281.983	-849
282.042	-449
282.101	-274
282.160	-1206
282.219	-1506
282.278	-500
282.337	3046
282.396	1732
282.454	89
282.513	302
282.572	4347
282.631	2976
282.690	-571
282.749	-989
282.808	-218
282.867	-959
282.926	-1172
282.985	-604
283.043	-1030
283.102	-1086
283.161	-621
283.220	1306
283.279	6370
283.338	828
283.396	-176
283.455	-113
283.514	14
283.573	760
283.631	15
283.690	-1430
283.749	-1098
283.808	1496
283.866	2216
283.925	15
283.984	-410
284.043	30
284.101	285
284.160	-732
284.219	-102
284.277	70
284.336	654
284.395	6662
284.453	6844
284.512	948
284.570	1281
284.629	1007
284.688	37
284.746	1237
284.805	1437
284.863	2398
284.922	3091
284.981	3690
285.039	4251
285.098	9431
285.156	23007
285.215	51873
285.273	52079
285.332	31038
285.390	14261
285.449	8278
285.507	4439
285.566	2993
285.624	1907
285.683	846
285.741	215
285.799	254
285.858	1154
285.916	81
285.975	-172
286.033	6
286.091	-607
286.150	-1027
286.208	-547
286.267	255
286.325	-528
286.383	1132
286.442	1466
286.500	-216
286.558	-1119
286.616	-1171
286.675	-435
286.733	385
286.791	-976
286.850	-152
286.908	690
286.966	2179
287.024	287
287.083	-557
287.141	-537
287.199	48
287.257	641
287.315	-600
287.374	-689
287.432	2297
287.490	1000
287.548	-130
287.606	-1386
287.664	-795
287.723	-236
287.781	674
287.839	402
287.897	-59
287.955	-598
288.013	-82
288.071	1794
288.129	14909
288.187	60494
288.245	26851
288.303	6222
288.361	2599
288.419	1257
288.477	919
288.535	-43
288.593	157
288.651	-114
288.709	-446
288.767	-1191
288.825	-363
288.883	-580
288.941	-1123
288.999	-641
289.057	-452
289.115	-1104
289.173	-91
289.231	-757
289.289	-724
289.346	-964
289.404	-1197
289.462	499
289.520	671
289.578	-592
289.636	-835
289.694	-1249
289.751	-1373
289.809	-1051
289.867	-1034
289.925	-934
289.983	7
290.040	-961
290.098	-1195
290.156	-557
290.214	-196
290.271	-1179
290.329	-1580
290.387	-1126
290.444	-1342
290.502	-1164
290.560	-1002
290.617	-1218
290.675	-598
290.733	-1152
290.790	-419
290.848	-766
290.906	-324
290.963	-757
291.021	-403
291.078	-401
291.136	-1593
291.194	974
291.251	5788
291.309	348
291.366	149
291.424	-829
291.481	75
291.539	-597
291.596	-127
291.654	-1191
291.711	-1077
291.769	-1429
291.826	718
291.884	159
291.941	-942
291.999	-1315
292.056	-697
292.114	-981
292.171	-1122
292.228	-657
292.286	-1325
292.343	238
292.401	3350
292.458	892
292.515	365
292.573	-38
292.630	65
292.687	-618
292.745	-91
292.802	-1093
292.859	2930
292.917	5989
292.974	3084
293.031	151
293.089	329
293.146	-1403
293.203	-1915
293.260	-1080
293.318	-474
293.375	-254
293.432	-813
293.489	-941
293.546	-1188
293.604	-957
293.661	1731
293.718	9556
293.775	4855
293.832	1559
293.889	107
293.947	-840
294.004	405
294.061	-993
294.118	1578
294.175	6399
294.232	8021
294.289	2594
294.346	858
294.403	1136
294.460	-56
294.517	14
294.574	-611
294.631	-1152
294.688	-287
294.745	1440
294.802	11138
294.859	14009
294.916	4726
294.973	955
295.030	1602
295.087	925
295.144	-637
295.201	-2
295.258	-690
295.315	-239
295.372	2868
295.429	8281
295.486	3046
295.542	473
295.599	4117
295.656	9204
295.713	5486
295.770	8161
295.827	3175
295.883	305
295.940	11
295.997	1196
296.054	1544
296.111	-107
296.167	-488
296.224	-1220
296.281	-433
296.338	-372
296.394	-256
296.451	-871
296.508	3209
296.564	7315
296.621	3982
296.678	7818
296.734	13355
296.791	4864
296.848	1556
296.904	531
296.961	5337
297.018	8757
297.074	6897
297.131	1724
297.187	942
297.244	1176
297.301	7285
297.357	17699
297.414	5150
297.470	1169
297.527	202
297.583	821
297.640	378
297.696	-537
297.753	-241
297.809	-1230
297.866	-497
297.922	-1038
297.979	-874
298.035	-345
298.092	866
298.148	4023
298.204	4973
298.261	1366
298.317	3160
298.374	11346
298.430	7475
298.486	1936
298.543	877
298.599	-384
298.656	422
298.712	1611
298.768	7531
298.824	4864
298.881	1037
298.937	66
298.993	-306
299.050	47
299.106	74
299.162	-142
299.218	-160
299.275	147
299.331	-520
299.387	1284
299.443	8888
299.500	12179
299.556	5037
299.612	1242
299.668	991
299.724	1819
299.780	2559
299.837	844
299.893	1412
299.949	8809
300.005	12467
300.061	9075
300.117	15612
300.173	7908
300.229	2800
300.285	1987
300.341	4046
300.397	1347
300.453	363
300.510	-36
300.566	780
300.622	391
300.678	5551
300.734	11632
300.790	9361
300.845	10481
300.901	7476
300.957	10869
301.013	9207
301.069	2724
301.125	1629
301.181	999
301.237	841
301.293	-432
301.349	-311
301.405	-1206
301.461	-103
301.516	-698
301.572	144
301.628	1614
301.684	1404
301.740	1821
301.796	6201
301.851	4215
301.907	6753
301.963	6333
302.019	8492
302.074	28493
302.130	30738
302.186	13717
302.242	4804
302.297	2273
302.353	2330
302.409	5309
302.464	4747
302.520	2590
302.576	10450
302.631	13742
302.687	8623
302.743	2538
302.798	808
302.854	-282
302.910	-106
302.965	582
303.021	2661
303.076	2322
303.132	4114
303.187	5087
303.243	1859
303.299	-423
303.354	163
303.410	-632
303.465	-653
303.521	-226
303.576	277
303.632	-1108
303.687	1334
303.743	7831
303.798	8267
303.853	1528
303.909	1265
303.964	-209
304.020	1416
304.075	3010
304.130	3128
304.186	6289
304.241	7779
304.297	5185
304.352	2246
304.358	2053
304.407	486
304.449	970
304.463	1136
304.518	1133
304.539	814
304.573	291
304.629	605
304.630	612
304.684	1013
304.720	3448
304.739	4649
304.794	10845
304.811	9386
304.850	5897
304.902	1841
304.905	1577
304.960	223
304.992	346
305.015	465
305.071	-330
305.083	-186
305.126	255
305.173	-426
305.181	-526
305.236	-233
305.264	5
305.292	232
305.347	682
305.354	737
305.402	1096
305.445	951
305.457	894
305.512	550
305.535	963
305.567	1594
305.622	1715
305.626	1800
305.678	3743
305.716	7534
305.733	8851
305.788	12161
305.807	10271
305.843	7059
305.897	8786
305.898	8799
305.953	9168
305.988	6551
306.008	5126
306.063	3397
306.078	2944
306.118	1973
306.168	446
306.173	296
306.228	72
306.259	31
306.283	93
306.338	-180
306.349	-157
306.393	-168
306.440	78
306.448	141
306.503	288
306.530	641
306.558	1471
306.613	4401
306.620	4958
306.668	8408
306.711	11539
306.723	11865
306.778	9171
306.801	6550
306.833	3749
306.888	2074
306.892	1962
306.943	838
306.982	574
306.997	532
307.052	211
307.072	387
307.107	679
307.162	586
307.163	596
307.217	2269
307.253	2623
307.272	2444
307.327	3098
307.343	2704
307.381	2265
307.434	2502
307.436	2604
307.491	4944
307.524	8497
307.546	9559
307.600	10156
307.614	8875
307.655	4796
307.704	1659
307.710	1538
307.765	2178
307.795	2664
307.819	2966
307.874	6213
307.885	6085
307.929	4477
307.975	2999
307.984	2947
308.038	2992
308.065	3994
308.093	7923
308.148	17239
308.156	20045
308.202	34318
308.246	43700
308.257	43273
308.312	23459
308.336	16489
308.366	12417
308.421	8434
308.426	7965
308.475	4254
308.517	2848
308.530	2559
308.585	1647
308.607	1665
308.639	2057
308.694	2206
308.697	2277
308.748	5324
308.787	8377
308.803	8371
308.857	6304
308.877	4860
308.912	3375
308.967	3103
308.967	3097
309.021	4412
309.058	5894
309.076	7345
309.130	12863
309.148	15093
309.185	29620
309.238	55235
309.239	55361
309.293	62658
309.328	55611
309.348	47568
309.402	20884
309.418	14513
309.457	9614
309.508	6121
309.511	5985
309.566	5398
309.598	5547
309.620	6753
309.674	10940
309.688	12107
309.729	11195
309.778	8105
309.783	7919
309.837	5434
309.868	4192
309.892	5420
309.946	9952
309.959	11430
310.001	15519
310.049	19504
310.055	18979
310.109	11005
310.139	6481
310.163	4695
310.218	2043
310.229	1660
310.272	2062
310.319	2306
310.326	2161
310.381	1414
310.409	1022
310.435	997
310.489	1026
310.499	1004
310.543	564
310.589	447
310.598	582
310.652	1221
310.679	1446
310.706	1401
310.760	1366
310.769	1358
310.814	1495
310.859	1623
310.868	1519
310.923	841
310.948	537
310.977	1037
311.031	2000
311.038	2143
311.085	1693
311.128	1066
311.139	1094
311.193	1220
311.218	1299
311.247	1210
311.301	993
311.308	982
311.356	1241
311.398	1253
311.410	1212
311.464	1149
311.488	1078
311.518	1194
311.572	1457
311.578	1473
311.626	1593
311.668	1799
311.680	1915
311.734	2254
311.758	2430
311.788	2165
311.842	1648
311.847	1596
311.896	2727
311.937	3652
311.950	3455
312.004	2615
312.027	2218
312.058	2144
312.112	2036
312.117	2024
312.165	1898
312.207	1791
312.297	1930
312.386	1235
312.476	1532
312.566	3457
312.656	1715
312.745	872
312.835	1891
312.925	1735
313.015	1940
313.104	1347
313.194	1589
313.284	1436
313.374	2736
313.463	1569
313.553	1671
313.643	654
313.732	1065
313.822	621
313.912	1596
314.001	1454
314.091	1529
314.180	2232
314.270	1874
314.360	1972
314.449	2051
314.539	749
314.628	1448
314.718	1244
314.808	1828
314.897	1230
314.987	1718
315.076	1626
315.166	2770
315.255	1922
315.345	2767
315.434	1734
315.524	2493
315.613	1710
315.703	2598
315.792	2852
315.881	8878
315.971	2369
316.060	3642
316.150	4640
316.239	5184
316.328	1977
316.418	1303
316.507	1197
316.597	3180
316.686	2335
316.775	3109
316.865	5272
316.954	1614
317.043	1368
317.133	1314
317.222	1134
317.311	1695
317.400	280
317.490	2605
317.579	2287
317.668	1924
317.757	3041
317.847	6234
317.936	15021
318.025	6856
318.114	3960
318.203	3415
318.293	7215
318.382	16191
318.471	9855
318.560	12549
318.649	16374
318.738	3890
318.828	2150
318.917	3031
319.006	2619
319.095	7292
319.184	20852
319.273	11525
319.362	5176
319.451	2413
319.540	1636
319.629	4352
319.718	7158
319.807	4771
319.896	6409
319.985	26755
320.074	7852
320.163	2776
320.252	4367
320.341	3299
320.430	2410
320.519	4468
320.608	2055
320.697	2601
320.786	2069
320.875	2993
320.964	3205
321.053	5316
321.142	6397
321.230	7218
321.319	5176
321.408	13445
321.497	5409
321.586	5604
321.675	5529
321.764	5447
321.852	3779
321.941	7415
322.030	4107
322.119	5103
322.207	13266
322.296	8363
322.385	3918
322.474	5997
322.562	15650
322.651	8199
322.740	5687
322.829	7600
322.917	7482
323.006	4081
323.095	3478
323.183	3365
323.272	2884
323.361	8340
323.449	23669
323.538	7138
323.626	16668
323.715	8732
323.804	2815
323.892	14720
323.981	6626
324.069	3036
324.158	8213
324.246	8158
324.335	2993
324.424	5179
324.512	1875
324.601	2591
324.689	1752
324.778	3734
324.866	4875
324.954	1700
325.043	1940
325.131	3231
325.220	7423
325.308	6948
325.397	5466
325.485	4398
325.574	1892
325.662	1917
325.750	1143
325.839	2912
325.927	1204
326.015	2405
326.104	2465
326.192	3114
326.280	1827
326.369	2070
326.457	2329
326.545	3910
326.634	1587
326.722	2025
326.810	1816
326.898	2096
326.987	1980
327.075	3322
327.163	4415
327.251	2722
327.340	2341
327.428	2711
327.516	1342
327.604	2253
327.692	1369
327.781	2392
327.869	2647
327.957	2152
328.045	1937
328.133	1804
328.221	1476
328.309	2109
328.397	1851
328.485	2747
328.574	2759
328.662	9122
328.750	4850
328.838	2205
328.926	2307
329.014	1946
329.102	1679
329.190	5186
329.278	3139
329.366	1594
329.454	1426
329.542	950
329.630	1028
329.718	1878
329.806	1716
329.893	1903
329.981	779
330.069	2303
330.157	5906
330.245	17482
330.333	8357
330.421	1913
330.509	3366
330.597	10907
330.684	5587
330.772	3240
330.860	2927
330.948	4686
331.036	1692
331.123	1823
331.211	1125
331.299	1653
331.387	3784
331.475	6179
331.562	1704
331.650	1372
331.738	1918
331.825	2787
331.913	1233
332.001	1805
332.089	1929
332.176	3855
332.264	7272
332.352	4969
332.439	2316
332.527	2430
332.614	1036
332.702	2356
332.790	1722
332.877	3507
332.965	6932
333.052	2132
333.140	2063
333.228	4405
333.315	1285
333.403	1932
333.490	4891
333.578	3578
333.665	5423
333.753	2719
333.840	1197
333.928	2403
334.015	5534
334.103	8918
334.190	24935
334.278	6278
334.365	4021
334.452	3710
334.540	909
334.627	2426
334.715	3066
334.802	6057
334.889	28048
334.977	28566
335.064	5458
335.151	2663
335.239	2429
335.326	4367
335.413	14468
335.501	17871
335.588	2547
335.675	2468
335.762	2469
335.850	4662
335.937	3209
336.024	8687
336.111	33664
336.199	16986
336.286	4397
336.373	2591
336.460	1199
336.547	2557
336.635	2154
336.722	2330
336.809	1506
336.896	3228
336.983	7575
337.070	19361
337.157	27603
337.245	19097
337.332	11857
337.419	2722
337.506	1324
337.593	2556
337.680	6228
337.767	18869
337.854	5027
337.941	5358
338.028	6478
338.115	2931
338.202	3774
338.289	5381
338.376	17893
338.463	6314
338.550	10999
338.637	11921
338.724	4203
338.811	6200
338.898	1929
338.984	2149
339.071	2309
339.158	2946
339.245	4570
339.332	3527
339.419	4621
339.506	4125
339.593	666
339.679	2441
339.766	1449
339.853	2394
339.940	3691
340.027	2214
340.113	2842
340.200	2961
340.287	1968
340.374	2964
340.460	4370
340.547	618
340.634	2963
340.720	10675
340.807	4488
340.894	2390
340.980	1415
341.067	2537
341.154	3287
341.240	2772
341.327	5151
341.414	2179
341.500	1463
341.587	2442
341.674	2432
341.760	5408
341.847	3810
341.933	2201
342.020	290
342.106	2468
342.193	2616
342.279	3132
342.366	2571
342.452	4508
342.539	2875
342.625	5529
342.712	11446
342.798	5313
342.885	3130
342.971	2237
343.058	1427
343.144	2083
343.230	1432
343.317	1564
343.403	1333
343.490	1693
343.576	1549
343.662	2443
343.749	1882
343.835	2761
343.921	3352
344.008	20992
344.094	42153
344.180	8916
344.267	4001
344.353	13736
344.439	12623
344.525	6414
344.612	3558
344.698	3076
344.784	1633
344.870	2105
344.957	1980
345.043	2581
345.129	2263
345.215	4351
345.301	2224
345.387	2557
345.474	1747
345.560	1260
345.646	2451
345.732	2586
345.818	2285
345.904	1978
345.990	1992
346.076	1768
346.162	2163
346.249	2679
346.335	2095
346.421	2527
346.507	5622
346.593	19059
346.679	3785
346.765	3147
346.851	2252
346.937	1610
347.023	2954
347.108	3307
347.194	2009
347.280	2544
347.366	1990
347.452	6812
347.538	21620
347.624	17193
347.710	12571
347.796	2905
347.882	2108
347.967	2321
348.053	1999
348.139	2147
348.225	1109
348.311	1706
348.397	1693
348.482	3498
348.568	2210
348.654	2645
348.740	3179
348.825	2163
348.911	4443
348.997	11383
349.083	20915
349.168	3670
349.254	2229
349.340	2199
349.425	2372
349.511	2543
349.597	2763
349.682	4727
349.768	14285
349.854	6376
349.939	2560
350.025	2185
350.110	2146
350.196	2407
350.282	1128
350.367	2965
350.453	2240
350.538	2850
350.624	1451
350.709	2839
350.795	1242
350.880	1032
350.966	2678
351.051	3657
351.137	2994
351.222	2744
351.308	5176
351.393	12456
351.479	2792
351.564	1567
351.649	1980
351.735	1999
351.820	2119
351.906	2056
351.991	1980
352.076	8339
352.162	11869
352.247	2735
352.332	1993
352.418	3334
352.503	3786
352.588	18249
352.673	12122
352.759	3403
352.844	2303
352.929	3131
353.014	2856
353.100	2702
353.185	2847
353.270	4316
353.355	4488
353.441	2657
353.526	2500
353.611	4547
353.696	4624
353.781	4054
353.866	1333
353.952	2600
354.037	3631
354.122	8551
354.207	7402
354.292	4087
354.377	1657
354.462	2340
354.547	2626
354.632	3375
354.717	2944
354.802	3259
354.887	2131
354.972	3473
355.057	1636
355.142	2522
355.227	2432
355.312	3784
355.397	5284
355.482	13289
355.567	5947
355.652	6926
355.737	5688
355.822	16518
355.907	12255
355.991	3588
356.076	1622
356.161	3216
356.246	2886
356.331	3082
356.416	3399
356.501	26592
356.585	23626
356.670	3151
356.755	4124
356.840	5103
356.924	15835
357.009	54753
357.094	19389
357.179	5118
357.263	5240
357.348	4185
357.433	3137
357.517	4072
357.602	2685
357.687	3561
357.771	3829
357.856	5478
357.941	4032
358.025	12319
358.110	52142
358.195	23462
358.279	3981
358.364	3738
358.448	10748
358.533	28364
358.617	19022
358.702	20977
358.787	6632
358.871	5377
358.956	4424
359.040	2571
359.125	1633
359.209	3118
359.294	3801
359.378	4406
359.462	3936
359.547	3126
359.631	2193
359.716	2023
359.800	1975
359.885	3578
359.969	2584
360.053	4348
360.138	3734
360.222	2818
360.306	3750
360.391	3949
360.475	4404
360.559	9241
360.644	10074
360.728	7699
360.812	14237
360.896	37695
360.981	14476
361.065	8152
361.149	4126
361.233	3485
361.318	2366
361.402	4213
361.486	3405
361.570	2573
361.654	2607
361.739	4921
361.823	22989
361.907	36661
361.991	6582
362.075	6036
362.159	8190
362.243	6761
362.327	6150
362.411	11611
362.495	4733
362.580	3357
362.664	2328
362.748	2391
362.832	2603
362.916	4225
363.000	16193
363.084	41569
363.168	43276
363.252	9765
363.336	5072
363.420	6815
363.503	19086
363.587	22732
363.671	5074
363.755	3966
363.839	6027
363.923	2801
364.007	5095
364.091	4803
364.175	6848
364.258	33987
364.342	23136
364.426	36367
364.510	18823
364.594	8554
364.677	7576
364.761	31965
364.845	22598
364.929	7708
365.013	5593
365.096	5718
365.180	4885
365.264	9429
365.347	33451
365.431	14088
365.515	3593
365.598	2350
365.682	3203
365.766	3415
365.849	4325
365.933	3368
366.017	4455
366.100	2330
366.184	1485
366.267	2919
366.351	2476
366.435	2442
366.518	1157
366.602	2374
366.685	2332
366.769	2836
366.852	3224
366.936	5976
367.019	3247
367.103	2024
367.186	5837
367.270	3067
367.353	2056
367.436	3763
367.520	1793
367.603	3318
367.687	2569
367.770	5707
367.853	3536
367.937	10715
368.020	16969
368.104	3656
368.187	4032
368.270	6461
368.353	5246
368.437	6446
368.520	12414
368.603	8363
368.687	11536
368.770	22062
368.853	4895
368.936	6350
369.020	5857
369.103	2966
369.186	2302
369.269	3096
369.352	4572
369.436	5902
369.519	3738
369.602	2336
369.685	4286
369.768	1592
369.851	3282
369.934	1500
370.018	1899
370.101	3310
370.184	5688
370.267	4422
370.350	6095
370.433	8853
370.516	18806
370.599	20828
370.682	4750
370.765	12342
370.848	15451
370.931	25957
371.014	12638
371.097	3099
371.180	2416
371.263	3174
371.346	406
371.429	2434
371.511	1684
371.594	3368
371.677	5424
371.760	6508
371.843	4623
371.926	20128
372.009	41416
372.091	15699
372.174	8775
372.257	24637
372.340	8178
372.423	6913
372.505	8391
372.588	3770
372.671	9105
372.754	25551
372.836	12936
372.919	10006
373.002	17499
373.085	5246
373.167	4665
373.250	10380
373.332	23716
373.415	30754
373.498	57578
373.580	21968
373.663	28749
373.746	37046
373.828	8168
373.911	5824
373.993	3735
374.076	17319
374.159	15043
374.241	7474
374.324	21868
374.406	14838
374.489	18260
374.571	50370
374.654	20972
374.736	10145
374.819	29074
374.901	45220
374.983	44213
375.066	9033
375.148	4172
375.231	14987
375.313	28034
375.395	10072
375.478	2785
375.560	3624
375.643	2176
375.725	10463
375.807	38029
375.890	31051
375.972	9219
376.054	7111
376.136	10079
376.219	5127
376.301	13218
376.383	34470
376.465	12834
376.548	6747
376.630	9900
376.712	29572
376.794	13418
376.877	3119
376.959	1534
377.041	3360
377.123	4517
377.205	5830
377.287	890
377.369	3106
377.452	3364
377.534	2484
377.616	2187
377.698	2255
377.780	1164
377.862	2432
377.944	2748
378.026	1570
378.108	1831
378.190	2127
378.272	2063
378.354	1167
378.436	974
378.518	1812
378.600	7645
378.682	7025
378.764	14928
378.846	13520
378.928	3780
379.010	5078
379.091	4326
379.173	2761
379.255	704
379.337	2612
379.419	7245
379.501	22759
379.583	8818
379.664	2571
379.746	4403
379.828	16056
379.910	20041
379.991	18463
380.073	3531
380.155	2550
380.237	2405
380.318	2391
380.400	2066
380.482	4005
380.564	5050
380.645	4831
380.727	4083
380.809	4966
380.890	1952
380.972	1131
381.053	1560
381.135	2604
381.217	4858
381.298	16549
381.380	7496
381.461	6696
381.543	28564
381.624	33940
381.706	5790
381.787	4032
381.869	4583
381.951	12349
382.032	44586
382.113	31092
382.195	6106
382.276	5970
382.358	9195
382.439	25479
382.521	27894
382.602	44424
382.684	19385
382.765	33574
382.846	32920
382.928	39594
383.009	19135
383.090	13009
383.172	50656
383.253	83560
383.334	28861
383.416	39304
383.497	18664
383.578	5982
383.659	10411
383.741	42127
383.822	120602
383.903	60815
383.984	23447
384.066	51062
384.147	28513
384.228	6729
384.309	4314
384.390	3229
384.471	2050
384.553	3686
384.634	3564
384.715	5325
384.796	2021
384.877	3693
384.958	14250
385.039	16529
385.120	5436
385.201	3422
385.282	2738
385.363	3385
385.444	2663
385.525	7675
385.606	22574
385.687	17710
385.768	4050
385.849	4788
385.930	20956
386.011	35860
386.092	9238
386.173	2776
386.254	2533
386.335	3504
386.416	3115
386.496	11397
386.577	15021
386.658	6763
386.739	2889
386.820	4278
386.901	1795
386.981	3068
387.062	1501
387.143	3271
387.224	14113
387.304	14851
387.385	5453
387.466	3525
387.547	6227
387.627	3768
387.708	6002
387.789	27046
387.869	31306
387.950	9440
388.031	1855
388.111	-24
388.192	4405
388.273	7002
388.353	3847
388.434	2954
388.514	5390
388.595	23605
388.676	29378
388.756	15205
388.837	13953
388.917	8194
388.998	1159
389.078	3278
389.159	1958
389.239	800
389.320	4958
389.400	1837
389.480	6223
389.561	15595
389.641	8654
389.722	3634
389.802	4489
389.883	7376
389.963	19659
390.043	11389
390.124	2535
390.204	7655
390.284	17330
390.365	10410
390.445	9942
390.525	16897
390.605	15380
390.686	8206
390.766	6960
390.846	4701
390.927	1114
391.007	883
391.087	3992
391.167	4995
391.247	2499
391.328	3903
391.408	3805
391.488	3881
391.568	644
391.648	2350
391.728	3555
391.808	3768
391.888	3147
391.969	8666
392.049	14081
392.129	6317
392.209	6427
392.289	19303
392.369	9994
392.449	8404
392.529	4521
392.609	5609
392.689	5444
392.769	17717
392.849	14959
392.929	11573
393.009	25436
393.089	18109
393.169	16264
393.248	52326
393.328	204015
393.408	220811
393.488	55106
393.568	14698
393.648	6837
393.728	4741
393.807	3389
393.887	3698
393.967	2791
394.047	3394
394.127	2899
394.206	4663
394.286	16484
394.366	81993
394.446	85428
394.525	16144
394.605	3240
394.685	4979
394.764	10687
394.844	17374
394.924	12687
395.003	4112
395.083	2882
395.163	3473
395.242	1872
395.322	3025
395.402	470
395.481	3903
395.561	5973
395.640	21463
395.720	18254
395.799	22179
395.879	14951
395.958	5596
396.038	23606
396.117	104272
396.197	112691
396.276	28052
396.356	7345
396.435	7675
396.515	5505
396.594	6638
396.673	15218
396.753	58495
396.832	185736
396.912	138634
396.991	29768
397.070	8705
397.150	3079
397.229	4159
397.308	6098
397.388	10999
397.467	5171
397.546	2388
397.625	228
397.705	3262
397.784	2369
397.863	1581
397.942	1447
398.022	1616
398.101	5459
398.180	19958
398.259	9597
398.338	3527
398.417	1431
398.497	1164
398.576	1910
398.655	294
398.734	2109
398.813	2761
398.892	7091
398.971	21255
399.050	9221
399.129	628
399.208	290
399.287	2002
399.366	373
399.445	695
399.524	1191
399.603	135
399.682	2835
399.761	6711
399.840	21604
399.919	17535
399.998	2031
400.077	998
400.156	-269
400.235	2763
400.313	191
400.392	741
400.471	7093
400.550	12621
400.629	2461
400.708	1772
400.786	532
400.865	3379
400.944	2537
401.023	3183
401.102	-257
401.180	623
401.259	573
401.338	594
401.416	1890
401.495	160
401.574	1249
401.652	206
401.731	1876
401.810	-202
401.888	836
401.967	930
402.046	2071
402.124	2172
402.203	396
402.281	1616
402.360	4252
402.438	6031
402.517	2433
402.596	1552
402.674	511
402.753	339
402.831	952
402.910	1810
402.988	3008
403.066	13965
403.145	9543
403.223	5105
403.302	11691
403.380	9216
403.459	7920
403.537	3273
403.615	596
403.694	-182
403.772	551
403.850	650
403.929	-6
404.007	1237
404.085	2184
404.164	753
404.242	489
404.320	2874
404.398	6482
404.477	10282
404.555	37684
404.633	32051
404.711	6943
404.789	4351
404.868	153
404.946	635
405.024	752
405.102	723
405.180	-1259
405.258	-1302
405.336	614
405.415	10
405.493	2112
405.571	1910
405.649	-282
405.727	-942
405.805	980
405.883	1229
405.961	726
406.039	168
406.117	-1331
406.195	1365
406.273	7648
406.351	31191
406.429	19075
406.507	1829
406.585	-302
406.663	958
406.740	659
406.818	-72
406.896	-616
406.974	1522
407.052	1307
407.130	17463
407.208	25188
407.285	4778
407.363	-1262
407.441	484
407.519	320
407.596	-387
407.674	1486
407.752	5418
407.830	5708
407.907	2331
407.985	-524
408.063	732
408.141	-814
408.218	1747
408.296	-311
408.373	539
408.451	856
408.529	1194
408.606	-946
408.684	-389
408.762	-593
408.839	-747
408.917	-448
408.994	593
409.072	429
409.149	1034
409.227	2102
409.304	2721
409.382	816
409.459	520
409.537	3267
409.614	1919
409.692	588
409.769	128
409.846	2579
409.924	5221
410.001	1671
410.079	1467
410.156	1645
410.233	2311
410.311	1195
410.388	9
410.465	819
410.543	1331
410.620	573
410.697	1106
410.775	-450
410.852	-1032
410.929	1087
411.006	2566
411.083	136
411.161	4278
411.238	4596
411.315	1089
411.392	-358
411.469	1651
411.547	2780
411.624	-363
411.701	281
411.778	358
411.855	1078
411.932	682
412.009	-466
412.086	-98
412.163	-416
412.240	-268
412.317	2070
412.394	971
412.471	-191
412.548	269
412.625	-491
412.702	1398
412.779	2802
412.856	3659
412.933	-698
413.010	-625
413.087	362
413.164	6851
413.241	10775
413.318	1809
413.395	1348
413.471	1768
413.548	105
413.625	-249
413.702	-1058
413.779	88
413.855	-1284
413.932	-936
414.009	-1396
414.086	-45
414.162	-57
414.239	1725
414.316	7460
414.393	16117
414.469	3323
414.546	34
414.623	-956
414.699	-495
414.776	63
414.853	-497
414.929	-578
415.006	-401
415.082	29
415.159	61
415.236	-610
415.312	213
415.389	550
415.465	551
415.542	183
415.618	-574
415.695	614
415.771	-221
415.848	-475
415.924	521
416.000	-423
416.077	708
416.153	-776
416.230	-840
416.306	-1119
416.383	-312
416.459	3
416.535	-577
416.612	-1419
416.688	-514
416.764	-454
416.841	-477
416.917	-925
416.993	124
417.069	435
417.146	433
417.222	414
417.298	-62
417.374	-593
417.451	476
417.527	159
417.603	83
417.679	-502
417.755	111
417.831	-1363
417.908	-501
417.984	-947
418.060	-1358
418.136	419
418.212	1736
418.288	-73
418.364	-337
418.440	-1335
418.516	452
418.592	923
418.668	1776
418.744	2844
418.820	2100
418.896	226
418.972	-737
419.048	-778
419.124	2506
419.200	-847
419.276	-242
419.352	-1720
419.428	98
419.504	156
419.579	457
419.655	-422
419.731	-203
419.807	1630
419.883	4007
419.959	2643
420.034	578
420.110	1459
420.186	9145
420.262	6546
420.337	517
420.413	-846
420.489	-275
420.565	518
420.640	-63
420.716	-186
420.792	-1374
420.867	-50
420.943	-1598
421.019	466
421.094	337
421.170	-84
421.245	-801
421.321	186
421.397	-247
421.472	269
421.548	1089
421.623	1906
421.699	538
421.774	524
421.850	108
421.925	1908
422.001	2634
422.076	1215
422.152	2307
422.227	3199
422.302	6303
422.378	7407
422.453	16242
422.529	40377
422.604	104602
422.679	150746
422.755	108361
422.830	44774
422.905	18957
422.981	8751
423.056	5531
423.131	4410
423.207	3049
423.282	2423
423.357	4209
423.432	2707
423.508	2166
423.583	4056
423.658	3760
423.733	503
423.808	777
423.883	899
423.959	1072
424.034	482
424.109	1291
424.184	-302
424.259	83
424.334	-638
424.409	-450
424.484	-180
424.559	-369
424.634	-294
424.709	757
424.784	-99
424.859	-134
424.934	44
425.009	6333
425.084	10732
425.159	3155
425.234	-141
425.309	-745
425.384	-195
425.459	1049
425.534	-115
425.609	-1039
425.683	-1057
425.758	-646
425.833	-938
425.908	687
425.983	2879
426.058	11208
426.132	4253
426.207	-187
426.282	960
426.357	-155
426.431	-392
426.506	-272
426.581	-1375
426.655	-120
426.730	-298
426.805	-1213
426.879	242
426.954	333
427.029	746
427.103	11316
427.178	28546
427.253	12456
427.327	844
427.402	143
427.476	1571
427.551	-334
427.625	107
427.700	510
427.774	-1000
427.849	258
427.923	-1306
427.998	-302
428.072	-507
428.147	2020
428.221	9392
428.296	34184
428.370	18106
428.444	2094
428.519	1026
428.593	2877
428.667	2675
428.742	3536
428.816	3571
428.890	20878
428.965	32370
429.039	8521
429.113	3697
429.188	1522
429.262	-746
429.336	1643
429.410	4942
429.485	3493
429.559	1700
429.633	2054
429.707	431
429.781	3892
429.855	20702
429.930	35003
430.004	14170
430.078	19004
430.152	19582
430.226	42373
430.300	44491
430.374	6122
430.448	1038
430.522	5605
430.596	18454
430.670	13952
430.744	35225
430.818	51448
430.892	9569
430.966	1100
431.040	584
431.114	-1509
431.188	-1523
431.262	-830
431.336	-1052
431.410	1690
431.484	3990
431.557	3198
431.631	-558
431.705	-326
431.779	5421
431.853	30685
431.927	21497
432.000	2302
432.074	245
432.148	12
432.222	-1212
432.295	-658
432.369	-642
432.443	342
432.516	10575
432.590	29713
432.664	9676
432.737	-114
432.811	-1517
432.885	-368
432.958	-503
433.032	-607
433.106	-1752
433.179	-944
433.253	-596
433.326	-44
433.400	-1547
433.473	-357
433.547	-1429
433.620	-301
433.694	-438
433.767	423
433.841	-1380
433.914	-1487
433.988	-920
434.061	270
434.134	-1329
434.208	-587
434.281	-1028
434.355	-1697
434.428	-774
434.501	-1540
434.575	-1543
434.648	-620
434.721	-1028
434.795	-1275
434.868	-1143
434.941	-1034
435.014	-913
435.088	-1437
435.161	-1059
435.234	712
435.307	1139
435.381	-58
435.454	-525
435.527	947
435.600	1123
435.673	400
435.746	-652
435.819	-321
435.892	-240
435.966	-248
436.039	-729
436.112	10
436.185	-1432
436.258	-194
436.331	-806
436.404	-456
436.477	-1255
436.550	-768
436.623	-856
436.696	-70
436.769	-697
436.842	-837
436.915	-1756
436.987	-913
437.060	-1297
437.133	-86
437.206	-1459
437.279	-311
437.352	-889
437.425	232
437.498	-72
437.570	2036
437.643	1660
437.716	-446
437.789	-1038
437.861	2907
437.934	11686
438.007	6002
438.080	-427
438.152	582
438.225	1538
438.298	15455
438.370	46495
438.443	23223
438.516	9412
438.588	1932
438.661	-414
438.734	-430
438.806	-466
438.879	-416
438.951	1745
439.024	5799
439.096	1155
439.169	-45
439.241	-1688
439.314	-344
439.386	-704
439.459	1633
439.531	4288
439.604	1690
439.676	-196
439.749	-792
439.821	-1628
439.893	260
439.966	-903
440.038	1067
440.110	2013
440.183	145
440.255	-1153
440.327	524
440.400	5610
440.472	28888
440.544	20509
440.617	2975
440.689	4491
440.761	6822
440.833	10733
440.905	8205
440.978	169
441.050	-711
441.122	190
441.194	-698
441.266	-375
441.338	-652
441.411	278
441.483	8272
441.555	14149
441.627	4285
441.699	1339
441.771	1082
441.843	-560
441.915	-245
441.987	-1183
442.059	-157
442.131	605
442.203	2007
442.275	1549
442.347	1831
442.419	2882
442.491	18086
442.563	48891
442.635	25010
442.706	8035
442.778	7261
442.850	808
442.922	628
442.994	130
443.066	1487
443.137	691
443.209	695
443.281	1105
443.353	5667
443.425	23739
443.496	84012
443.568	89791
443.640	37665
443.711	7532
443.783	2928
443.855	1082
443.926	824
443.998	329
444.070	1425
444.141	814
444.213	3102
444.285	2311
444.356	1600
444.428	1582
444.499	861
444.571	-969
444.642	749
444.714	-243
444.785	1549
444.857	2350
444.928	3894
445.000	2700
445.071	3507
445.143	3728
445.214	3730
445.285	5566
445.357	15763
445.428	55703
445.500	124602
445.571	88385
445.642	52255
445.714	18376
445.785	11661
445.856	3598
445.928	4278
445.999	4740
446.070	5416
446.141	3193
446.213	3665
446.284	1196
446.355	1454
446.426	-333
446.497	43
446.569	1329
446.640	2027
446.711	1904
446.782	728
446.853	135
446.924	887
446.995	611
447.066	828
447.138	956
447.209	918
447.280	-888
447.351	-470
447.422	-529
447.493	570
447.564	1251
447.635	1124
447.706	367
447.777	219
447.847	-74
447.918	405
447.989	200
448.060	1233
448.131	3047
448.202	3260
448.273	2785
448.344	1911
448.414	80
448.485	115
448.556	-131
448.627	37
448.698	39
448.768	-177
448.839	-344
448.910	1124
448.981	1571
449.051	1024
449.122	-325
449.193	-183
449.263	-131
449.334	-6
449.405	-210
449.475	2924
449.546	2205
449.616	1837
449.687	1900
449.758	344
449.828	-624
449.899	532
449.969	-18
450.040	30
450.110	888
450.181	813
450.251	-686
450.322	460
450.392	519
450.463	645
450.533	-894
450.604	426
450.674	-399
450.744	1542
450.815	93
450.885	847
450.955	855
451.026	729
451.096	147
451.166	403
451.237	1800
451.307	6659
451.377	3251
451.447	304
451.518	114
451.588	540
451.658	124
451.728	1677
451.799	5944
451.869	7950
451.939	1772
452.009	795
452.079	306
452.149	1091
452.219	1346
452.289	7904
452.360	7125
452.430	1872
452.500	601
452.570	2136
452.640	3298
452.710	8070
452.780	12665
452.850	11120
452.920	9084
452.990	3764
453.060	1627
453.129	2029
453.199	2148
453.269	9061
453.339	20991
453.409	32978
453.479	28539
453.549	44471
453.619	47456
453.688	22427
453.758	3553
453.828	1794
453.898	568
453.968	1064
454.037	911
454.087	657
454.107	552
454.168	-225
454.177	-346
454.247	688
454.249	656
454.316	-375
454.330	58
454.386	1705
454.411	2264
454.456	3101
454.492	5301
454.525	7308
454.574	4509
454.595	3298
454.655	1662
454.665	1410
454.734	1257
454.736	1301
454.804	2456
454.817	3508
454.873	7720
454.898	8330
454.943	9482
454.979	6108
455.013	3096
455.060	1947
455.082	1453
455.141	1454
455.152	1425
455.221	6102
455.222	6172
455.291	10520
455.303	10228
455.360	8799
455.384	10898
455.430	14308
455.465	12030
455.499	9914
455.546	7852
455.569	6861
455.627	5983
455.638	5856
455.707	1213
455.708	1214
455.777	1012
455.789	1009
455.846	1131
455.869	1093
455.916	1012
455.950	1228
455.985	1312
456.031	896
456.054	718
456.112	1166
456.124	1291
456.193	982
456.193	976
456.262	1315
456.274	1430
456.332	1734
456.355	1569
456.401	1286
456.436	890
456.470	389
456.516	502
456.540	654
456.597	967
456.609	1022
456.678	973
456.678	970
456.747	826
456.759	757
456.817	462
456.840	470
456.886	382
456.920	477
456.955	723
457.001	1216
457.024	1372
457.082	1406
457.093	1411
457.162	1452
457.163	1459
457.232	1949
457.243	1896
457.301	1648
457.324	1195
457.370	304
457.405	720
457.439	1349
457.485	1315
457.508	1221
457.566	1387
457.577	1511
457.646	2557
457.647	2574
457.715	3695
457.727	4154
457.784	6865
457.808	8419
457.853	10249
457.889	11993
457.922	13081
457.969	10345
457.991	10157
458.050	11265
458.060	11393
458.129	17561
458.130	17717
458.198	18809
458.211	17116
458.267	11543
458.292	8645
458.336	5050
458.372	4616
458.405	5453
458.453	7613
458.474	8917
458.533	15311
458.543	15763
458.611	26432
458.614	26632
458.680	23662
458.694	19876
458.749	10789
458.775	8229
458.818	4093
458.855	2919
458.887	2374
458.936	2103
458.955	1879
459.016	1480
459.024	1456
459.093	2266
459.097	2265
459.162	1869
459.177	1881
459.230	2612
459.257	2767
459.299	2797
459.338	3457
459.368	3720
459.418	4777
459.437	4955
459.499	4130
459.505	4147
459.574	1511
459.579	1527
459.643	1405
459.659	1328
459.711	1518
459.740	1877
459.780	2100
459.820	1771
459.849	1681
459.900	1935
459.917	1917
459.981	1678
459.986	1684
460.054	1973
460.061	1974
460.123	1680
460.141	1677
460.191	2133
460.222	2204
460.260	2155
460.302	2906
460.328	2898
460.382	2000
460.397	1961
460.462	1428
460.465	1451
460.534	2205
460.543	2370
460.602	4342
460.623	5241
460.671	7811
460.703	11101
460.739	11391
460.783	9998
460.808	9792
460.864	4625
460.876	3856
460.944	1630
460.945	1602
461.013	1807
461.024	1783
461.081	1870
461.104	2053
461.150	2072
461.184	1966
461.218	2020
461.264	1784
461.286	1560
461.345	1276
461.355	1311
461.423	1834
461.425	1830
461.491	1735
461.505	1852
461.559	3123
461.585	3624
461.628	5213
461.665	7127
461.696	7653
461.745	9414
461.764	8978
461.825	5091
461.832	5032
461.901	2173
461.905	2188
461.969	1679
461.985	1567
462.037	2861
462.065	3297
462.105	2807
462.145	2520
462.173	3194
462.225	4711
462.241	5033
462.305	6390
462.310	6254
462.378	4589
462.385	4176
462.446	2860
462.465	2660
462.514	2373
462.545	2087
462.582	1691
462.625	1795
462.650	1781
462.705	1367
462.718	1469
462.785	2477
462.786	2488
462.854	2709
462.865	2810
462.922	3948
462.945	4415
462.990	3523
463.025	2555
463.058	2618
463.104	2434
463.126	1952
463.184	1301
463.194	1493
463.262	2114
463.264	2166
463.330	2458
463.344	2423
463.398	2463
463.424	2544
463.466	2141
463.504	1839
463.533	2387
463.583	3156
463.601	3124
463.663	2710
463.669	2690
463.737	3104
463.743	3125
463.805	4798
463.823	5287
463.873	7238
463.903	8446
463.940	8412
463.982	9162
464.008	8138
464.062	4195
464.076	3861
464.142	2021
464.144	2014
464.211	2399
464.221	2549
464.279	3095
464.301	3198
464.347	3208
464.381	3493
464.414	3510
464.461	2982
464.482	2996
464.540	3522
464.550	3426
464.617	2404
464.620	2375
464.685	2889
464.699	2962
464.753	3127
464.779	3361
464.820	3297
464.859	3067
464.888	3162
464.938	3388
464.956	3634
465.018	4469
465.023	4401
465.091	3570
465.098	3464
465.158	3343
465.177	3340
465.226	3096
465.257	2901
465.293	2787
465.336	2741
465.361	3060
465.416	3739
465.428	4080
465.495	6045
465.496	6065
465.563	8331
465.575	8714
465.631	9874
465.654	10542
465.698	7111
465.734	3739
465.765	3507
465.813	2976
465.833	2781
465.893	2733
465.900	2663
465.968	2118
465.972	2079
466.035	2418
466.052	2498
466.102	2667
466.131	2824
466.170	2779
466.210	2649
466.237	2842
466.290	3336
466.304	3261
466.369	2766
466.372	2794
466.439	3798
466.449	3917
466.506	3881
466.528	3925
466.573	6042
466.607	7547
466.641	9659
466.687	12713
466.708	13428
466.766	15534
466.775	14380
466.842	5571
466.845	5147
466.909	3727
466.925	3462
466.977	3841
467.004	4102
467.044	4175
467.083	4280
467.111	4144
467.163	3875
467.178	3968
467.242	4376
467.245	4398
467.312	4935
467.321	5009
467.379	4571
467.400	4406
467.446	5536
467.480	6354
467.559	5267
467.638	3516
467.717	2899
467.796	5175
467.875	5472
467.955	4138
468.034	8030
468.113	15108
468.192	19632
468.271	5455
468.350	5856
468.429	5273
468.508	5705
468.588	3967
468.667	3400
468.746	3834
468.825	3962
468.904	3537
468.983	5067
469.062	5508
469.141	6503
469.220	3073
469.299	3798
469.378	2163
469.456	4701
469.535	2900
469.614	2948
469.693	3487
469.772	5843
469.851	6190
469.930	4444
470.009	3395
470.088	3974
470.166	3525
470.245	5812
470.324	5761
470.403	4209
470.482	3471
470.560	3851
470.639	3791
470.718	5007
470.797	4092
470.875	5514
470.954	5048
471.033	6042
471.111	3306
471.190	2610
471.269	2984
471.347	2687
471.426	3736
471.505	2971
471.583	3080
471.662	3659
471.740	2600
471.819	3358
471.898	3377
471.976	3045
472.055	3295
472.133	3016
472.212	4611
472.290	4542
472.369	3060
472.447	3576
472.526	1657
472.604	3601
472.683	2927
472.761	3880
472.839	3874
472.918	4060
472.996	2902
473.075	3549
473.153	3606
473.231	3373
473.310	2913
473.388	3683
473.466	2927
473.545	4178
473.623	5296
473.701	5173
473.780	3127
473.858	1531
473.936	4066
474.014	3735
474.093	3840
474.171	5705
474.249	7711
474.327	5369
474.405	2583
474.484	2797
474.562	2307
474.640	3123
474.718	2780
474.796	3513
474.874	3352
474.952	2043
475.030	2562
475.108	2999
475.187	3352
475.265	3643
475.343	4889
475.421	5108
475.499	3077
475.577	3865
475.655	4393
475.733	9328
475.811	12479
475.889	11067
475.966	6142
476.044	3735
476.122	4382
476.200	4496
476.278	3382
476.356	3000
476.434	3525
476.512	3306
476.590	4159
476.667	4779
476.745	2335
476.823	3895
476.901	2941
476.979	2589
477.056	3768
477.134	3584
477.212	2636
477.290	3310
477.367	2819
477.445	2995
477.523	2176
477.601	3192
477.678	3760
477.756	4310
477.834	3043
477.911	3720
477.989	2771
478.066	2674
478.144	2591
478.222	4090
478.299	5237
478.377	4316
478.454	3003
478.532	3562
478.609	3350
478.687	3246
478.764	2181
478.842	3409
478.919	2399
478.997	2950
479.074	2775
479.152	3257
479.229	4550
479.307	2769
479.384	2905
479.461	3966
479.539	2313
479.616	3156
479.694	3107
479.771	3665
479.848	2797
479.926	3393
480.003	5097
480.080	3701
480.157	2861
480.235	2905
480.312	3306
480.389	3839
480.467	5013
480.544	5691
480.621	2911
480.698	3445
480.775	3544
480.853	3506
480.930	1826
481.007	2704
481.084	3744
481.161	3176
481.238	4038
481.315	2467
481.392	2983
481.470	3548
481.547	2537
481.624	3188
481.701	2182
481.778	3672
481.855	3590
481.932	5182
482.009	7959
482.086	4926
482.163	3184
482.240	5301
482.317	7152
482.393	4586
482.470	3423
482.547	4143
482.624	3149
482.701	4584
482.778	3974
482.855	2848
482.932	2432
483.009	3355
483.085	4421
483.162	5138
483.239	5332
483.316	2799
483.393	3792
483.469	3623
483.546	3520
483.623	3672
483.699	3353
483.776	3680
483.853	3134
483.930	6732
484.006	12408
484.083	18936
484.160	8124
484.236	10267
484.313	7825
484.389	6445
484.466	7061
484.543	7103
484.619	6054
484.696	8269
484.772	6029
484.849	7876
484.925	5599
485.002	6698
485.078	7502
485.155	7279
485.231	5963
485.308	4498
485.384	6170
485.461	8130
485.537	11320
485.614	12229
485.690	5586
485.766	5228
485.843	5888
485.919	8355
485.995	9293
486.072	4057
486.148	4236
486.224	5662
486.301	6311
486.377	7674
486.453	8722
486.530	7036
486.606	8278
486.682	7743
486.758	10110
486.835	11264
486.911	8719
486.987	15314
487.063	17461
487.139	21161
487.215	13500
487.292	7625
487.368	6494
487.444	8832
487.520	12775
487.596	10159
487.672	19659
487.748	50095
487.824	61237
487.900	16201
487.976	8188
488.052	9972
488.128	13230
488.204	7371
488.280	7632
488.356	8773
488.432	14328
488.508	17550
488.584	6246
488.660	6038
488.736	4651
488.812	5366
488.888	7230
488.964	11230
489.039	23383
489.115	31722
489.191	14612
489.267	4773
489.343	5455
489.418	4386
489.494	4492
489.570	3076
489.646	5721
489.722	5019
489.797	3901
489.873	8707
489.949	15850
490.024	9981
490.100	4639
490.176	4608
490.251	6019
490.327	7844
490.403	4315
490.478	5010
490.554	4270
490.629	4277
490.705	3817
490.781	5290
490.856	4062
490.932	4848
491.007	3627
491.083	4596
491.158	4403
491.234	5459
491.309	11777
491.385	9137
491.460	2985
491.536	5730
491.611	3765
491.686	5574
491.762	7242
491.837	16492
491.913	23412
491.988	33675
492.063	33791
492.139	9463
492.214	5788
492.289	4126
492.365	3649
492.440	4956
492.515	4491
492.590	4895
492.666	4731
492.741	5604
492.816	7095
492.891	3686
492.967	3883
493.042	3900
493.117	3448
493.192	4637
493.267	8430
493.342	21481
493.418	22266
493.493	3801
493.568	3290
493.643	3543
493.718	5117
493.793	6839
493.868	7483
493.943	5325
494.018	3540
494.093	3372
494.168	4273
494.243	3226
494.318	3823
494.393	3771
494.468	3422
494.543	3487
494.618	3371
494.693	3123
494.768	3674
494.842	3366
494.917	3342
494.992	3645
495.067	2347
495.142	3077
495.217	3401
495.292	4241
495.366	3846
495.441	5123
495.516	6864
495.591	11092
495.665	34261
495.740	66983
495.815	18426
495.890	5272
495.964	2551
496.039	6316
496.114	3998
496.188	4892
496.263	3772
496.338	3881
496.412	4027
496.487	5569
496.561	6219
496.636	5961
496.710	5035
496.785	4785
496.860	5416
496.934	4496
497.009	4901
497.083	4830
497.158	4559
497.232	6096
497.307	6546
497.381	5527
497.455	6328
497.530	8341
497.604	5186
497.679	6466
497.753	10172
497.827	10039
497.902	8922
497.976	12499
498.050	36049
498.125	111417
498.199	80968
498.273	14546
498.348	11818
498.422	9516
498.496	8883
498.570	8823
498.645	6156
498.719	5718
498.793	8107
498.867	11501
498.941	15618
499.016	51172
499.090	106440
499.164	24499
499.238	5987
499.312	6234
499.386	6239
499.460	6095
499.534	5564
499.609	7523
499.683	7692
499.757	9383
499.831	24469
499.905	77165
499.979	52087
500.053	10898
500.127	10463
500.201	8323
500.275	6406
500.349	5239
500.422	5766
500.496	9247
500.570	20156
500.644	46481
500.718	67049
500.792	12679
500.866	5913
500.940	7086
501.013	5664
501.087	6120
501.161	10580
501.235	11772
501.309	29645
501.382	69433
501.456	43508
501.530	13445
501.603	19952
501.677	6095
501.751	2962
501.825	7026
501.898	11462
501.972	26950
502.046	11197
502.119	5711
502.193	14003
502.266	28037
502.340	10696
502.413	14043
502.487	22528
502.561	11175
502.634	5327
502.708	5897
502.781	3608
502.855	4874
502.928	3239
503.002	4223
503.075	2656
503.149	3428
503.222	3613
503.295	3395
503.369	4797
503.442	7606
503.516	23769
503.589	45982
503.662	23281
503.736	10457
503.809	23467
503.882	16652
503.956	30597
504.029	24830
504.102	29861
504.175	34705
504.249	9250
504.322	6497
504.395	5093
504.468	4043
504.542	3120
504.615	2525
504.688	3046
504.761	2019
504.834	4380
504.907	5809
504.980	7189
505.053	4651
505.127	3134
505.200	6939
505.273	4637
505.346	3002
505.419	2105
505.492	3913
505.565	2344
505.638	3047
505.711	2303
505.784	1446
505.857	1656
505.930	4576
506.003	1830
506.076	4675
506.149	3231
506.221	3542
506.294	6155
506.367	12761
506.440	36541
506.513	14393
506.586	5122
506.659	3021
506.731	3819
506.804	4078
506.877	3886
506.950	3844
507.022	3624
507.095	2710
507.168	4958
507.241	4276
507.313	3218
507.386	2960
507.459	4967
507.531	3433
507.604	2278
507.677	3557
507.749	1565
507.822	5082
507.894	6124
507.967	6688
508.040	3645
508.112	4798
508.185	4143
508.257	3248
508.330	6826
508.402	3812
508.475	2559
508.547	4803
508.620	4232
508.692	6446
508.765	3896
508.837	2226
508.909	4116
508.982	2922
509.054	3907
509.127	3261
509.199	2490
509.271	1722
509.344	2650
509.416	3640
509.488	2675
509.560	3951
509.633	2907
509.705	3864
509.777	2859
509.849	5389
509.922	3084
509.994	2497
510.066	3575
510.138	937
510.210	7088
510.283	2625
510.355	3997
510.427	4964
510.499	3046
510.571	3698
510.643	2951
510.715	7859
510.787	2608
510.859	5067
510.931	4635
511.003	5662
511.076	5055
511.148	2481
511.219	2775
511.291	5673
511.363	5380
511.435	2498
511.507	2266
511.579	4640
511.651	4566
511.723	3901
511.795	3075
511.867	3302
511.939	4136
512.010	5854
512.082	5429
512.154	2695
512.226	3557
512.298	6143
512.369	5014
512.441	4778
512.513	5178
512.585	2312
512.656	5422
512.728	4346
512.800	3199
512.871	4778
512.943	3773
513.015	2165
513.086	4537
513.158	3868
513.230	2556
513.301	5377
513.373	6335
513.444	3350
513.516	3147
513.588	2961
513.659	4111
513.731	4891
513.802	3521
513.874	10538
513.945	13121
514.016	4101
514.088	3581
514.159	2840
514.231	5408
514.302	5106
514.374	4211
514.445	3190
514.516	9561
514.588	4430
514.659	4569
514.730	6921
514.802	6193
514.873	3402
514.944	5415
515.016	5106
515.087	4540
515.158	5274
515.229	6383
515.301	3864
515.372	5480
515.443	2999
515.514	3268
515.585	2114
515.656	3887
515.728	3741
515.799	2819
515.870	4417
515.941	3829
516.012	3316
516.083	5547
516.154	4491
516.225	6655
516.296	6648
516.367	4389
516.438	4719
516.509	6508
516.580	13437
516.651	38078
516.722	100089
516.793	31319
516.864	8790
516.935	8594
517.006	9452
517.077	14816
517.148	39264
517.219	124266
517.289	129281
517.360	39717
517.431	12462
517.502	5186
517.573	6817
517.643	5464
517.714	5800
517.785	5933
517.856	5195
517.926	7660
517.997	8258
518.068	7990
518.138	14518
518.209	23125
518.280	91103
518.350	241474
518.421	56548
518.492	9927
518.562	7835
518.633	8704
518.703	7822
518.774	20682
518.845	46007
518.915	33427
518.986	10582
519.056	8845
519.127	14416
519.197	20848
519.268	40356
519.338	19004
519.408	7301
519.479	9490
519.549	5987
519.620	6219
519.690	3750
519.760	3801
519.831	4609
519.901	3324
519.971	4471
520.042	4140
520.112	4139
520.182	5248
520.253	5309
520.323	3019
520.393	3191
520.463	6665
520.534	2682
520.604	7600
520.674	5373
520.744	4536
520.814	6619
520.885	8454
520.955	16583
521.025	44628
521.095	12007
521.165	5210
521.235	3740
521.305	2310
521.375	3948
521.445	4628
521.515	4042
521.585	6909
521.655	4589
521.725	5151
521.795	3447
521.865	1302
521.935	6767
522.005	3828
522.075	2699
522.145	3955
522.215	3418
522.285	5724
522.355	7163
522.424	11709
522.494	7897
522.564	6637
522.634	15705
522.704	34565
522.774	9440
522.843	3899
522.913	4098
522.983	4392
523.053	2514
523.122	5345
523.192	6707
523.262	20683
523.331	12358
523.401	4863
523.471	3242
523.540	3445
523.610	2045
523.680	3306
523.749	3708
523.819	3695
523.888	2726
523.958	2519
524.027	3237
524.097	4078
524.166	2782
524.236	2084
524.305	5313
524.375	3026
524.444	2715
524.514	5402
524.583	2853
524.653	2815
524.722	3759
524.791	1481
524.861	4301
524.930	1886
524.999	3371
525.069	4369
525.138	4486
525.207	3884
525.277	4517
525.346	3448
525.415	4056
525.484	3459
525.554	4098
525.623	4266
525.692	4259
525.761	4857
525.830	5473
525.900	6420
525.969	9847
526.038	16769
526.107	35735
526.176	86718
526.245	53003
526.314	22118
526.383	50872
526.452	54719
526.522	109244
526.591	72542
526.660	19930
526.729	9863
526.797	16600
526.867	37250
526.935	134478
527.004	214396
527.073	77728
527.142	8402
527.211	6008
527.280	5713
527.349	5375
527.418	2599
527.487	5080
527.555	2598
527.624	2507
527.693	2323
527.762	4378
527.831	1957
527.899	3094
527.968	2576
528.037	1734
528.106	4854
528.174	6183
528.243	5351
528.312	8110
528.380	6302
528.449	2605
528.518	4136
528.586	1338
528.655	3310
528.723	3106
528.792	1983
528.861	1409
528.929	621
528.998	3625
529.066	3281
529.135	4594
529.203	3381
529.272	3488
529.340	5904
529.409	6645
529.477	4220
529.545	4215
529.614	6922
529.682	5705
529.751	6653
529.819	9128
529.887	7403
529.956	5820
530.024	7348
530.092	5414
530.161	7075
530.229	9386
530.297	6197
530.365	8041
530.434	6929
530.502	6076
530.570	6324
530.638	4253
530.707	5352
530.775	6999
530.843	5560
530.911	5462
530.979	6082
531.047	6117
531.115	6073
531.183	5905
531.252	6674
531.320	5634
531.388	4264
531.456	6441
531.524	4566
531.592	7713
531.660	9093
531.728	6042
531.796	5671
531.864	6882
531.932	7273
532.000	6275
532.067	6795
532.135	7324
532.203	8936
532.271	7961
532.339	12907
532.407	19336
532.475	9875
532.542	8947
532.610	9731
532.678	13103
532.746	40209
532.814	63369
532.881	15931
532.949	7355
533.017	7708
533.084	6279
533.152	6530
533.220	7304
533.287	6580
533.355	6707
533.423	8305
533.490	5912
533.558	6747
533.625	6129
533.693	5455
533.761	7116
533.828	6157
533.896	6158
533.963	10266
534.031	10708
534.098	13049
534.166	7426
534.233	5540
534.300	6980
534.368	6560
534.435	5628
534.503	5797
534.570	7184
534.637	5419
534.705	6888
534.772	8719
534.840	14179
534.907	48577
534.974	40046
535.041	6814
535.109	6140
535.176	4299
535.243	5635
535.310	5242
535.378	4179
535.445	5794
535.512	5147
535.579	5379
535.646	4520
535.714	4236
535.781	5509
535.848	5154
535.915	5660
535.982	4737
536.049	4326
536.116	5669
536.183	4037
536.250	4399
536.317	4266
536.384	5299
536.451	7153
536.518	6131
536.585	3509
536.652	6925
536.719	8479
536.786	4564
536.853	4968
536.920	8507
536.987	10875
537.053	10820
537.120	39632
537.187	22381
537.254	4708
537.321	3826
537.388	4934
537.454	3094
537.521	3804
537.588	4005
537.654	4894
537.721	4401
537.788	4833
537.855	4032
537.921	4354
537.988	2891
538.055	5386
538.121	3112
538.188	4268
538.254	6341
538.321	9881
538.388	5222
538.454	4587
538.521	4646
538.587	4221
538.654	2966
538.720	3548
538.787	3572
538.853	4185
538.920	4426
538.986	3582
539.053	3085
539.119	4118
539.185	3897
539.252	5438
539.318	5482
539.385	6181
539.451	2874
539.517	5438
539.583	6028
539.650	13909
539.716	23821
539.782	6611
539.849	3702
539.915	3620
539.981	3403
540.047	4477
540.114	3861
540.180	6162
540.246	2787
540.312	5747
540.378	9280
540.444	10500
540.510	14310
540.576	28292
540.643	6323
540.709	2929
540.775	3944
540.841	3502
540.907	4720
540.973	6160
541.039	6105
541.105	6275
541.171	3469
541.237	2897
541.303	3931
541.369	6309
541.435	5994
541.500	9287
541.566	3429
541.632	2567
541.698	2804
541.764	3770
541.830	3552
541.896	2473
541.961	3429
542.027	2236
542.093	4005
542.159	3743
542.224	3618
542.290	5615
542.356	7767
542.421	8360
542.487	4695
542.553	2919
542.618	2881
542.684	3230
542.750	2910
542.815	5946
542.881	8471
542.947	29052
543.012	14718
543.078	3027
543.143	2983
543.209	4101
543.274	3063
543.340	5615
543.405	12475
543.471	12632
543.536	4434
543.602	3890
543.667	1972
543.732	4784
543.798	2284
543.863	3052
543.928	3104
543.994	2140
544.059	3079
544.124	2813
544.190	2019
544.255	3809
544.320	3773
544.386	3474
544.451	4660
544.516	6302
544.581	5835
544.646	19669
544.712	21478
544.777	4538
544.842	4746
544.907	4097
544.972	3411
545.037	3457
545.102	4902
545.168	3536
545.233	4708
545.298	5256
545.363	5092
545.428	6272
545.493	12531
545.558	20243
545.623	6537
545.688	3120
545.753	4246
545.818	3867
545.883	4961
545.947	4097
546.012	4435
546.077	2839
546.142	4462
546.207	4363
546.272	6607
546.337	6217
546.401	5465
546.466	5007
546.531	4719
546.596	6541
546.661	6233
546.725	6324
546.790	5468
546.855	6612
546.919	4601
546.984	6357
547.049	7723
547.113	7693
547.178	7583
547.243	9482
547.307	11041
547.372	11959
547.436	11726
547.501	11106
547.565	11723
547.630	11834
547.695	11590
547.759	11363
547.823	11692
547.888	11810
547.952	11388
548.017	11696
548.081	11890
548.146	13941
548.210	14095
548.274	12503
548.339	12021
548.403	12243
548.468	10767
548.532	11186
548.596	10318
548.660	11217
548.725	13096
548.789	13922
548.853	14326
548.917	13245
548.982	12382
549.046	12138
549.110	9784
549.174	9782
549.238	10980
549.303	11718
549.367	13945
549.431	11670
549.495	11364
549.559	11761
549.623	13617
549.687	16855
549.751	18114
549.815	17580
549.879	17446
549.943	17171
550.007	17599
550.071	16618
550.135	17560
550.199	14902
550.263	14269
550.327	14935
550.391	15686
550.455	16246
550.519	16367
550.582	17698
550.646	21418
550.710	22238
550.774	19743
550.838	20198
550.901	19658
550.965	21734
551.029	22785
551.093	25459
551.156	29721
551.220	38557
551.284	40355
551.347	29333
551.411	32685
551.475	28640
551.538	21031
551.602	19493
551.666	17637
551.729	16761
551.793	17968
551.856	17319
551.920	16274
551.983	17404
552.047	15340
552.110	17531
552.174	16361
552.237	17262
552.301	15722
552.364	15669
552.428	14639
552.491	15473
552.554	15475
552.618	16560
552.681	17198
552.745	16926
552.808	21200
552.871	22099
552.934	17516
552.998	16218
553.061	16703
553.124	15774
553.187	16475
553.251	16144
553.314	15953
553.377	17108
553.440	21067
553.503	34387
553.567	35073
553.630	18126
553.693	16845
553.756	16158
553.819	15809
553.882	16155
553.945	15460
554.008	15577
554.071	15211
554.134	16363
554.197	14748
554.260	14167
554.323	17326
554.386	16120
554.449	16122
554.512	16014
554.575	15777
554.638	15757
554.701	14835
554.764	15335
554.827	14681
554.889	13204
554.952	12615
555.015	13103
555.078	13106
555.141	14123
555.203	13307
555.266	13876
555.329	13200
555.391	13368
555.454	12516
555.517	12263
555.580	12313
555.642	12014
555.705	10835
555.768	11628
555.830	11231
555.893	9974
555.955	10051
556.018	11055
556.080	11053
556.143	11406
556.206	11406
556.268	11023
556.330	11416
556.393	10590
556.455	10588
556.518	12256
556.580	11318
556.643	8690
556.705	8849
556.767	9327
556.830	9996
556.892	11127
556.955	12183
557.017	10460
557.079	9336
557.142	9167
557.204	9873
557.266	15587
557.328	12061
557.391	8100
557.453	7167
557.515	9195
557.577	9805
557.639	9788
557.701	8484
557.764	8512
557.826	8587
557.888	9762
557.950	10152
558.012	12106
558.074	17955
558.136	41047
558.198	69802
558.260	19924
558.322	10590
558.384	11408
558.446	13173
558.508	15516
558.570	18097
558.632	28353
558.694	38648
558.756	58025
558.818	166638
558.880	272800
558.942	77033
559.003	75227
559.065	29609
559.127	15041
559.189	16871
559.251	21566
559.312	34372
559.374	85727
559.436	202519
559.498	66859
559.559	15766
559.621	16187
559.683	23133
559.744	41546
559.806	118733
559.868	118736
559.929	22875
559.991	20748
560.052	34300
560.114	78758
560.176	40763
560.237	52464
560.299	59472
560.360	11745
560.422	7791
560.483	7952
560.545	7438
560.606	7001
560.667	6285
560.729	6682
560.790	5955
560.852	7177
560.913	5871
560.974	6326
561.036	6044
561.097	7178
561.158	5890
561.220	7511
561.281	6645
561.342	7207
561.403	9154
561.465	10419
561.526	21433
561.587	20488
561.648	7202
561.709	5612
561.771	6231
561.832	6750
561.893	5005
561.954	6008
562.015	5941
562.076	6854
562.137	6506
562.198	6586
562.259	6301
562.320	6769
562.381	7745
562.442	11097
562.503	7784
562.564	6883
562.625	7113
562.686	6305
562.747	8813
562.808	7958
562.869	6868
562.930	8480
562.991	8355
563.051	7125
563.112	6209
563.173	7086
563.234	5995
563.294	5999
563.355	5771
563.416	6627
563.477	6692
563.537	7699
563.598	6675
563.659	6899
563.720	6351
563.780	7454
563.841	7215
563.901	6390
563.962	6698
564.023	6899
564.083	6622
564.144	7033
564.204	5745
564.265	6437
564.325	8229
564.386	12495
564.446	9855
564.507	7513
564.567	6702
564.628	6798
564.688	6593
564.749	6688
564.809	7715
564.869	7350
564.930	7148
564.990	6861
565.050	7316
565.111	7515
565.171	6428
565.231	7527
565.292	6956
565.352	6306
565.412	6790
565.472	6673
565.532	7396
565.593	6375
565.653	6794
565.713	7766
565.773	8694
565.833	8688
565.893	9749
565.953	6907
566.013	7056
566.074	8138
566.134	10687
566.194	12157
566.254	11242
566.314	9304
566.374	6882
566.434	8141
566.494	8009
566.554	7329
566.614	8723
566.673	8654
566.733	8737
566.793	9363
566.853	9574
566.913	9911
566.973	10509
567.033	11920
567.092	11603
567.152	12278
567.212	10261
567.272	9339
567.331	9786
567.391	10719
567.451	11212
567.511	12559
567.570	12038
567.630	9435
567.690	9953
567.749	10277
567.809	9727
567.868	11515
567.928	11632
567.988	12833
568.047	12754
568.107	16770
568.166	20768
568.226	27368
568.285	33480
568.345	29422
568.404	24938
568.464	22555
568.523	21353
568.582	23478
568.642	26318
568.701	31178
568.761	41501
568.820	53767
568.879	49409
568.939	41831
568.998	31410
569.057	25881
569.116	21808
569.176	19142
569.235	15367
569.294	14964
569.353	13485
569.413	13270
569.472	12997
569.531	11362
569.590	11036
569.649	11530
569.708	11004
569.767	13521
569.827	17533
569.886	12562
569.945	10211
570.004	11723
570.063	9465
570.122	10771
570.181	11469
570.240	11068
570.299	12739
570.358	14306
570.417	10047
570.475	9010
570.534	9870
570.593	10964
570.652	12815
570.711	12075
570.770	8273
570.829	9461
570.887	9888
570.946	10465
571.005	8406
571.064	9443
571.122	9757
571.181	9998
571.240	9262
571.299	8518
571.357	9271
571.416	9454
571.475	9582
571.533	9589
571.592	9734
571.650	9397
571.709	8725
571.768	9731
571.826	9592
571.885	8687
571.943	9341
572.002	9103
572.060	9161
572.119	8110
572.177	8921
572.236	8458
572.294	7645
572.352	9329
572.411	8406
572.469	8742
572.528	9469
572.586	10785
572.644	13937
572.703	18088
572.761	10330
572.819	8910
572.877	7830
572.936	7949
572.994	8076
573.052	8109
573.110	10433
573.169	9444
573.227	7528
573.285	8871
573.343	8538
573.401	8325
573.459	7398
573.517	7647
573.576	8169
573.634	9244
573.692	9682
573.750	8869
573.808	7830
573.866	8605
573.924	10257
573.982	10543
574.040	8183
574.098	8317
574.155	7826
574.213	8231
574.271	8808
574.329	9155
574.387	7772
574.445	8132
574.503	7697
574.560	7948
574.618	7728
574.676	7643
574.734	8003
574.792	7803
574.849	8134
574.907	7494
574.965	7753
575.022	7288
575.080	7450
575.138	7923
575.195	7980
575.253	8847
575.311	8388
575.368	8366
575.426	7667
575.483	8618
575.541	8523
575.598	7099
575.656	8241
575.713	8134
575.771	8192
575.828	8314
575.886	7516
575.943	7958
576.001	8049
576.058	9003
576.115	9135
576.173	9553
576.230	10344
576.287	10864
576.345	10060
576.402	9174
576.459	8294
576.517	9503
576.574	9889
576.631	9586
576.688	8132
576.746	8588
576.803	8589
576.860	7970
576.917	8825
576.974	8465
577.031	8453
577.089	9295
577.146	8980
577.203	9432
577.260	9273
577.317	9507
577.374	10285
577.431	9714
577.488	8039
577.545	8419
577.602	9439
577.659	9408
577.716	9016
577.773	8903
577.830	8411
577.886	9660
577.943	9007
578.000	8989
578.057	8993
578.114	10284
578.171	9277
578.227	11558
578.284	9131
578.341	10768
578.398	10103
578.454	10721
578.511	11102
578.568	10635
578.625	9537
578.681	10383
578.738	8814
578.794	9296
578.851	10711
578.908	10253
578.964	10683
579.021	11294
579.077	9525
579.134	10274
579.190	9648
579.247	10420
579.303	9469
579.360	9659
579.416	8992
579.473	9687
579.529	8671
579.586	10537
579.642	10675
579.698	10390
579.755	10564
579.811	10798
579.867	10202
579.924	10643
579.980	11305
580.036	12695
580.093	13022
580.149	15001
580.205	14749
580.261	13911
580.317	13398
580.374	13049
580.430	13650
580.486	12689
580.542	11913
580.598	12245
580.619	12298
580.654	12405
580.692	12061
580.710	11915
580.765	12251
580.767	12275
580.823	13507
580.838	13082
580.879	12023
580.911	12146
580.935	12254
580.984	12658
580.991	12735
581.047	13745
581.057	13554
581.103	12738
581.130	13502
581.159	14335
581.203	14294
581.215	14308
581.270	13911
581.276	13915
581.326	14039
581.349	14103
581.382	14221
581.422	13672
581.438	13478
581.494	14275
581.494	14255
581.550	13239
581.567	13699
581.606	14796
581.640	14000
581.661	13476
581.713	15257
581.717	15424
581.773	13986
581.786	14303
581.829	15291
581.859	15136
581.885	15070
581.932	15467
581.940	15530
581.996	15589
582.004	15587
582.052	15752
582.077	15389
582.107	14887
582.150	14951
582.163	15030
582.219	15716
582.223	15714
582.274	15630
582.296	15565
582.330	15571
582.368	15690
582.386	15737
582.441	16101
582.441	16108
582.497	16107
582.514	16172
582.552	16377
582.587	16577
582.608	16698
582.659	16567
582.663	16551
582.719	17895
582.732	17602
582.774	16838
582.805	17788
582.830	18597
582.877	18815
582.885	18841
582.941	20340
582.950	20395
582.996	20699
583.023	22110
583.052	23925
583.095	23310
583.107	23021
583.162	22323
583.168	22327
583.218	22343
583.240	21509
583.273	20222
583.313	19832
583.328	19811
583.384	18790
583.385	18758
583.439	17344
583.458	17479
583.494	17955
583.531	17284
583.549	16902
583.603	16975
583.605	16982
583.660	16124
583.676	16626
583.715	17710
583.748	17103
583.770	16778
583.820	17350
583.825	17365
583.881	16771
583.893	16718
583.936	17090
583.965	17096
583.991	16830
584.038	17491
584.046	17592
584.101	16931
584.110	16961
584.156	17414
584.183	17275
584.211	16963
584.255	17373
584.266	17514
584.321	18247
584.328	18224
584.376	18151
584.400	18029
584.431	17566
584.472	17598
584.486	17678
584.541	19482
584.545	19489
584.596	19221
584.617	19022
584.651	19154
584.689	20020
584.706	20137
584.761	19652
584.762	19662
584.816	20039
584.834	19887
584.871	19566
584.906	20322
584.926	20685
584.978	20163
584.980	20136
585.035	21506
585.051	21512
585.090	21816
585.123	22335
585.145	22380
585.195	22366
585.200	22418
585.254	24209
585.267	24498
585.309	25039
585.340	26186
585.364	27200
585.412	28991
585.419	29218
585.473	33475
585.484	34604
585.528	40899
585.556	48073
585.583	58682
585.628	83878
585.637	92003
585.692	168224
585.700	179466
585.747	217231
585.772	177924
585.801	109956
585.845	48475
585.856	40501
585.910	29809
585.917	28888
585.965	26295
585.989	25452
586.019	24725
586.061	24541
586.074	24594
586.128	24391
586.133	24417
586.183	23745
586.205	23473
586.237	23268
586.277	23290
586.292	23233
586.346	23230
586.349	23222
586.401	22929
586.421	23043
586.455	22998
586.493	23431
586.509	24188
586.564	26889
586.565	27068
586.618	34307
586.637	33858
586.672	29990
586.709	26391
586.727	25143
586.781	25622
586.781	25600
586.835	23570
586.853	23366
586.889	22847
586.925	22446
586.944	22495
586.996	22518
586.998	22483
587.052	23260
587.068	23201
587.106	23868
587.140	24487
587.161	24175
587.212	24619
587.215	24678
587.269	25848
587.284	26093
587.323	25795
587.356	25689
587.377	25924
587.427	27334
587.431	27391
587.485	28509
587.499	28775
587.539	29452
587.571	29924
587.593	30128
587.643	31585
587.648	31698
587.702	32644
587.715	33254
587.755	34609
587.786	35184
587.810	35727
587.858	37396
587.864	37483
587.917	39528
587.930	40063
587.971	42688
588.001	44787
588.025	45925
588.073	48792
588.079	49150
588.133	54041
588.145	55203
588.187	58863
588.217	61783
588.241	64644
588.288	71492
588.295	72266
588.348	82632
588.360	84814
588.402	93077
588.431	100559
588.456	107055
588.503	122267
588.510	124563
588.564	148860
588.575	155005
588.617	180045
588.646	200769
588.671	223815
588.718	276015
588.725	286734
588.778	381862
588.789	402960
588.832	521811
588.861	599838
588.886	657047
588.932	734150
588.939	730060
588.993	680996
589.004	679621
589.047	660402
589.075	623520
589.100	546892
589.147	388833
589.154	375356
589.207	288814
589.218	274794
589.261	253552
589.290	247361
589.314	253772
589.361	276036
589.368	284276
589.421	371267
589.433	391983
589.475	515632
589.504	597662
589.528	632057
589.576	662618
589.582	651489
589.635	571999
589.647	546919
589.689	398512
589.718	292310
589.742	245232
589.790	165588
589.795	160391
589.849	124375
589.861	117729
589.902	102005
589.932	90949
589.955	83414
590.004	70222
590.009	69037
590.062	60362
590.075	58518
590.115	54433
590.146	51821
590.168	49679
590.218	45517
590.222	45158
590.275	42685
590.289	42249
590.328	40853
590.360	39695
590.381	38851
590.431	37471
590.435	37228
590.488	34752
590.503	34236
590.541	33964
590.574	33780
590.594	33165
590.645	31924
590.647	31820
590.700	31034
590.716	30923
590.753	29817
590.787	29023
590.806	29092
590.859	29218
590.859	29142
590.912	28345
590.930	28239
590.965	28316
591.001	28507
591.018	28052
591.071	26822
591.072	26870
591.124	27078
591.143	27330
591.177	27264
591.214	27325
591.230	27461
591.283	28054
591.285	28122
591.336	26884
591.356	26526
591.389	26778
591.427	26928
591.442	26441
591.495	24986
591.498	24930
591.547	24954
591.569	25113
591.600	24470
591.640	23433
591.653	23677
591.706	25204
591.711	25421
591.759	25321
591.782	25305
591.811	26055
591.853	27228
591.864	26859
591.917	25213
591.924	25009
591.969	25504
591.995	25952
592.022	25373
592.066	24471
592.075	24768
592.127	26992
592.137	27452
592.180	27311
592.208	27221
592.233	26496
592.279	25276
592.285	25180
592.338	24815
592.350	24775
592.390	24339
592.421	24127
592.443	24242
592.491	24620
592.495	24635
592.548	25495
592.562	25778
592.600	25310
592.633	24988
592.653	24665
592.704	23823
592.705	23972
592.775	24735
592.846	25203
592.916	25157
592.987	26196
593.058	26112
593.128	26004
593.199	25655
593.270	25669
593.341	26378
593.411	26890
593.482	26549
593.553	28092
593.623	27085
593.694	27060
593.764	28071
593.835	27045
593.906	26709
593.976	27785
594.047	27385
594.117	30374
594.188	28362
594.258	27796
594.329	26388
594.399	27708
594.470	27797
594.540	29187
594.611	28400
594.681	28545
594.751	27736
594.822	30791
594.892	29297
594.963	30843
595.033	30665
595.103	32470
595.174	31336
595.244	37659
595.314	39158
595.384	33306
595.455	33448
595.525	36126
595.595	35945
595.665	36807
595.736	34954
595.806	35677
595.876	36083
595.946	36696
596.016	36940
596.087	37957
596.157	38951
596.227	38964
596.297	39354
596.367	43013
596.437	45089
596.507	48187
596.577	49369
596.647	46551
596.717	46124
596.787	47978
596.857	46813
596.927	48696
596.997	48214
597.067	49114
597.137	51664
597.207	56485
597.277	53053
597.347	51190
597.417	48761
597.487	50844
597.557	49244
597.626	51032
597.696	52576
597.766	53104
597.836	53890
597.906	49472
597.975	46436
598.045	47681
598.115	50017
598.185	52430
598.254	56794
598.324	61579
598.394	61917
598.464	60784
598.533	59555
598.603	56439
598.672	56969
598.742	60137
598.812	58862
598.881	61420
598.951	59197
599.020	61069
599.090	62081
599.159	64047
599.229	60353
599.299	60648
599.368	62329
599.437	63480
599.507	59045
599.576	59551
599.646	59118
599.715	61144
599.785	58432
599.854	59342
599.924	59558
599.993	60288
600.062	59491
600.132	61364
600.201	64202
600.270	72578
600.340	76138
600.409	75049
600.478	74207
600.547	77659
600.617	71044
600.686	64000
600.755	60525
600.824	61345
600.894	60563
600.963	63007
601.032	62316
601.101	62590
601.170	61883
601.239	63181
601.308	64118
601.378	64650
601.447	65553
601.516	67114
601.585	68992
601.654	70884
601.723	71587
601.792	72785
601.861	74831
601.930	80455
601.999	83776
602.068	81863
602.137	81784
602.206	84013
602.275	83461
602.343	84825
602.412	85628
602.481	85110
602.550	84718
602.619	87127
602.688	85879
602.756	87799
602.825	86395
602.894	90405
602.963	87845
603.032	91414
603.100	89669
603.169	88701
603.238	91712
603.307	88839
603.375	89480
603.444	93134
603.513	86986
603.581	92246
603.650	99034
603.719	81931
603.787	78755
603.856	81453
603.924	82272
603.993	85015
604.061	85462
604.130	89175
604.198	91286
604.267	93041
604.335	94241
604.404	96386
604.472	98125
604.541	96341
604.609	100423
604.678	103880
604.746	104331
604.815	110190
604.883	105592
604.951	105446
605.020	105970
605.088	99708
605.156	96203
605.225	95911
605.293	95972
605.361	98877
605.429	96530
605.498	99184
605.566	98460
605.634	104983
605.702	101942
605.771	104899
605.839	106583
605.907	100762
605.975	103701
606.043	97092
606.111	95872
606.180	104621
606.248	96303
606.316	94379
606.384	102503
606.452	87011
606.520	78297
606.588	77612
606.656	75844
606.724	73663
606.792	69989
606.860	64382
606.928	58770
606.996	57676
607.064	55454
607.132	57303
607.200	62161
607.267	63495
607.335	64123
607.403	66254
607.471	62601
607.539	63841
607.607	62487
607.674	54548
607.742	55126
607.810	54155
607.878	54567
607.946	55992
608.013	58727
608.081	60781
608.149	60612
608.216	59980
608.284	63326
608.352	61898
608.419	60636
608.487	63607
608.555	59791
608.622	61593
608.690	63536
608.757	70109
608.825	69583
608.893	70025
608.960	68875
609.028	67882
609.095	66232
609.163	62421
609.230	55256
609.298	51848
609.365	51908
609.432	57666
609.500	62663
609.567	71342
609.635	81565
609.702	86221
609.769	81008
609.837	65246
609.904	55011
609.971	56033
610.039	62612
610.106	81491
610.173	145942
610.241	316552
610.308	161997
610.375	67419
610.442	57501
610.509	56705
610.577	56892
610.644	57870
610.711	58539
610.778	61324
610.845	63374
610.912	69008
610.980	71232
611.047	73416
611.114	70282
611.181	67780
611.248	64823
611.315	70753
611.382	70003
611.449	74191
611.516	76143
611.583	74078
611.650	74304
611.717	76064
611.784	75949
611.851	80709
611.918	85868
611.984	99344
612.051	137070
612.118	264293
612.185	599641
612.252	348194
612.319	111175
612.386	97749
612.452	87543
612.519	87170
612.586	88057
612.653	86190
612.719	86494
612.786	85055
612.853	76948
612.919	76520
612.986	77295
613.053	73015
613.120	69138
613.186	70425
613.253	71768
613.319	69277
613.386	68515
613.453	70217
613.519	72302
613.586	72287
613.652	75378
613.719	72712
613.785	71665
613.852	70592
613.918	68690
613.985	72083
614.051	76025
614.118	83199
614.184	78047
614.250	70460
614.317	69321
614.383	71330
614.449	70313
614.516	71117
614.582	70691
614.648	71098
614.715	70052
614.781	69917
614.847	71245
614.914	71203
614.980	67896
615.046	68720
615.112	69210
615.179	69628
615.245	70331
615.311	72510
615.377	76059
615.443	76922
615.509	73222
615.575	74851
615.642	72021
615.708	74613
615.774	78777
615.840	84343
615.906	89630
615.972	110396
616.038	163264
616.104	320257
616.170	697294
616.236	535152
616.302	152894
616.368	120029
616.434	90408
616.500	89723
616.565	95204
616.631	112180
616.697	93904
616.763	99334
616.829	142706
616.895	234733
616.961	208701
617.026	99300
617.092	76986
617.158	76437
617.224	73947
617.289	69870
617.355	67394
617.421	67109
617.487	67886
617.552	65751
617.618	63861
617.684	63116
617.749	67392
617.815	62069
617.880	62549
617.946	62333
618.012	62752
618.077	64368
618.143	60444
618.208	63186
618.274	67367
618.339	67643
618.405	54126
618.470	56092
618.536	55444
618.601	55366
618.667	50766
618.732	50804
618.798	49998
618.863	50840
618.928	48779
618.994	52225
619.059	52639
619.124	57108
619.190	52126
619.255	48418
619.320	48162
619.386	48559
619.451	46414
619.516	47159
619.581	46988
619.647	48444
619.712	47192
619.777	47435
619.842	48687
619.907	51573
619.972	49914
620.038	50464
620.103	49227
620.168	48660
620.233	49423
620.298	49860
620.363	51674
620.428	52405
620.493	54456
620.558	54097
620.623	53928
620.688	53563
620.753	52085
620.818	54099
620.883	53167
620.948	52555
621.013	51488
621.078	51214
621.143	49094
621.207	51777
621.272	48906
621.337	49787
621.402	49160
621.467	51813
621.532	50503
621.596	52492
621.661	48432
621.726	47875
621.791	48657
621.855	49922
621.920	48819
621.985	48899
622.049	50342
622.114	50377
622.179	49519
622.243	51793
622.308	51257
622.373	56770
622.437	53458
622.502	50443
622.566	49196
622.631	49289
622.695	50667
622.760	51041
622.824	49192
622.889	51425
622.953	51427
623.018	59238
623.082	58614
623.147	53504
623.211	51004
623.276	52560
623.340	49461
623.404	48756
623.469	47619
623.533	49810
623.597	46439
623.662	47911
623.726	44429
623.790	42031
623.854	42734
623.919	43604
623.983	42963
624.047	43195
624.111	44327
624.176	45705
624.240	47544
624.304	50830
624.368	44185
624.432	45246
624.496	44330
624.560	47345
624.625	47541
624.689	46960
624.753	47670
624.817	46508
624.881	44698
624.945	40957
625.009	40324
625.073	42260
625.137	43654
625.201	46944
625.265	45028
625.329	42525
625.393	43267
625.456	42723
625.520	43794
625.584	45532
625.648	48060
625.712	54787
625.776	71759
625.839	74268
625.903	44393
625.967	36778
626.031	46104
626.095	58068
626.158	41844
626.222	32675
626.286	30721
626.349	29711
626.413	27785
626.477	29506
626.540	27912
626.604	29168
626.668	28309
626.731	27825
626.795	28230
626.858	28931
626.922	26020
626.986	27477
627.049	25552
627.113	28633
627.176	27094
627.240	26982
627.303	25229
627.366	26249
627.430	27855
627.493	26997
627.557	25375
627.620	28767
627.684	26102
627.747	27851
627.810	22285
627.874	23939
627.937	21570
628.000	26151
628.064	23024
628.127	20421
628.190	22061
628.253	20700
628.317	19300
628.380	20177
628.443	18966
628.506	20285
628.569	17970
628.632	16670
628.696	17801
628.759	16949
628.822	16508
628.885	16526
628.948	15373
629.011	16258
629.074	14684
629.137	15636
629.200	14703
629.263	17615
629.326	13990
629.389	14402
629.452	14052
629.515	15497
629.578	14865
629.641	16918
629.704	14916
629.767	15156
629.830	13937
629.892	14319
629.955	12806
630.018	16290
630.081	14011
630.144	16379
630.207	13479
630.269	15523
630.332	14129
630.395	13146
630.458	13545
630.520	14507
630.583	14974
630.646	15025
630.708	12141
630.771	12797
630.834	13632
630.896	13631
630.959	13200
631.021	12774
631.084	12336
631.146	13597
631.209	13576
631.272	13733
631.334	12833
631.397	13441
631.459	12887
631.522	14793
631.584	13140
631.646	15708
631.709	14641
631.771	15267
631.834	14395
631.896	13542
631.958	12281
632.021	13770
632.083	11949
632.145	13485
632.208	12194
632.270	13486
632.332	11150
632.395	12718
632.457	13130
632.519	12407
632.581	13025
632.643	11549
632.706	12047
632.768	11707
632.830	11801
632.892	12326
632.954	10522
633.016	13453
633.078	10995
633.141	12261
633.203	11560
633.265	12367
633.327	11637
633.389	11259
633.451	12620
633.513	13152
633.575	13315
633.637	12703
633.698	10672
633.760	13624
633.822	12531
633.884	13127
633.946	12614
634.008	13087
634.070	12609
634.132	15098
634.193	14069
634.255	15923
634.317	13910
634.379	16252
634.441	13408
634.502	12089
634.564	12648
634.626	12406
634.687	10975
634.749	11271
634.811	11684
634.873	10763
634.934	10907
634.996	12797
635.057	10001
635.119	10677
635.181	11057
635.242	12053
635.304	8721
635.365	13906
635.427	10013
635.488	10390
635.550	9515
635.611	12086
635.673	9435
635.734	13059
635.796	10794
635.857	14105
635.918	11375
635.980	15130
636.041	13421
636.102	15945
636.164	14103
636.225	15614
636.286	11227
636.348	13673
636.409	10973
636.470	10020
636.531	11335
636.593	10820
636.654	10683
636.715	10095
636.776	8653
636.838	9307
636.899	10310
636.960	9553
637.021	8260
637.082	9588
637.143	9121
637.204	8648
637.265	9133
637.326	9818
637.387	8999
637.448	7324
637.509	8872
637.570	9509
637.631	9677
637.692	8552
637.753	6776
637.814	8913
637.875	7631
637.936	9951
637.997	7610
638.058	8480
638.119	9148
638.179	8328
638.240	7360
638.301	9362
638.362	7382
638.423	8796
638.483	9315
638.544	6692
638.605	8686
638.666	7461
638.726	7818
638.787	9291
638.848	7273
638.908	7558
638.969	7538
639.030	7908
639.090	6078
639.151	7766
639.211	8028
639.272	9457
639.332	11260
639.393	9545
639.453	7500
639.514	9062
639.574	7055
639.635	6842
639.695	7705
639.756	6550
639.816	8484
639.877	8364
639.937	10441
639.997	12426
640.058	6091
640.118	6167
640.178	6921
640.239	8166
640.299	6818
640.359	6907
640.420	7239
640.480	8730
640.540	7145
640.600	7883
640.661	8517
640.721	6561
640.781	9028
640.841	6310
640.901	7943
640.961	7230
641.021	7718
641.082	7459
641.142	9535
641.202	8761
641.262	5272
641.322	7212
641.382	4560
641.442	8060
641.502	6070
641.562	7151
641.622	6596
641.682	7814
641.742	6518
641.802	7298
641.861	7551
641.921	6858
641.981	7658
642.041	7728
642.101	7254
642.161	5237
642.221	5333
642.280	6684
642.340	5825
642.400	5198
642.460	7188
642.519	6961
642.579	5804
642.639	7263
642.698	3492
642.758	8212
642.818	6799
642.877	6397
642.937	6515
642.997	8308
643.056	8422
643.116	5812
643.175	7804
643.235	7326
643.294	6177
643.354	8177
643.414	8411
643.473	12195
643.532	10630
643.592	13190
643.651	21205
643.711	39877
643.770	79363
643.830	192690
643.889	370003
643.948	80275
644.008	16806
644.067	11418
644.126	7675
644.186	8015
644.245	7666
644.304	6075
644.363	7454
644.423	5339
644.482	5929
644.541	7150
644.600	4782
644.659	8925
644.719	7928
644.778	14782
644.837	24640
644.896	52799
644.955	115381
645.014	32187
645.073	10496
645.132	7441
645.191	7155
645.250	6708
645.309	8019
645.368	6993
645.427	8929
645.486	14331
645.545	23559
645.604	7632
645.663	5502
645.722	6509
645.781	7093
645.840	8400
645.898	9252
645.957	13356
646.016	19515
646.075	38472
646.134	74388
646.192	205643
646.251	268652
646.310	36215
646.369	11880
646.427	10834
646.486	7541
646.545	6350
646.603	6493
646.662	6506
646.721	5266
646.779	5062
646.838	4213
646.896	7835
646.955	9462
647.014	15942
647.072	28610
647.131	76108
647.189	30798
647.248	6717
647.306	5548
647.365	5940
647.423	2629
647.481	6754
647.540	2999
647.598	4337
647.657	3606
647.715	5034
647.773	2891
647.832	6248
647.890	2960
647.948	3871
648.007	4663
648.065	2695
648.123	3578
648.181	5259
648.240	4453
648.298	3889
648.356	3566
648.414	4358
648.472	4783
648.531	4851
648.589	2997
648.647	4382
648.705	3017
648.763	4070
648.821	3790
648.879	3602
648.937	4159
648.995	5805
649.053	5393
649.111	10542
649.169	16729
649.227	32486
649.285	67396
649.343	186393
649.401	76966
649.459	17198
649.516	9905
649.574	6303
649.632	10512
649.690	11947
649.748	8747
649.806	11633
649.863	22142
649.921	54141
649.979	29141
650.037	6513
650.094	1973
650.152	4545
650.210	2554
650.268	3651
650.325	2868
650.383	3741
650.440	1449
650.498	3689
650.556	2785
650.613	2394
650.671	3115
650.728	2578
650.786	2513
650.843	3943
650.901	835
650.958	2666
651.016	2071
651.073	3595
651.131	2118
651.188	1798
651.246	2307
651.303	2497
651.360	3053
651.418	3058
651.475	2326
651.532	1584
651.590	2082
651.647	1545
651.704	1427
651.762	2105
651.819	2319
651.876	1739
651.933	1993
651.990	3165
652.048	812
652.105	1626
652.162	2210
652.219	2255
652.276	2861
652.333	2932
652.390	1313
652.448	2253
652.505	1495
652.562	1935
652.619	1916
652.676	3519
652.733	3784
652.790	2205
652.847	735
652.904	2643
652.961	88
653.017	2547
653.074	2177
653.131	2590
653.188	533
653.245	1772
653.302	1514
653.359	1417
653.415	1358
653.472	1825
653.529	2484
653.586	1234
653.642	675
653.699	2238
653.756	1272
653.813	1468
653.869	1954
653.926	1714
653.983	1144
654.039	2061
654.096	1521
654.152	3521
654.209	710
654.266	2412
654.322	1973
654.379	2272
654.435	2371
654.492	2253
654.548	2957
654.605	4968
654.661	2455
654.717	1511
654.774	1808
654.830	1739
654.887	1689
654.943	1690
655.000	2535
655.056	2517
655.112	2317
655.168	1300
655.225	1351
655.281	2989
655.337	1856
655.394	3615
655.450	2548
655.506	2813
655.562	3533
655.618	4244
655.675	-28
655.731	1466
655.787	1284
655.843	2797
655.899	977
655.955	2166
656.011	1133
656.067	429
656.123	1433
656.179	1868
656.235	2244
656.291	218
656.347	2698
656.403	1659
656.459	999
656.515	2160
656.571	1913
656.627	2166
656.683	2596
656.739	2409
656.795	1305
656.850	2398
656.906	1626
656.962	2009
657.018	795
657.074	2541
657.129	2208
657.185	4178
657.241	7751
657.297	4018
657.352	1804
657.408	2373
657.464	1576
657.519	1049
657.575	861
657.630	1141
657.686	826
657.742	1580
657.797	1033
657.853	1549
657.908	2327
657.964	918
658.019	752
658.075	1758
658.130	1540
658.186	1576
658.241	886
658.297	421
658.352	878
658.407	1865
658.463	179
658.518	2170
658.573	1735
658.629	720
658.684	1129
658.739	2665
658.795	315
658.850	2109
658.905	402
658.960	1735
659.016	651
659.071	1437
659.126	1638
659.181	1277
659.236	3852
659.291	3555
659.346	1531
659.401	2778
659.457	1455
659.512	1983
659.567	1943
659.622	763
659.677	693
659.732	346
659.787	1233
659.842	883
659.897	774
659.952	1208
660.007	-216
660.061	1984
660.116	1156
660.171	1590
660.226	1007
660.281	2527
660.336	504
660.391	1778
660.445	468
660.500	2181
660.555	-15
660.610	864
660.664	1389
660.719	1344
660.774	764
660.828	1626
660.883	849
660.938	2493
660.992	261
661.047	424
661.101	47
661.156	1195
661.211	304
661.265	1540
661.320	615
661.374	1088
661.429	112
661.483	1927
661.538	271
661.592	1657
661.647	794
661.701	2071
661.755	1274
661.810	942
661.864	645
661.919	571
661.973	1167
662.027	1165
662.081	444
662.136	721
662.190	836
662.244	1179
662.299	31
662.353	1358
662.407	679
662.461	931
662.515	755
662.569	1002
662.624	1361
662.678	1560
662.732	372
662.786	1313
662.840	1720
662.894	1338
662.948	344
663.002	1702
663.056	1175
663.110	893
663.164	286
663.218	1130
663.272	794
663.326	1186
663.380	740
663.434	1521
663.488	-21
663.542	1438
663.595	399
663.649	1212
663.703	1744
663.757	1449
663.811	41
663.864	1021
663.918	859
663.972	1274
664.026	555
664.079	870
664.133	1170
664.187	668
664.240	32
664.294	1917
664.348	1385
664.401	1757
664.455	616
664.508	1348
664.562	679
664.615	1335
664.669	6
664.722	1258
664.776	973
664.829	1635
664.883	-287
664.936	1146
664.990	1334
665.043	1635
665.097	173
665.150	1977
665.203	1151
665.257	423
665.310	615
665.363	1981
665.417	1319
665.470	1255
665.523	1300
665.576	1167
665.630	734
665.683	1119
665.736	611
665.789	1323
665.842	59
665.895	1505
665.949	1231
666.002	857
666.055	590
666.108	2429
666.161	1322
666.214	1480
666.267	1312
666.320	2251
666.373	1911
666.426	1138
666.479	525
666.532	1166
666.585	793
666.638	2388
666.691	1358
666.744	2754
666.796	1166
666.849	1449
666.902	1329
666.955	1367
667.008	1051
667.060	1352
667.113	29
667.166	1240
667.219	644
667.271	1420
667.324	922
667.377	2160
667.430	998
667.482	2189
667.535	578
667.587	1256
667.640	1021
667.693	2039
667.745	2252
667.798	3479
667.850	1439
667.903	583
667.955	327
668.008	1017
668.060	968
668.113	1621
668.165	809
668.218	1295
668.270	535
668.322	1745
668.375	119
668.427	2047
668.479	243
668.532	1760
668.584	1503
668.636	1949
668.689	1049
668.741	2080
668.793	615
668.845	1285
668.898	93
668.950	1350
669.002	727
669.054	1539
669.106	-81
669.158	1974
669.211	730
669.263	860
669.315	1373
669.367	2187
669.419	1047
669.471	1772
669.523	781
669.575	1660
669.627	1221
669.679	1259
669.731	1033
669.783	760
669.835	668
669.886	1525
669.938	1263
669.990	1128
670.042	338
670.094	1871
670.146	289
670.197	576
670.249	546
670.301	921
670.353	384
670.404	1911
670.456	774
670.508	2737
670.560	3678
670.611	7435
670.663	10459
670.715	28865
670.766	37146
670.818	8594
670.869	1234
670.921	2943
670.972	1358
671.024	1690
671.075	330
671.127	1494
671.178	44
671.230	1034
671.281	896
671.333	1600
671.384	1484
671.436	2122
671.487	2627
671.538	3939
671.590	5612
671.641	10659
671.692	18240
671.744	34159
671.795	16279
671.846	6241
671.897	2904
671.949	2567
672.000	1418
672.051	1803
672.102	1735
672.153	872
672.204	-156
672.256	1402
672.307	279
672.358	2324
672.409	619
672.460	1730
672.511	-93
672.562	994
672.613	-34
672.664	143
672.715	1065
672.766	1662
672.817	344
672.868	1401
672.919	621
672.970	549
673.021	626
673.071	516
673.122	70
673.173	709
673.224	31
673.275	694
673.326	390
673.376	681
673.427	106
673.478	1076
673.528	1092
673.579	-127
673.630	18
673.680	1503
673.731	-5
673.782	624
673.832	-158
673.883	810
673.934	-104
673.984	516
674.035	964
674.085	939
674.136	794
674.186	1509
674.237	114
674.287	1941
674.338	-66
674.388	854
674.438	-12
674.489	798
674.539	761
674.589	1028
674.640	726
674.690	629
674.740	191
674.791	1311
674.841	47
674.891	988
674.942	136
674.992	443
675.042	-465
675.092	696
675.142	-437
675.193	233
675.243	455
675.293	127
675.343	-54
675.393	991
675.443	604
675.493	666
675.543	280
675.593	1216
675.643	28
675.693	1280
675.743	551
675.793	1054
675.843	40
675.893	363
675.943	257
675.993	191
676.043	-262
676.093	348
676.142	-36
676.192	284
676.242	69
676.292	-124
676.341	-538
676.391	270
676.441	346
676.491	-138
676.540	-758
676.590	392
676.640	246
676.689	270
676.739	-1095
676.789	634
676.838	122
676.888	536
676.937	-1081
676.987	692
677.037	-70
677.086	25
677.136	-494
677.185	125
677.235	-1196
677.284	510
677.333	-820
677.383	-388
677.432	-1457
677.482	1075
677.531	-67
677.580	-444
677.630	-387
677.679	248
677.728	-159
677.778	718
677.827	416
677.876	522
677.925	-687
677.975	605
678.024	134
678.073	592
678.122	-1003
678.171	1024
678.220	-525
678.269	947
678.319	288
678.368	-38
678.417	-302
678.466	346
678.515	68
678.564	317
678.613	-616
678.662	-583
678.711	-665
678.760	581
678.809	-628
678.857	-191
678.906	-727
678.955	373
679.004	214
679.053	-509
679.102	-277
679.151	63
679.199	-243
679.248	340
679.297	-434
679.346	462
679.394	-897
679.443	-405
679.492	-896
679.540	762
679.589	-593
679.638	403
679.686	-471
679.735	889
679.784	-563
679.832	1151
679.881	-950
679.929	176
679.978	-1493
680.026	53
680.075	-346
680.123	374
680.172	-1277
680.220	215
680.268	-373
680.317	35
680.365	-1164
680.414	-419
680.462	-440
680.510	-291
680.559	-479
680.607	-191
680.655	-339
680.703	235
680.752	-410
680.800	752
680.848	-741
680.896	-114
680.945	-1048
680.993	-641
681.041	-603
681.089	781
681.137	-805
681.185	37
681.233	-1331
681.258	-516
681.281	195
681.329	75
681.377	-73
681.380	22
681.425	603
681.473	764
681.502	144
681.521	-393
681.569	669
681.617	-28
681.624	157
681.665	878
681.713	904
681.745	1311
681.761	1422
681.809	769
681.857	1550
681.867	1351
681.904	377
681.952	1356
681.989	1513
682.000	1491
682.048	1727
682.096	1361
682.111	1916
682.143	2918
682.191	1771
682.233	2564
682.239	2621
682.286	1512
682.334	2844
682.354	2301
682.382	1440
682.430	3396
682.476	2318
682.477	2242
682.525	3325
682.572	1800
682.598	2349
682.620	2736
682.667	2969
682.715	4154
682.720	4081
682.763	2871
682.810	4576
682.841	3988
682.857	3587
682.905	4157
682.952	4526
682.963	4708
683.000	5099
683.047	4358
683.085	4999
683.095	5147
683.142	4159
683.190	5185
683.206	4895
683.237	4178
683.284	5359
683.328	4611
683.332	4504
683.379	5238
683.426	4772
683.449	5636
683.473	6431
683.521	5153
683.568	5166
683.571	5233
683.615	5559
683.662	6776
683.693	5773
683.709	5138
683.757	6182
683.804	6642
683.814	6623
683.851	6471
683.898	6088
683.936	6841
683.945	6974
683.992	6406
684.039	6825
684.057	6838
684.086	6807
684.133	7417
684.179	7113
684.180	7060
684.227	7947
684.274	7731
684.300	8184
684.321	8467
684.368	7516
684.415	8447
684.422	8350
684.462	7549
684.509	8269
684.543	7984
684.556	7866
684.603	8537
684.649	7682
684.665	7902
684.696	8271
684.743	8299
684.786	9052
684.790	9102
684.837	8475
684.883	9594
684.908	9467
684.930	9250
684.977	10312
685.023	10188
685.029	10170
685.070	9595
685.117	9225
685.150	9709
685.164	9957
685.210	9673
685.257	11200
685.272	11332
685.303	11395
685.350	11343
685.393	10622
685.396	10562
685.443	12043
685.490	11892
685.514	12148
685.536	12031
685.583	11623
685.629	12404
685.636	12224
685.675	11218
685.722	11620
685.757	11698
685.768	11749
685.815	12150
685.861	12014
685.878	12489
685.908	13164
685.954	12138
686.000	12462
686.000	12466
686.047	13104
686.093	14605
686.121	14967
686.139	14600
686.185	14247
686.232	12915
686.242	12980
686.278	13483
686.324	13187
686.363	13023
686.370	13007
686.416	12872
686.463	13533
686.484	13255
686.509	12952
686.555	12965
686.601	12631
686.606	12732
686.647	13513
686.693	13036
686.727	12935
686.739	12945
686.785	13102
686.831	13508
686.848	13480
686.877	13254
686.923	13701
686.969	13399
686.969	13397
687.015	13648
687.061	13977
687.090	14188
687.107	14148
687.153	14727
687.199	14508
687.211	14256
687.245	13927
687.291	14510
687.332	14724
687.336	14723
687.382	15271
687.428	14059
687.453	14617
687.474	14969
687.520	14869
687.565	14900
687.574	14715
687.611	14263
687.657	14934
687.695	15153
687.702	15215
687.748	15553
687.794	15587
687.816	15922
687.839	16004
687.885	15234
687.931	15528
687.937	15400
687.976	15117
688.022	16072
688.058	16001
688.067	15933
688.113	16169
688.158	15025
688.179	15542
688.204	16290
688.249	16078
688.295	16253
688.300	16139
688.340	15677
688.386	17785
688.421	17651
688.431	17514
688.477	17173
688.522	17196
688.542	17346
688.567	17675
688.613	17612
688.658	17779
688.663	17707
688.703	17132
688.749	17537
688.784	17575
688.794	17570
688.839	17107
688.884	17065
688.905	17042
688.930	17249
688.975	17098
689.020	17638
689.026	17632
689.065	17630
689.110	17920
689.146	17413
689.155	17302
689.201	17805
689.246	17502
689.267	17584
689.291	17750
689.336	17769
689.381	18096
689.388	17983
689.426	17489
689.471	17973
689.509	17815
689.516	17779
689.561	18029
689.606	17298
689.630	17371
689.651	17711
689.696	17358
689.741	18111
689.750	18111
689.785	18122
689.830	18710
689.871	18773
689.875	18761
689.920	18719
689.965	17756
689.992	17944
690.010	18284
690.054	17969
690.099	18467
690.112	18379
690.144	18251
690.189	18534
690.233	18274
690.233	18300
690.278	18705
690.323	18641
690.354	18565
690.367	18691
690.412	19242
690.457	19747
690.474	19819
690.501	19561
690.546	19480
690.590	19249
690.595	19171
690.635	19488
690.680	19429
690.716	20112
690.724	20424
690.769	21356
690.813	22673
690.836	22818
690.857	23813
690.902	27231
690.946	29395
690.957	30150
690.991	36661
691.035	44832
691.077	52178
691.080	52186
691.124	50332
691.168	49207
691.198	47686
691.213	45245
691.257	38668
691.301	31357
691.318	28749
691.346	27709
691.390	24642
691.434	23381
691.439	23025
691.478	22407
691.522	22518
691.559	22145
691.567	22194
691.611	23174
691.655	23059
691.680	23258
691.699	23174
691.743	22723
691.787	22666
691.800	22386
691.831	22266
691.875	22501
691.919	22417
691.921	22396
691.964	23170
692.008	22897
692.041	23313
692.052	23468
692.096	22997
692.139	23514
692.162	23319
692.183	22980
692.227	22787
692.271	22073
692.282	22008
692.315	22398
692.359	22445
692.402	22671
692.403	22718
692.447	22463
692.490	23057
692.523	22720
692.534	22702
692.578	23302
692.622	23191
692.643	23420
692.666	23470
692.709	22870
692.753	22679
692.763	22477
692.797	22331
692.840	22738
692.884	22448
692.884	22498
692.928	23309
692.971	23490
693.004	24207
693.015	24418
693.059	24103
693.102	24410
693.124	24370
693.146	24499
693.189	24864
693.233	24945
693.245	25006
693.276	25710
693.320	26380
693.363	27193
693.365	27154
693.407	27688
693.450	28375
693.485	28852
693.493	29395
693.537	32152
693.580	34204
693.605	35672
693.624	38412
693.667	44480
693.710	50972
693.725	52970
693.753	65342
693.797	85069
693.840	104340
693.845	106474
693.883	100727
693.926	93739
693.966	87712
693.970	86322
694.013	69609
694.056	53340
694.086	41523
694.099	40365
694.142	36747
694.185	32840
694.206	31050
694.229	30759
694.272	29858
694.315	29232
694.326	28935
694.358	29037
694.401	29362
694.444	29228
694.446	29169
694.487	29061
694.530	28711
694.566	28576
694.573	28444
694.616	26694
694.659	25566
694.686	24406
694.702	24391
694.745	24549
694.787	24538
694.806	24517
694.830	24680
694.873	24807
694.916	25140
694.926	25035
694.959	24839
695.002	25056
695.044	24915
695.046	24863
695.087	25476
695.130	25554
695.166	25952
695.172	26028
695.215	25734
695.258	25488
695.286	25329
695.301	25389
695.343	25537
695.386	25431
695.406	25412
695.428	25498
695.471	25244
695.514	25370
695.526	25269
695.556	25751
695.599	26655
695.641	27179
695.646	27178
695.684	26989
695.726	26660
695.766	26449
695.769	26518
695.811	26272
695.854	26463
695.886	26233
695.896	26183
695.938	25832
695.981	25462
696.005	25216
696.023	25581
696.065	26198
696.108	27079
696.125	27228
696.150	27363
696.192	27697
696.235	27896
696.245	27945
696.277	28049
696.319	27704
696.361	27476
696.365	27386
696.404	27595
696.446	27825
696.485	27925
696.488	28018
696.530	28306
696.572	28445
696.604	28565
696.614	28534
696.656	28044
696.698	27706
696.724	27260
696.740	27299
696.783	27455
696.825	27439
696.844	27423
696.867	27740
696.909	28046
696.951	28393
696.964	28451
696.992	28413
697.034	28170
697.076	27910
697.083	27801
697.118	28231
697.160	28683
697.202	29141
697.203	29075
697.244	28305
697.286	27358
697.323	26468
697.327	26599
697.369	27210
697.411	27802
697.442	28161
697.453	28319
697.494	28495
697.536	28997
697.562	29064
697.578	29153
697.620	29309
697.661	29361
697.682	29366
697.703	29904
697.744	30653
697.786	31658
697.801	31844
697.828	31950
697.869	32133
697.911	32160
697.921	32124
697.952	31342
697.994	30044
698.035	28858
698.040	28626
698.077	28597
698.118	28504
698.160	28344
698.160	28263
698.201	28696
698.243	28919
698.279	29126
698.284	29245
698.325	29512
698.367	29903
698.399	30047
698.408	29995
698.449	29434
698.491	28813
698.518	28337
698.532	28558
698.573	28983
698.614	29432
698.638	29588
698.656	29828
698.697	30219
698.738	30574
698.757	30671
698.779	30724
698.820	30646
698.862	30575
698.877	30459
698.903	30982
698.944	31700
698.985	32399
698.996	32507
699.026	32412
699.067	32155
699.116	31762
699.235	30053
699.354	30400
699.474	30077
699.593	31840
699.713	31068
699.832	30094
699.951	30696
700.070	29703
700.190	28804
700.309	28685
700.428	29830
700.547	29528
700.667	28291
700.786	31297
700.905	27379
701.024	29456
701.143	28152
701.262	27859
701.381	27618
701.500	29067
701.619	30458
701.738	27127
701.857	26702
701.976	26922
702.095	25405
702.214	28955
702.333	28966
702.452	28257
702.571	27008
702.690	27341
702.809	24790
702.928	26389
703.047	26031
703.165	25810
703.284	25336
703.403	25743
703.522	27603
703.640	26701
703.759	29307
703.878	35056
703.997	26002
704.115	25139
704.234	24167
704.353	24565
704.471	22933
704.590	22822
704.708	23230
704.827	22915
704.946	23656
705.064	24774
705.183	24285
705.301	28257
705.420	36019
705.538	33341
705.656	28712
705.775	29784
705.893	43923
706.012	51630
706.130	29677
706.249	29259
706.367	28662
706.485	30387
706.604	29321
706.722	29540
706.840	33717
706.958	32033
707.077	28146
707.195	27231
707.313	26759
707.431	26640
707.549	26378
707.668	25500
707.786	27230
707.904	26321
708.022	25049
708.140	24870
708.258	24731
708.376	26449
708.494	24930
708.612	27430
708.730	37455
708.848	36884
708.966	33480
709.084	31474
709.202	30130
709.320	31050
709.438	30962
709.556	30744
709.674	30186
709.791	29980
709.909	29456
710.027	28478
710.145	28223
710.263	29411
710.380	29078
710.498	28965
710.616	28563
710.733	28880
710.851	28096
710.969	29300
711.086	27616
711.204	28745
711.322	27210
711.439	28108
711.557	28272
711.674	27557
711.792	26590
711.909	29002
712.027	29786
712.144	25916
712.262	26142
712.379	29700
712.497	38060
712.614	38182
712.732	33531
712.849	31935
712.966	33548
713.084	38892
713.201	33608
713.318	32684
713.436	32117
713.553	32911
713.670	33972
713.787	36085
713.905	35136
714.022	32500
714.139	32047
714.256	36903
714.373	43834
714.490	64260
714.608	147135
714.725	574640
714.842	573160
714.959	61552
715.076	37716
715.193	32866
715.310	30897
715.427	28577
715.544	28060
715.661	29547
715.778	28433
715.895	30556
716.011	29833
716.128	28275
716.245	28402
716.362	30996
716.479	32167
716.596	27070
716.713	26560
716.829	26463
716.946	26358
717.063	24777
717.180	24168
717.296	24394
717.413	23966
717.530	24985
717.646	25238
717.763	23900
717.880	24013
717.996	24545
718.113	24806
718.229	22912
718.346	22512
718.462	25158
718.579	28402
718.695	43058
718.812	32808
718.928	29665
719.045	24364
719.161	23126
719.277	22070
719.394	22508
719.510	23286
719.626	24515
719.743	29453
719.859	35206
719.975	55229
720.092	187681
720.208	423004
720.324	57116
720.440	26482
720.557	27323
720.673	36762
720.789	44147
720.905	77453
721.021	31856
721.137	20854
721.253	21986
721.369	22080
721.486	24011
721.602	29494
721.718	20582
721.834	18957
721.950	20550
722.066	19566
722.181	20071
722.297	20793
722.413	19556
722.529	19624
722.645	18340
722.761	18740
722.877	19475
722.993	18439
723.108	21077
723.224	18720
723.340	19409
723.456	17848
723.571	17834
723.687	16661
723.803	18225
723.918	16616
724.034	18601
724.150	17238
724.265	19318
724.381	32542
724.497	39440
724.612	16634
724.728	16396
724.843	16063
724.959	18300
725.074	30077
725.190	34437
725.305	17028
725.421	17187
725.536	15527
725.651	16065
725.767	14947
725.882	15582
725.997	15061
726.113	16048
726.228	15186
726.343	15997
726.459	14642
726.574	15746
726.689	14029
726.804	15312
726.920	14721
727.035	15278
727.150	15160
727.265	14186
727.380	14399
727.495	14996
727.610	13469
727.725	14428
727.841	16004
727.956	23928
728.071	21744
728.186	13781
728.301	12638
728.416	15601
728.531	13964
728.645	12873
728.760	14368
728.875	14982
728.990	13010
729.105	14238
729.220	13692
729.335	14028
729.449	12809
729.564	13627
729.679	11692
729.794	12851
729.908	14041
730.023	13518
730.138	12121
730.253	12729
730.367	12584
730.482	12177
730.596	12514
730.711	13371
730.826	13282
730.940	13403
731.055	14173
731.169	12867
731.284	13047
731.398	12920
731.513	14497
731.627	13842
731.742	16090
731.856	16864
731.970	15601
732.085	18069
732.199	23306
732.313	36442
732.428	86118
732.542	252426
732.656	142626
732.771	29496
732.885	18150
732.999	17100
733.113	17441
733.227	15779
733.342	14781
733.456	14239
733.570	13470
733.684	13401
733.798	13630
733.912	13109
734.026	12066
734.140	12911
734.254	13578
734.368	21083
734.482	23299
734.596	13171
734.710	12384
734.824	13305
734.938	12149
735.052	13970
735.166	14682
735.280	12890
735.393	12814
735.507	12768
735.621	15925
735.735	23557
735.849	13749
735.962	12370
736.076	12695
736.190	13140
736.303	15793
736.417	19401
736.531	11411
736.644	12495
736.758	10619
736.872	11083
736.985	11378
737.099	10661
737.212	10121
737.326	11454
737.439	11036
737.553	11550
737.666	11061
737.780	10977
737.893	10374
738.007	9762
738.120	10139
738.233	10831
738.347	10369
738.460	10027
738.573	11120
738.687	11519
738.800	12271
738.913	14096
739.026	10911
739.140	11148
739.253	10964
739.366	11082
739.479	9791
739.592	10090
739.705	9512
739.818	10468
739.932	9639
740.045	11021
740.158	9663
740.271	10733
740.384	9788
740.497	10053
740.610	10534
740.723	10171
740.836	10415
740.949	10604
741.062	14121
741.174	12032
741.287	9940
741.400	10498
741.513	9982
741.626	11035
741.739	10080
741.851	10615
741.964	10325
742.077	9328
742.189	9244
742.302	10339
742.415	10307
742.527	9991
742.640	9123
742.753	9052
742.865	8605
742.978	8922
743.090	9133
743.203	9559
743.316	9478
743.428	8898
743.541	9120
743.653	9225
743.766	9254
743.878	9439
743.990	10650
744.103	10657
744.215	9258
744.327	9631
744.440	11108
744.552	15990
744.664	10423
744.777	9074
744.889	7325
745.001	9045
745.113	7894
745.226	8217
745.338	8612
745.450	9319
745.562	8047
745.674	9214
745.786	8528
745.898	8283
746.010	8391
746.122	8907
746.234	8910
746.347	9233
746.459	7935
746.570	7993
746.682	8487
746.794	8583
746.906	8585
747.018	8990
747.130	8326
747.242	9726
747.354	7677
747.466	9194
747.577	7548
747.689	8338
747.801	8013
747.913	7539
748.024	7542
748.136	8634
748.248	7721
748.359	7836
748.471	7915
748.583	8017
748.694	8257
748.806	10098
748.918	9578
749.029	9283
749.141	9182
749.252	8980
749.364	9480
749.475	17337
749.587	11961
749.698	7659
749.809	8575
749.921	7188
750.032	8040
750.144	6743
750.255	7515
750.366	7231
750.478	7736
750.589	8489
750.700	8294
750.811	8712
750.923	9987
751.034	19418
751.145	18119
751.256	8681
751.367	7771
751.479	7308
751.590	6692
751.701	6998
751.812	7019
751.923	7297
752.034	7585
752.145	7827
752.256	7072
752.367	6921
752.478	7189
752.589	7196
752.700	7185
752.811	7421
752.922	6775
753.032	8806
753.143	8759
753.254	6810
753.365	7916
753.476	7958
753.586	6459
753.697	7258
753.808	6951
753.919	6525
754.029	6813
754.140	6855
754.251	7135
754.361	7513
754.472	6961
754.582	7052
754.693	7291
754.804	7866
754.914	6328
755.025	6312
755.135	5880
755.246	7510
755.356	6357
755.466	7185
755.577	6332
755.687	7151
755.798	5780
755.908	6681
756.018	6417
756.129	6688
756.239	6715
756.349	7246
756.460	7181
756.570	7892
756.680	6470
756.790	7668
756.900	8804
757.011	6667
757.121	6742
757.231	7311
757.341	7408
757.451	6689
757.561	5514
757.671	7858
757.781	6195
757.891	7605
758.001	6994
758.111	7572
758.221	7463
758.331	9151
758.441	8146
758.551	10856
758.661	9712
758.771	8413
758.880	7889
758.990	8585
759.100	7602
759.210	8179
759.320	8192
759.429	7767
759.539	7890
759.649	8407
759.758	8211
759.868	8757
759.978	8885
760.087	9412
760.197	9202
760.307	9901
760.416	8352
760.526	8105
760.635	10138
760.745	9485
760.854	9792
760.964	11039
761.073	11201
761.182	10237
761.292	9359
761.401	10731
761.511	8771
761.620	9132
761.729	9269
761.839	8867
761.948	9533
762.057	9979
762.166	10230
762.276	9313
762.385	10254
762.494	9787
762.603	8761
762.712	10588
762.822	10540
762.931	11321
763.040	9973
763.149	10719
763.258	11305
763.367	12221
763.476	11992
763.585	11971
763.694	11954
763.803	13924
763.912	13096
764.021	13941
764.130	14106
764.238	14396
764.347	15161
764.456	16286
764.565	18107
764.674	19004
764.783	19193
764.891	20623
765.000	23966
765.109	26716
765.217	29359
765.326	34262
765.435	41537
765.543	49145
765.652	59156
765.761	76412
765.869	105491
765.978	151674
766.086	236277
766.195	390836
766.303	642499
766.412	710019
766.520	650002
766.629	610132
766.737	349892
766.846	211810
766.954	140399
767.062	101625
767.171	79599
767.279	61958
767.387	49108
767.496	41921
767.604	36048
767.712	32456
767.820	29241
767.928	27684
768.037	24394
768.145	24721
768.253	23362
768.361	23030
768.469	22317
768.577	22943
768.685	23011
768.793	25096
768.901	26418
769.009	31137
769.117	36223
769.225	46798
769.333	63165
769.441	96419
769.549	160131
769.657	305497
769.765	575713
769.873	606718
769.981	544588
770.088	275440
770.196	144300
770.304	91810
770.412	65322
770.519	50918
770.627	39502
770.735	32222
770.842	28246
770.950	26181
771.058	23825
771.165	20817
771.273	18569
771.380	17476
771.488	17369
771.595	17104
771.703	15598
771.810	15060
771.918	13567
772.025	14204
772.133	13340
772.240	13647
772.348	13285
772.455	13077
772.562	11822
772.670	11782
772.777	12228
772.884	11396
772.991	10504
773.099	10730
773.206	9812
773.313	10205
773.420	10663
773.528	9739
773.635	8982
773.742	10007
773.849	9190
773.956	8767
774.063	9720
774.170	9685
774.277	9611
774.384	8720
774.491	8644
774.598	9848
774.705	9453
774.812	11543
774.919	9313
775.026	9413
775.133	8783
775.239	8950
775.346	8736
775.453	8298
775.560	7462
775.667	8267
775.773	7571
775.880	8441
775.987	8303
776.093	8038
776.200	7975
776.307	7913
776.413	8059
776.520	7745
776.627	7492
776.733	7754
776.840	5707
776.946	9225
777.053	7597
777.159	8011
777.266	6265
777.372	8546
777.478	8190
777.585	8135
777.691	7329
777.798	8079
777.904	9074
778.010	10917
778.117	9943
778.223	6821
778.329	7676
778.435	6843
778.542	7462
778.648	6496
778.754	6531
778.860	6520
778.966	6769
779.072	7371
779.178	5516
779.284	7139
779.391	5827
779.497	5392
779.603	8210
779.708	6241
779.815	8325
779.920	14464
780.026	26575
780.132	8345
780.238	6941
780.344	6174
780.450	6828
780.556	5961
780.661	5205
780.767	6340
780.873	4591
780.979	7034
781.085	4756
781.190	6012
781.296	5875
781.402	5386
781.507	4702
781.613	5798
781.719	5170
781.824	5952
781.930	5303
782.035	6024
782.141	5337
782.246	5416
782.352	5702
782.457	6024
782.563	4891
782.668	5435
782.773	4495
782.879	5630
782.984	5085
783.090	6080
783.195	9884
783.300	7235
783.405	5508
783.511	5411
783.616	5333
783.721	5740
783.826	4142
783.932	5693
784.037	6226
784.142	5602
784.247	5927
784.352	6084
784.457	4677
784.562	5593
784.667	5276
784.772	5481
784.877	4691
784.982	5629
785.087	4477
785.192	5831
785.297	4502
785.402	5477
785.507	4622
785.611	5154
785.716	4934
785.821	5017
785.926	4022
786.031	4288
786.135	4621
786.240	4626
786.345	4102
786.450	4744
786.554	4980
786.659	4294
786.763	3299
786.868	4718
786.973	5584
787.077	3942
787.182	4386
787.286	4413
787.391	4098
787.495	4116
787.600	4117
787.704	4134
787.809	4589
787.913	3942
788.017	3909
788.122	4927
788.226	4198
788.330	4430
788.435	3256
788.539	5186
788.643	3214
788.747	4603
788.852	2944
788.956	3666
789.060	4433
789.164	4742
789.268	3080
789.372	4161
789.476	4496
789.580	3939
789.684	3268
789.788	4842
789.892	3466
789.996	4924
790.100	3765
790.204	4243
790.308	4565
790.412	3388
790.516	4506
790.620	4305
790.724	4537
790.828	4350
790.931	3404
791.035	6325
791.139	4008
791.242	3600
791.346	4244
791.450	3926
791.554	4380
791.657	2998
791.761	4082
791.864	4787
791.968	4077
792.072	4096
792.175	3779
792.279	3998
792.382	3341
792.486	4433
792.589	3751
792.693	5793
792.796	3309
792.899	4752
793.003	3905
793.106	2410
793.209	3465
793.313	4746
793.416	2036
793.519	5134
793.623	6101
793.726	8426
793.829	4960
793.932	4082
794.035	2260
794.138	4935
794.242	4561
794.345	4240
794.448	5534
794.551	8319
794.654	10191
794.757	14454
794.860	6027
794.963	5394
795.066	2688
795.169	3767
795.272	2502
795.375	3079
795.477	2757
795.580	3639
795.683	2142
795.786	3933
795.889	3039
795.991	4384
796.094	4108
796.197	3115
796.300	4306
796.402	3419
796.505	2493
796.608	2926
796.710	4129
796.813	3952
796.915	2665
797.018	3906
797.120	2986
797.223	1349
797.326	4124
797.428	2110
797.530	2786
797.633	3569
797.735	4368
797.838	6207
797.940	5483
798.042	2502
798.145	3330
798.247	3236
798.349	1357
798.452	3378
798.554	2704
798.656	2441
798.758	4488
798.860	4404
798.962	2490
799.065	3015
799.167	2373
799.269	3865
799.371	3666
799.473	4660
799.575	3358
799.677	4842
799.779	5845
799.881	5607
799.983	5448
800.085	3951
800.187	2554
800.289	2738
800.390	3033
800.492	3271
800.594	4409
800.696	2666
800.798	2984
800.899	2214
801.001	2520
801.103	3360
801.205	2609
801.306	2931
801.408	2671
801.509	3505
801.611	3615
801.713	2899
801.814	2359
801.916	2658
802.017	3537
802.119	2185
802.220	2082
802.322	1636
802.423	5255
802.525	2486
802.626	2536
802.727	4013
802.829	2969
802.930	1191
803.031	3945
803.133	2547
803.234	2624
803.335	3182
803.436	1525
803.538	2619
803.639	1903
803.740	3254
803.841	1982
803.942	3052
804.043	2894
804.144	2511
804.245	2412
804.346	1668
804.447	2614
804.548	4389
804.649	6196
804.750	2556
804.851	1918
804.952	3052
805.053	2967
805.154	1097
805.255	2750
805.355	2890
805.456	1735
805.557	2053
805.658	514
805.758	4077
805.859	2469
805.960	2643
806.061	1797
806.161	2505
806.262	1400
806.362	2949
806.463	2064
806.564	2694
806.664	2567
806.765	3333
806.865	2986
806.966	2184
807.066	1451
807.166	2932
807.267	2625
807.367	1533
807.468	2946
807.568	1683
807.668	2602
807.769	3285
807.869	354
807.969	2852
808.069	2054
808.170	2291
808.270	816
808.370	3542
808.470	3689
808.570	2730
808.670	2847
808.770	1850
808.870	2208
808.970	1761
809.070	1992
809.170	1679
809.271	1946
809.370	2458
809.470	1849
809.570	1740
809.670	1570
809.770	1578
809.870	2023
809.970	2605
810.070	961
810.169	2432
810.269	193
810.369	2923
810.469	1588
810.568	2436
810.668	1430
810.768	2020
810.867	1581
810.967	2141
811.066	1914
811.166	2168
811.265	2468
811.365	1287
811.464	1633
811.564	3158
811.663	2888
811.763	1328
811.862	2140
811.962	2503
812.061	1851
812.160	1009
812.260	2321
812.359	1133
812.458	1620
812.557	2614
812.657	1842
812.756	2883
812.855	1943
812.954	1436
813.053	2057
813.153	2369
813.252	1070
813.351	2825
813.450	2413
813.549	2301
813.648	2195
813.747	2146
813.846	1833
813.945	1167
814.044	2210
814.143	2689
814.242	2989
814.341	1923
814.439	3182
814.538	3054
814.637	1817
814.736	2017
814.835	2049
814.933	2043
815.032	3301
815.131	2044
815.229	3094
815.328	4610
815.427	3232
815.525	3800
815.624	2990
815.722	4071
815.821	3532
815.919	3637
816.018	4114
816.116	5550
816.215	4488
816.313	4350
816.412	4182
816.510	4471
816.609	5465
816.707	4943
816.805	4694
816.904	4341
817.002	6035
817.100	7100
817.198	7014
817.296	5849
817.395	6481
817.493	8181
817.591	8164
817.689	11500
817.787	14214
817.885	21511
817.983	34728
818.081	70843
818.179	156985
818.277	357038
818.375	324461
818.473	110746
818.571	46632
818.669	30723
818.767	24861
818.865	24835
818.963	29019
819.061	41176
819.158	64796
819.256	127590
819.354	267039
819.452	488490
819.549	370783
819.647	145485
819.745	63849
819.842	38109
819.940	25891
820.038	18529
820.135	15014
820.233	13925
820.330	11000
820.428	8472
820.525	8822
820.623	7047
820.720	6148
820.818	7242
820.915	5925
821.012	5735
821.110	3878
821.207	5695
821.304	3807
821.402	4965
821.499	5015
821.596	4532
821.693	3985
821.791	6372
821.888	5525
821.985	9976
822.082	6872
822.179	4990
822.276	2609
822.373	4156
822.470	3479
822.567	3940
822.664	2981
822.761	4555
822.858	2292
822.955	3426
823.052	1934
823.149	3635
823.246	3662
823.343	1756
823.440	3210
823.536	2767
823.633	2460
823.730	2431
823.827	2324
823.923	2947
824.020	3001
824.117	2371
824.213	1758
824.310	2973
824.407	2261
824.503	3294
824.600	3305
824.696	2675
824.793	3089
824.889	2270
824.986	2984
825.082	1663
825.179	2883
825.275	2493
825.371	2204
825.468	2768
825.564	987
825.660	2861
825.757	2982
825.853	2809
825.949	1329
826.045	2321
826.142	2718
826.238	1857
826.334	1855
826.430	1580
826.526	1634
826.622	1912
826.718	2812
826.814	2436
826.910	2497
827.006	1869
827.102	1477
827.198	2450
827.294	1935
827.390	2561
827.486	2019
827.582	819
827.678	1228
827.774	2253
827.869	930
827.965	2858
828.061	1616
828.157	2057
828.252	1373
828.348	1764
828.444	1624
828.539	1562
828.635	2111
828.731	3079
828.826	1340
828.922	2278
829.017	1517
829.113	2515
829.208	871
829.304	1183
829.399	2618
829.495	1670
829.590	2181
829.685	2228
829.781	1967
829.876	2082
829.971	1349
830.066	906
830.162	1857
830.257	1203
830.352	2119
830.447	2098
830.543	1281
830.638	2001
830.733	2817
830.828	1739
830.923	2566
831.018	1557
831.113	2132
831.208	1289
831.303	1965
831.398	1300
831.493	1179
831.588	3259
831.683	398
831.778	2612
831.873	1223
831.967	3023
832.062	1023
832.157	2215
832.252	1525
832.346	2986
832.441	3421
832.536	3071
832.631	8870
832.725	8038
832.820	1861
832.914	1376
833.009	1039
833.104	2660
833.198	2391
833.293	1871
833.387	2288
833.482	2022
833.576	1424
833.670	2228
833.765	922
833.859	1469
833.954	2784
834.048	1825
834.142	2205
834.237	884
834.331	1800
834.425	1507
834.519	410
834.613	1904
834.708	1524
834.802	2407
834.896	696
834.990	1622
835.084	1323
835.178	1445
835.272	1809
835.366	1728
835.460	1740
835.554	1763
835.648	1193
835.742	882
835.836	798
835.930	865
836.024	1386
836.117	2297
836.211	2080
836.305	2726
836.399	3613
836.493	1394
836.586	2298
836.680	716
836.774	1209
836.867	2837
836.961	-126
837.055	248
837.148	546
837.242	811
837.335	279
837.429	1521
837.522	1021
837.616	2576
837.709	3841
837.803	3212
837.896	1507
837.989	2398
838.083	1830
838.176	6295
838.269	3999
838.363	2452
838.456	1898
838.549	3876
838.642	5258
838.735	11293
838.829	4425
838.922	643
839.015	1190
839.108	1033
839.201	1159
839.294	1145
839.387	2247
839.480	913
839.573	1238
839.666	3107
839.759	636
839.852	385
839.945	1483
840.038	685
840.131	1314
840.223	666
840.316	1999
840.409	850
840.502	-653
840.594	1791
840.687	168
840.780	1087
840.873	1085
840.965	1813
841.058	2403
841.150	4994
841.243	2622
841.336	2023
841.428	1482
841.521	1456
841.613	1073
841.706	1862
841.798	675
841.890	1189
841.983	-340
842.075	1337
842.167	1213
842.260	945
842.352	2334
842.444	2624
842.537	4465
842.629	8036
842.721	1590
842.813	1512
842.905	424
842.997	1447
843.090	1362
843.182	3555
843.274	4747
843.366	12064
843.458	21886
843.550	14208
843.642	1724
843.734	2358
843.826	1581
843.918	2526
844.009	2158
844.101	1038
844.193	988
844.285	439
844.377	751
844.469	915
844.560	698
844.652	484
844.744	1128
844.835	537
844.927	1058
845.019	1371
845.110	1414
845.202	317
845.293	524
845.385	918
845.476	1405
845.568	2061
845.659	966
845.751	2620
845.842	-113
845.934	936
846.025	-10
846.116	1107
846.208	-472
846.299	1497
846.390	881
846.482	1275
846.573	2197
846.664	2423
846.755	3167
846.846	3535
846.937	-414
847.029	857
847.120	1325
847.211	617
847.302	2069
847.393	-20
847.484	676
847.575	409
847.666	420
847.757	1347
847.847	1496
847.938	2348
848.029	830
848.120	906
848.211	212
848.302	1005
848.392	542
848.483	1741
848.574	174
848.664	982
848.755	848
848.846	892
848.936	99
849.027	1228
849.118	-424
849.208	1015
849.299	988
849.389	3805
849.480	5943
849.570	11530
849.661	22216
849.751	38135
849.841	13637
849.932	2584
850.022	1581
850.112	760
850.203	912
850.293	1309
850.383	168
850.474	541
850.564	839
850.654	922
850.744	-95
850.834	1090
850.924	607
851.014	808
851.104	50
851.194	1156
851.284	2060
851.374	2885
851.464	1760
851.554	1466
851.644	1311
851.734	3716
851.824	1859
851.914	488
852.004	902
852.094	1059
852.183	578
852.273	1472
852.363	350
852.452	1175
852.542	788
852.632	1140
852.721	636
852.811	937
852.901	329
852.990	1031
853.080	1512
853.169	1295
853.259	396
853.348	795
853.438	1664
853.527	3256
853.617	3126
853.706	7658
853.795	13619
853.885	31449
853.974	58292
854.063	106512
854.152	170702
854.242	66820
854.331	11983
854.420	5371
854.509	3658
854.598	3610
854.687	2293
854.777	2651
854.866	941
854.955	1037
855.044	1301
855.133	1370
855.222	1231
855.311	1045
855.400	959
855.488	1624
855.577	1331
855.666	790
855.755	1047
855.844	2387
855.933	1386
856.021	1385
856.110	1419
856.199	216
856.288	481
856.376	733
856.465	878
856.554	909
856.642	1044
856.731	443
856.819	271
856.908	1148
856.996	776
857.085	345
857.173	540
857.262	762
857.350	867
857.438	1375
857.527	456
857.615	1461
857.703	1043
857.792	694
857.880	682
857.968	58
858.056	846
858.145	976
858.233	448
858.321	136
858.409	1030
858.497	106
858.585	-83
858.673	791
858.761	332
858.849	1186
858.937	-359
859.025	980
859.113	930
859.201	566
859.289	700
859.377	287
859.465	316
859.552	484
859.640	148
859.728	684
859.816	189
859.903	489
859.991	222
860.079	548
860.166	540
860.254	630
860.342	600
860.429	1080
860.517	1
860.604	789
860.692	-138
860.779	333
860.867	474
860.954	1468
861.042	1124
861.129	1371
861.216	532
861.304	1231
861.391	622
861.478	444
861.565	323
861.653	1366
861.740	-5
861.827	1377
861.914	628
862.001	701
862.089	773
862.176	416
862.263	-58
862.350	554
862.437	257
862.524	493
862.611	-214
862.698	622
862.785	655
862.871	1342
862.958	215
863.045	829
863.132	534
863.219	873
863.306	27
863.392	702
863.479	526
863.566	1276
863.652	141
863.739	46
863.826	594
863.912	-46
863.999	-16
864.086	362
864.172	365
864.259	523
864.345	747
864.432	805
864.518	936
864.604	613
864.691	-68
864.777	1218
864.863	1053
864.950	1848
865.036	1578
865.122	2328
865.209	2896
865.295	2790
865.381	1897
865.467	2951
865.553	3583
865.639	4720
865.726	7210
865.812	16985
865.898	32328
865.984	47634
866.070	88481
866.156	97505
866.242	25397
866.328	7398
866.414	2571
866.499	2712
866.585	2413
866.671	2572
866.757	1612
866.843	2800
866.928	1814
867.014	2001
867.100	2152
867.186	2686
867.271	2435
867.357	3867
867.442	3963
867.528	2791
867.614	1327
867.699	2216
867.785	1860
867.870	1460
867.956	1716
868.041	2991
868.127	1921
868.212	3243
868.297	2026
868.383	2545
868.468	3753
868.553	5869
868.639	7220
868.724	12695
868.809	11356
868.894	2851
868.979	1892
869.065	1912
869.150	712
869.235	1121
869.320	1103
869.405	1172
869.490	786
869.575	1975
869.660	987
869.745	1837
869.830	944
869.915	721
870.000	1175
870.085	2035
870.169	1263
870.254	1792
870.339	1248
870.424	577
870.509	1447
870.593	1236
870.678	1323
870.763	701
870.847	771
870.932	406
871.016	1589
871.101	1327
871.186	1381
871.270	1524
871.355	567
871.439	1918
871.523	879
871.608	1325
871.692	533
871.777	1870
871.861	1632
871.945	1041
872.030	446
872.114	509
872.198	559
872.282	270
872.367	741
872.451	744
872.535	714
872.619	1208
872.703	247
872.787	1095
872.871	1260
872.955	394
873.039	357
873.123	1383
873.207	1056
873.291	903
873.375	937
873.459	1408
873.543	463
873.627	2131
873.711	1053
873.794	1574
873.878	-62
873.962	797
874.045	260
874.129	1108
874.137	1088
874.213	888
874.245	779
874.296	603
874.352	169
874.380	-42
874.460	1051
874.464	1094
874.547	838
874.568	836
874.631	834
874.676	672
874.714	559
874.784	1059
874.798	1149
874.881	1180
874.892	1083
874.965	433
874.999	412
875.048	400
875.107	916
875.131	1106
875.215	1002
875.215	1001
875.298	579
875.323	669
875.381	818
875.430	1105
875.465	1338
875.538	1547
875.548	1557
875.631	1099
875.646	867
875.714	-76
875.753	217
875.798	508
875.861	737
875.881	799
875.964	1050
875.968	1018
876.047	452
876.076	604
876.130	924
876.183	1174
876.213	1301
876.291	1795
876.296	1829
876.379	1248
876.398	1168
876.462	892
876.506	773
876.545	671
876.613	984
876.628	1052
876.711	-123
876.721	2
876.794	1003
876.828	577
876.877	-118
876.935	516
876.960	861
877.043	453
877.043	455
877.125	655
877.150	907
877.208	1632
877.258	1176
877.291	800
877.365	142
877.374	77
877.456	1358
877.472	1270
877.539	911
877.579	1103
877.622	1255
877.687	819
877.704	730
877.787	1142
877.794	1070
877.869	106
877.901	514
877.952	1136
878.008	314
878.034	-2
878.115	271
878.117	274
878.199	-230
878.222	-81
878.282	495
878.329	749
878.364	782
878.437	887
878.447	929
878.529	476
878.544	486
878.611	432
878.651	540
878.694	745
878.758	1317
878.776	1384
878.858	216
878.865	199
878.941	406
878.972	283
879.023	-127
879.078	421
879.105	796
879.185	1162
879.187	1163
879.269	1295
879.292	1038
879.351	389
879.399	-17
879.433	-231
879.506	57
879.516	118
879.598	388
879.613	416
879.680	164
879.720	433
879.762	836
879.827	141
879.844	-95
879.926	212
879.933	211
880.007	502
880.040	425
880.089	228
880.147	602
880.171	792
880.253	2186
880.254	2193
880.335	2545
880.360	2809
880.417	3769
880.467	5574
880.499	6583
880.574	7698
880.580	7767
880.662	2180
880.680	1921
880.744	745
880.787	254
880.825	63
880.893	404
880.907	412
880.989	188
881.000	239
881.070	975
881.106	772
881.152	343
881.213	471
881.233	525
881.315	483
881.319	508
881.396	889
881.426	654
881.478	400
881.532	755
881.559	833
881.639	270
881.641	255
881.722	218
881.745	158
881.803	207
881.852	317
881.885	332
881.958	545
881.966	562
882.047	1134
882.064	1040
882.129	700
882.171	1068
882.210	1479
882.277	2024
882.291	2142
882.372	1051
882.383	955
882.454	81
882.489	79
882.535	75
882.596	25
882.616	39
882.697	-170
882.702	-147
882.778	401
882.808	477
882.859	445
882.914	78
882.940	-79
883.020	164
883.021	167
883.102	-113
883.127	108
883.183	691
883.233	594
883.264	458
883.339	415
883.345	412
883.426	78
883.445	165
883.507	480
883.551	246
883.587	20
883.657	-22
883.668	-25
883.749	275
883.763	187
883.830	133
883.869	206
883.910	-114
883.975	4
883.991	121
884.072	40
884.081	33
884.152	144
884.187	238
884.233	205
884.292	292
884.314	337
884.394	104
884.398	107
884.475	485
884.504	614
884.555	517
884.610	310
884.636	250
884.716	248
884.716	250
884.797	420
884.821	312
884.877	122
884.927	73
884.958	64
885.033	20
885.038	18
885.118	180
885.139	171
885.199	276
885.244	403
885.279	361
885.350	47
885.359	-37
885.439	-414
885.456	-576
885.520	-195
885.561	206
885.600	159
885.667	46
885.680	54
885.760	205
885.773	158
885.840	-461
885.878	-597
885.920	-211
885.984	199
886.000	183
886.080	374
886.089	365
886.160	388
886.195	395
886.240	171
886.300	-24
886.320	6
886.400	307
886.406	299
886.480	-143
886.511	-143
886.560	391
886.616	602
886.640	416
886.720	286
886.722	272
886.800	138
886.827	279
886.879	182
886.932	-132
886.959	177
887.038	1261
887.039	1257
887.119	467
887.143	309
887.198	475
887.248	506
887.278	357
887.354	-176
887.358	-146
887.437	664
887.459	910
887.517	686
887.564	282
887.596	374
887.669	874
887.676	837
887.755	172
887.774	49
887.835	350
887.880	551
887.914	341
887.985	-181
887.994	-164
888.073	74
888.090	121
888.153	298
888.195	319
888.232	193
888.300	197
888.311	157
888.391	-288
888.405	-351
888.470	102
888.510	349
888.549	105
888.615	-236
888.628	-183
888.708	83
888.720	130
888.787	280
888.825	336
888.866	81
888.930	-229
888.945	-176
889.024	27
889.035	71
889.103	635
889.140	880
889.182	471
889.245	-51
889.261	4
889.340	216
889.349	247
889.419	-108
889.454	-303
889.498	-295
889.559	-248
889.577	-252
889.656	-256
889.664	-249
889.735	-74
889.768	14
889.814	287
889.873	658
889.978	785
890.083	117
890.187	186
890.292	342
890.397	936
890.501	364
890.606	422
890.710	506
890.815	-440
890.919	-230
891.024	50
891.128	831
891.233	542
891.337	-433
891.442	292
891.546	-610
891.650	134
891.755	631
891.859	1474
891.963	-603
892.068	604
892.172	615
892.276	183
892.380	633
892.484	185
892.589	109
892.693	456
892.797	-342
892.901	-71
893.005	-512
893.109	-205
893.213	268
893.317	39
893.421	175
893.525	19
893.629	-221
893.733	426
893.837	-414
893.941	-18
894.045	371
894.148	-317
894.252	13
894.356	394
894.460	-497
894.564	195
894.667	-543
894.771	1307
894.875	500
894.978	612
895.082	349
895.186	309
895.289	908
895.393	516
895.496	261
895.600	-152
895.703	-460
895.807	64
895.910	-312
896.014	-214
896.117	171
896.221	622
896.324	-47
896.427	836
896.531	-571
896.634	-82
896.737	-512
896.840	-177
896.944	123
897.047	1039
897.150	-59
897.253	310
897.356	774
897.460	-484
897.563	-572
897.666	204
897.769	514
897.872	135
897.975	296
898.078	614
898.181	602
898.284	597
898.387	527
898.490	531
898.593	781
898.695	598
898.798	-233
898.901	442
899.004	654
899.107	33
899.209	171
899.312	486
899.415	-286
899.518	146
899.620	-139
899.723	-6
899.826	44
899.928	-97
900.031	206
900.133	-496
900.236	-242
900.338	-827
900.441	251
900.543	692
900.646	-973
900.748	360
900.851	480
900.953	-98
901.055	258
901.158	580
901.260	-866
901.362	121
901.465	-383
901.567	-285
901.669	17
901.771	-86
901.873	561
901.976	-173
902.078	-406
902.180	-365
902.282	-420
902.384	-187
902.486	141
902.588	-390
902.690	-421
902.792	527
902.894	458
902.996	-432
903.098	-466
903.200	-284
903.302	570
903.404	273
903.505	-690
903.607	644
903.709	-23
903.811	270
903.913	-332
904.014	26
904.116	-158
904.218	-53
904.319	110
904.421	577
904.523	-777
904.624	332
904.726	-730
904.827	-43
904.929	-498
905.030	-253
905.132	516
905.233	-140
905.335	-893
905.436	-539
905.537	-440
905.639	-50
905.740	-158
905.841	551
905.943	-878
906.044	-367
906.145	152
906.247	-562
906.348	-740
906.449	532
906.550	-448
906.651	180
906.752	200
906.854	-321
906.955	-531
907.056	-31
907.157	-740
907.258	-408
907.359	-283
907.460	331
907.561	-414
907.662	144
907.762	-264
907.863	-164
907.964	-443
908.065	-226
908.166	-392
908.267	-394
908.367	-69
908.468	-83
908.569	-195
908.670	499
908.770	266
908.871	-29
908.971	-118
909.072	384
909.173	-141
909.273	-442
909.374	-503
909.474	-344
909.575	-148
909.675	-272
909.776	-1146
909.876	-340
909.977	-387
910.077	555
910.177	-145
910.278	-109
910.378	-648
910.478	-78
910.579	-261
910.679	-408
910.779	-749
910.879	261
910.980	-329
911.080	-797
911.180	-295
911.280	237
911.380	16
911.480	513
911.580	185
911.680	-242
911.780	-472
911.880	-202
911.980	-366
912.080	133
912.180	-865
912.280	136
912.380	415
912.480	-527
912.580	-163
912.679	-156
912.779	-46
912.879	229
912.979	-881
913.078	-545
913.178	-589
913.278	-797
913.377	-234
913.477	-249
913.577	-443
913.676	47
913.776	-1038
913.875	-1405
913.975	-191
914.074	26
914.174	-554
914.273	-1042
914.373	509
914.472	-1045
914.572	-224
914.671	119
914.770	155
914.870	-60
914.969	-243
915.068	-933
915.167	-271
915.267	-32
915.366	-674
915.465	-39
915.564	43
915.663	-149
915.763	-1050
915.862	-616
915.961	-861
916.060	-41
916.159	76
916.258	-625
916.357	-1575
916.456	882
916.555	-929
916.654	148
916.752	-1214
916.851	-975
916.950	-588
917.049	-553
917.148	-714
917.247	253
917.345	-227
917.444	-20
917.543	-241
917.642	-1053
917.740	-301
917.839	-210
917.937	159
918.036	-852
918.135	-48
918.233	-130
918.332	-398
918.430	-703
918.529	-590
918.627	11
918.726	-36
918.824	60
918.923	-560
919.021	-95
919.119	-156
919.218	-1178
919.316	-1273
919.414	48
919.512	-906
919.611	-435
919.709	-238
919.807	-99
919.905	-657
920.003	88
920.102	-62
920.200	-426
920.298	-824
920.396	-192
920.494	-660
920.592	-1050
920.690	-1062
920.788	-164
920.886	-481
920.984	551
921.082	-773
921.180	108
921.277	-116
921.375	361
921.473	552
921.571	-535
921.669	-624
921.766	-699
921.864	524
921.962	-258
922.060	-416
922.157	579
922.255	-721
922.352	-42
922.450	-548
922.548	-13
922.645	118
922.743	-63
922.840	-1068
922.938	-573
923.035	-457
923.133	-136
923.230	-45
923.327	-96
923.425	-621
923.522	269
923.619	-816
923.717	-610
923.814	-879
923.911	-24
924.008	-71
924.106	-533
924.203	319
924.300	-4
924.397	-541
924.494	359
924.591	-1143
924.688	-769
924.786	184
924.883	202
924.979	-1011
925.077	-466
925.173	490
925.270	-553
925.367	-368
925.464	-218
925.561	-533
925.658	-351
925.755	-200
925.852	-316
925.948	-430
926.045	195
926.142	-375
926.239	-711
926.335	-1145
926.432	236
926.529	-124
926.625	-29
926.722	-379
926.818	-873
926.915	-313
927.011	-78
927.108	-188
927.204	-447
927.301	24
927.397	-565
927.494	-420
927.590	-581
927.687	-426
927.783	-432
927.879	-592
927.976	-478
928.072	-871
928.168	-740
928.264	-631
928.361	-554
928.457	-754
928.553	-262
928.649	-355
928.745	-523
928.841	-507
928.937	-218
929.033	294
929.129	-150
929.225	-587
929.321	-629
929.417	-268
929.513	-732
929.609	-581
929.705	-262
929.801	-633
929.897	-225
929.993	-491
930.089	-269
930.184	-735
930.280	271
930.376	-1139
930.471	-1442
930.567	-894
930.663	40
930.758	311
930.854	-842
930.950	-1677
931.045	-314
931.141	-283
931.236	-132
931.332	-355
931.427	-652
931.523	-840
931.618	278
931.714	-530
931.809	257
931.905	-669
932.000	209
932.095	-475
932.191	-79
932.286	-880
932.381	-573
932.476	118
932.572	-794
932.667	-1119
932.762	-1060
932.857	-647
932.952	405
933.047	-341
933.142	-758
933.237	-179
933.332	-442
933.427	-333
933.522	162
933.617	-656
933.712	-346
933.807	-114
933.902	-962
933.997	-661
934.092	-1186
934.187	-154
934.282	195
934.376	-847
934.471	-51
934.566	-931
934.661	-225
934.755	-52
934.850	-793
934.945	135
935.039	-83
935.134	-1071
935.228	-106
935.323	-700
935.417	-552
935.512	-1167
935.606	-692
935.701	-574
935.795	-578
935.890	-438
935.984	-361
936.079	-1079
936.173	-265
936.267	-530
936.362	-339
936.456	-1049
936.550	398
936.644	-894
936.738	-763
936.833	-1087
936.927	-175
937.021	-970
937.115	-890
937.209	-1748
937.303	438
937.397	-847
937.491	16
937.585	-1229
937.679	-513
937.773	-888
937.867	-508
937.961	-498
938.055	-1352
938.149	-703
938.243	-1172
938.337	-747
938.430	-535
938.524	-564
938.618	-339
938.712	325
938.805	-503
938.899	-527
938.993	-810
939.086	-627
939.180	-596
939.274	-227
939.367	-165
939.461	-193
939.554	-167
939.648	-667
939.741	-1001
939.835	-670
939.928	-786
940.022	-291
940.115	-703
940.208	-593
940.302	509
940.395	-657
940.488	-1101
940.582	274
940.675	-631
940.768	-952
940.861	-262
940.954	-580
941.048	-1226
941.141	-840
941.234	-1246
941.327	-1067
941.420	141
941.513	-487
941.606	-173
941.699	-264
941.792	-839
941.885	-303
941.978	-878
942.071	-1678
942.164	-568
942.257	-469
942.349	-551
942.442	-676
942.535	-253
942.628	-101
942.721	381
942.813	-1519
942.906	-333
942.999	-1077
943.091	-791
943.184	-294
943.277	-755
943.369	-591
943.462	-350
943.554	-801
943.647	-969
943.739	133
943.832	-505
943.924	-1354
944.017	-161
944.109	-935
944.201	-1010
944.294	23
944.386	-1282
944.478	-1120
944.571	-523
944.663	-504
944.755	-538
944.847	-546
944.940	-293
945.032	-1906
945.124	-735
945.216	-347
945.308	-925
945.400	-590
945.492	-573
945.584	-644
945.676	-711
945.768	-699
945.860	-331
945.952	-391
946.044	-537
946.136	-756
946.228	-1117
946.320	-674
946.412	-852
946.503	-1022
946.595	-97
946.687	-1408
946.779	-901
946.870	-1093
946.962	-406
947.054	-896
947.145	-252
947.237	-1358
947.329	-548
947.420	-905
947.512	-631
947.603	-603
947.695	-656
947.786	-1058
947.878	-1082
947.969	-1158
948.061	-781
948.152	-1447
948.243	-1073
948.335	-1247
948.426	-317
948.517	-1317
948.609	-1042
948.700	-850
948.791	-708
948.882	74
948.973	-603
949.065	-1109
949.156	-984
949.247	-1896
949.338	-725
949.429	-841
949.520	-894
949.611	-727
949.702	-756
949.793	-1125
949.884	-754
949.975	-592
950.066	-1514
950.157	-389
950.247	-50
950.338	-1344
950.429	-1827
950.520	-480
950.611	-514
950.701	-823
950.792	-244
950.883	-966
950.973	-670
951.064	-1069
951.155	-479
951.245	-655
951.336	-169
951.427	-1867
951.517	17
951.608	-1528
951.698	-1532
951.788	-1551
951.879	-838
951.969	-1654
952.060	166
952.150	-967
952.240	-1255
952.331	-2686
952.421	-389
952.511	-2460
952.602	-787
952.692	-1488
952.782	-555
952.872	-1274
952.962	-926
953.052	-1417
953.143	-1454
953.233	-1757
953.323	-919
953.413	-1328
953.503	-623
953.593	-747
953.683	-566
953.773	-1840
953.863	-1195
953.953	-1526
954.042	-690
954.132	-1831
954.222	-476
954.312	-1214
954.402	-1249
954.492	-1141
954.581	-456
954.671	-881
954.761	-2074
954.850	185
954.940	-1177
955.030	-1014
955.119	-1821
955.209	-1261
955.298	-785
955.388	-1204
955.477	-477
955.567	-1746
955.656	-919
955.746	-393
955.835	-1321
955.925	-1698
956.014	-623
956.103	-1554
956.193	-971
956.282	-582
956.371	-1023
956.461	-1431
956.550	-951
956.639	-1240
956.728	-840
956.817	-691
956.906	-1083
956.995	-1182
957.085	-1331
957.174	-840
957.263	-1308
957.352	-1823
957.441	-1823
957.530	-871
957.619	-574
957.708	-974
957.796	-944
957.885	-847
957.974	-1219
958.063	-887
958.152	-882
958.241	-895
958.329	-264
958.418	-1762
958.507	-1388
958.596	-505
958.684	-1272
958.773	-996
958.861	-1584
958.950	-710
959.039	-1367
959.127	-1771
959.216	-51
959.304	-1460
959.393	-864
959.481	-959
959.570	-1632
959.658	-1129
959.746	-1348
959.835	-311
959.923	-644
960.011	-2155
960.100	-334
960.188	-1544
960.276	-870
960.365	-1404
960.453	-874
960.541	-2081
960.629	-849
960.717	-578
960.805	-1726
960.893	-642
960.981	-1484
961.069	31
961.158	-1068
961.245	-511
961.333	-1502
961.421	-1386
961.509	-529
961.597	-1005
961.685	-1204
961.773	-1271
961.861	-1604
961.949	-1247
962.036	-1352
962.124	-290
962.212	-972
962.299	-1674
962.387	-1773
962.475	-593
962.562	-1560
962.650	-754
962.738	-594
962.825	-1403
962.913	-1319
963.000	-971
963.088	-1627
963.175	-637
963.263	-878
963.350	-1634
963.438	-11
963.525	-1617
963.612	75
963.700	-1164
963.787	378
963.874	-743
963.962	-532
964.049	-1746
964.136	-668
964.223	-1806
964.310	-658
964.398	-839
964.485	-13
964.572	-1709
964.659	-1228
964.746	-1125
964.833	-1168
964.920	-1131
965.007	-765
965.094	-234
965.181	-498
965.268	-825
965.355	-1127
965.441	-1191
965.528	-1034
965.615	-897
965.702	-496
965.789	-1676
965.875	-1625
965.962	-1082
966.049	-1418
966.136	-560
966.222	-1435
966.309	-387
966.395	-1810
966.482	-525
966.569	-1178
966.655	-816
966.742	-1680
966.828	-665
966.915	-1171
967.001	-1018
967.087	-980
967.174	-1356
967.260	-1538
967.347	-941
967.433	-78
967.519	-98
967.605	-1480
967.692	-1778
967.778	-1485
967.864	-1084
967.950	-1065
968.036	-2225
968.123	-458
968.209	-1601
968.295	-1699
968.381	348
968.467	-254
968.553	-2002
968.639	-380
968.725	-1939
968.811	-1120
968.897	-1238
968.983	-1706
969.069	-541
969.154	-473
969.240	-757
969.326	-1057
969.412	-1322
969.497	-1416
969.583	-1204
969.669	-504
969.755	-1916
969.840	-1356
969.926	-400
970.012	-1279
970.097	-462
970.183	-1431
970.268	-1296
970.354	-404
970.439	-1261
970.525	299
970.610	-2509
970.696	67
970.781	-284
970.866	-1860
970.952	-679
971.037	-1212
971.122	-1091
971.208	-883
971.293	-1139
971.378	-2108
971.463	-1187
971.549	-455
971.634	-1038
971.719	-477
971.804	-1754
971.889	-204
971.974	-1586
972.059	-1394
972.144	-1009
972.229	-851
972.314	-1932
972.399	-546
972.484	-1411
972.569	-577
972.654	-773
972.739	486
972.824	-1364
972.908	-1553
972.993	-813
973.078	-541
973.163	-1173
973.247	-202
973.332	-3096
973.417	469
973.501	-1522
973.586	-1053
973.671	-1469
973.755	-1377
973.840	-873
973.924	-557
974.009	-927
974.093	-1584
974.178	18
974.262	-694
974.346	-1112
974.431	-594
974.515	-1265
974.600	-734
974.684	-1707
974.768	-1217
974.852	-281
974.937	-2048
975.021	0
975.105	-1040
975.189	-1075
975.273	-209
975.358	-652
975.442	-1564
975.526	-1388
975.610	-1544
975.694	-1616
975.778	387
975.862	-1294
975.946	-2574
976.030	151
976.114	-1076
976.198	-834
976.281	-753
976.365	-711
976.449	-995
976.533	-399
976.617	-1481
976.700	-961
976.784	-1000
976.868	-1877
976.951	-914
977.035	-1439
977.119	-902
977.202	-1200
977.286	-470
977.369	-1471
977.453	-849
977.536	-574
977.620	-1906
977.703	-808
977.787	-1481
977.870	-842
977.953	-355
978.037	-1838
978.120	39
978.203	-1569
978.287	-410
978.370	-664
978.453	-983
978.536	-1420
978.620	-332
978.703	-1070
978.786	-1156
978.869	-1107
978.952	-1702
979.035	228
979.118	-330
979.201	-2017
979.284	-80
979.367	-1564
979.450	-376
979.533	-1293
979.616	-456
979.699	-968
979.782	-638
979.865	-1331
979.948	-950
980.030	-1368
980.113	-553
980.196	-1809
980.279	-1285
980.361	-1822
980.444	-587
980.526	-735
980.609	-861
980.692	-1177
980.774	-745
980.857	-1578
980.939	-596
981.022	-1833
981.104	-1405
981.187	-1052
981.269	-770
981.352	-771
981.434	-1301
981.516	-1882
981.599	-88
981.681	-1015
981.763	-1147
981.846	-930
981.928	-853
982.010	-1491
982.092	-1268
982.174	-345
982.256	-465
982.339	-1468
982.421	-776
982.503	-956
982.585	-1195
982.667	-1847
982.749	-1406
982.831	-2164
982.913	-2084
982.995	-1034
983.077	-1774
983.158	276
983.240	-2036
983.322	-516
983.404	-1934
983.486	-2094
983.568	-1330
983.649	-1420
983.731	-517
983.813	-1658
983.894	-1109
983.976	-2354
984.058	-555
984.139	-998
984.221	-2064
984.302	487
984.384	-1602
984.465	-1827
984.547	-333
984.628	-2409
984.710	-520
984.791	-1092
984.872	-2059
984.954	-1710
985.035	-645
985.116	-1978
985.198	-2217
985.279	-354
985.360	-1683
985.441	-1634
985.522	-554
985.604	-1852
985.685	-2746
985.766	-561
985.847	578
985.928	-1809
986.009	-1317
986.090	-1468
986.171	131
986.252	-1829
986.333	-169
986.414	-1295
986.495	-372
986.576	-907
986.656	-647
986.737	-1000
986.818	-882
986.899	-2611
986.980	-988
987.060	-955
987.141	-1954
987.222	-853
987.302	-781
987.383	-383
987.464	-1425
987.544	-853
987.625	-1085
987.705	-865
987.786	-973
987.866	-1894
987.947	-1145
988.027	-1962
988.108	-1578
988.188	-1614
988.268	-884
988.349	-278
988.429	-901
988.509	-1106
988.589	-1198
988.670	-3088
988.750	435
988.830	-1543
988.910	-638
988.990	-1123
989.070	-975
989.151	-1395
989.231	-1905
989.311	-776
989.391	-719
989.471	-1250
989.551	-1105
989.631	-1345
989.711	-705
989.791	-2019
989.870	-1419
989.950	-457
990.030	-1175
990.110	-1498
990.190	-2016
990.269	-1776
990.349	-1255
990.429	-911
990.509	-606
990.588	-1745
990.668	-1583
990.747	-696
990.827	-1403
990.907	-829
990.986	-2305
991.066	-493
991.145	-1277
991.225	-727
991.304	-1516
991.383	-858
991.463	-1696
991.542	-1198
991.622	-1745
991.701	-1536
991.780	-2325
991.859	-1853
991.939	-1756
992.018	-1231
992.097	-1028
992.176	-1037
992.256	-907
992.335	-2276
992.414	-1207
992.493	-1588
992.572	-819
992.651	-724
992.730	-1738
992.809	-1280
992.888	-2579
992.967	-1904
993.046	-938
993.125	-1433
993.203	-1738
993.282	-1772
993.361	-1508
993.440	-1544
993.519	-1344
993.597	-1886
993.676	-1519
993.755	-640
993.834	-670
993.912	-2367
993.991	-417
994.069	-2712
994.148	-645
994.226	-2169
994.305	-1654
994.384	-1535
994.462	-575
994.540	-2287
994.619	-1654
994.697	-1402
994.776	-1273
994.854	-1422
994.932	-1667
995.011	-2010
995.089	-1816
995.167	-1958
995.245	-959
995.324	-2044
995.402	-860
995.480	-1976
995.558	-1495
995.636	-2726
995.714	-1110
995.792	-92
995.870	-1843
995.948	-1720
996.026	-1273
996.104	-2150
996.182	-1123
996.260	-1821
996.338	-658
996.416	-2855
996.494	-787
996.572	-1186
996.649	-1194
996.727	-2161
996.805	-1325
996.883	-2885
996.960	-2378
997.038	-1468
997.116	-2005
997.193	-3227
997.271	-892
997.348	-2204
997.426	-1777
997.504	-1921
997.581	-976
997.658	-1220
997.736	-1844
997.813	-2223
997.891	-856
997.968	-1776
998.046	-2041
998.123	-1580
998.200	-2093
998.277	-2602
998.355	-1086
998.432	-1920
998.509	-1486
998.586	-1105
998.663	-1452
998.741	-873
998.818	-1059
998.895	-2059
998.972	-883
999.049	-1319
999.126	-2329
999.203	-1493
999.280	-771
999.357	-2525
999.434	-1708
999.511	-1305
999.587	-1177
999.664	-2392
999.741	-1559
999.818	-1092
999.895	-2270
999.971	-2283
1000.048	-2149
1000.125	-1371
1000.202	-1623
1000.278	-1585
1000.355	-979
1000.431	-1383
1000.508	-1955
1000.584	-1909
1000.661	-1549
1000.738	-2496
1000.814	-2155
1000.890	-1510
1000.967	-1411
1001.043	-1816
1001.120	-3212
1001.196	-1918
1001.272	-2123
1001.349	-1580
1001.425	-2099
1001.501	-2293
1001.577	-2107
1001.654	-1498
1001.730	-1754
1001.806	-2073
1001.882	-2233
1001.958	-1064
1002.034	-1211
1002.110	-1812
1002.186	-1483
1002.262	-1954
1002.338	-2687
1002.414	-2037
1002.490	-1571
1002.566	-1719
1002.642	-1844
1002.718	-1189
1002.794	-1875
1002.870	-2461
1002.945	-1704
1003.021	-1878
1003.097	-2408
1003.173	-1360
1003.248	-2028
1003.324	-2417
1003.400	-1234
1003.475	-2694
1003.551	-1964
1003.626	-2026
1003.702	-1491
1003.777	-1305
1003.853	-2008
1003.928	-1673
1004.004	-1174
1004.079	-1732
1004.155	-1536
1004.230	-2336
1004.305	-1318
1004.381	-2268
1004.456	-1535
1004.531	-2697
1004.607	-1184
1004.682	-1527
1004.757	-1366
1004.832	-2276
1004.907	-2283
1004.982	-1561
1005.057	-1871
1005.133	-2286
1005.208	-1584
1005.283	-2406
1005.358	-542
1005.433	-2935
1005.508	-1139
1005.583	-3006
1005.657	-2054
1005.732	-1118
1005.807	-2034
1005.882	-1626
1005.957	-1851
1006.032	-1354
1006.106	-2178
1006.181	-1745
1006.256	-1741
1006.331	-2312
1006.405	-2904
1006.480	-1836
1006.554	-1895
1006.629	-1727
1006.704	-2592
1006.778	-2321
1006.853	-1536
1006.927	-2709
1007.002	-2147
1007.076	-2237
1007.150	-2334
1007.225	-2384
1007.299	-1464
1007.373	-2851
1007.448	-1675
1007.522	-1328
1007.596	-1410
1007.671	-2460
1007.745	-2203
1007.819	-2348
1007.893	-1462
1007.967	-2060
1008.041	-2488
1008.115	-2063
1008.190	-2182
1008.264	-1601
1008.338	-2719
1008.412	-1176
1008.486	-1014
1008.560	-2029
1008.633	-2301
1008.707	-1691
1008.781	-1348
1008.855	-2657
1008.929	-1676
1009.003	-1713
1009.076	-1626
1009.150	-1594
1009.224	-1414
1009.298	-1447
1009.371	-1938
1009.445	-1374
1009.519	-2035
1009.592	-2731
1009.666	-1783
1009.739	-2359
1009.813	-2769
1009.886	-1145
1009.960	-2335
1010.033	-1700
1010.107	-1400
1010.180	-2948
1010.253	-2020
1010.327	-2135
1010.400	-2154
1010.473	-2360
1010.547	-1574
1010.620	-2377
1010.693	-1998
1010.766	-1920
1010.840	-1292
1010.913	-1619
1010.986	-2873
1011.059	-2102
1011.132	-2233
1011.205	-2073
1011.278	-1690
1011.351	-1998
1011.424	-1417
1011.497	-2300
1011.570	-1979
1011.643	-2241
1011.716	-2022
1011.789	-1425
1011.862	-831
1011.934	-1573
1012.007	-2381
1012.080	-2474
1012.153	-2100
1012.225	-1395
1012.298	-2127
1012.371	-2002
1012.443	-1208
1012.516	-2643
1012.588	-2000
1012.661	-1810
1012.733	-2205
1012.806	-1922
1012.879	-1875
1012.951	-2503
1013.023	-2303
1013.096	-1394
1013.168	-2386
1013.241	-1504
1013.313	-2047
1013.385	-2118
1013.458	-1881
1013.530	-1471
1013.602	-2469
1013.674	-1325
1013.746	-1900
1013.819	-2246
1013.891	-1478
1013.963	-2566
1014.035	-1974
1014.107	-1238
1014.179	-1057
1014.251	-1976
1014.323	-1895
1014.395	-1654
1014.467	-1898
1014.539	-1654
1014.611	-2564
1014.683	-1917
1014.754	-1592
1014.826	-3145
1014.898	-1460
1014.970	-2814
1015.042	-1326
1015.113	-1658
1015.185	-2268
1015.257	-2354
1015.328	-1954
1015.400	-2693
1015.471	-1872
1015.543	-3180
1015.615	-2015
1015.686	-2024
1015.757	-1782
1015.829	-2514
1015.901	-1900
1015.972	-1791
1016.043	-1255
1016.115	-2185
1016.186	-1677
1016.257	-2701
1016.328	-1529
1016.400	-2449
1016.471	-3316
1016.542	-1506
1016.613	-2200
1016.685	-2374
1016.756	-1455
1016.827	-2544
1016.898	-2625
1016.969	-1761
1017.040	-2253
1017.111	-1994
1017.182	-2387
1017.253	-1846
1017.324	-2297
1017.395	-1857
1017.466	-1655
1017.537	-1869
1017.608	-1962
1017.678	-2539
1017.749	-1529
1017.820	-1928
1017.891	-2417
1017.961	-2834
1018.032	-2428
1018.103	-2015
1018.173	-1434
1018.244	-2868
1018.315	-1950
1018.385	-1708
1018.456	-2066
1018.526	-2668
1018.597	-2100
1018.667	-2313
1018.738	-2349
1018.808	-2529
1018.878	-1848
1018.949	-2014
1019.019	-2358
1019.089	-2668
1019.160	-1554
1019.230	-3118
1019.300	-1657
1019.371	-2752
1019.441	-1625
1019.511	-1737
1019.581	-2171
1019.651	-2112
1019.721	-1899
1019.791	-2084
1019.861	-2002
1019.931	-1958
1020.001	-2237
1020.071	-1688
1020.141	-2159
1020.211	-2941
1020.281	-2170
1020.351	-2177
1020.421	-2172
1020.491	-1479
1020.560	-2402
1020.630	-2262
1020.700	-2263
1020.770	-2538
1020.839	-1914
1020.909	-2864
1020.979	-2454
1021.048	-1810
1021.118	-2130
1021.187	-2549
1021.257	-2295
1021.326	-1867
1021.396	-2111
1021.465	-1895
1021.535	-2664
1021.604	-2014
1021.674	-1782
1021.743	-1954
1021.812	-2185
1021.882	-2160
1021.951	-2572
1022.020	-2419
1022.089	-1840
1022.159	-2730
1022.228	-1615
1022.297	-2188
1022.366	-2227
1022.435	-2197
1022.504	-2127
1022.573	-2306
1022.642	-1251
1022.711	-2379
1022.781	-2376
1022.849	-2057
1022.918	-2561
1022.987	-1612
1023.056	-2550
1023.125	-1685
1023.194	-1956
1023.263	-2742
1023.331	-2116
1023.400	-2414
1023.469	-2651
1023.538	-1730
1023.606	-2013
1023.675	-2412
1023.744	-2129
1023.812	-2222
1023.881	-2478
1023.949	-1858
1024.018	-2010
1024.086	-2393
1024.155	-2713
1024.223	-2110
1024.292	-1951
1024.360	-1940
1024.429	-2263
1024.497	-2072
1024.565	-2062
1024.634	-2510
1024.702	-1711
1024.770	-2966
1024.838	-2406
1024.907	-1972
1024.975	-1628
1025.043	-2556
1025.111	-2156
1025.179	-1831
1025.247	-2582
1025.315	-1625
1025.383	-2597
1025.451	-2423
1025.519	-3031
1025.587	-2617
1025.655	-2314
1025.723	-1808
1025.791	-2421
1025.859	-2023
1025.927	-1862
1025.995	-1881
1026.062	-2081
1026.130	-1853
1026.198	-1744
1026.266	-2162
1026.333	-1859
1026.401	-1771
1026.469	-1775
1026.536	-2278
1026.604	-1955
1026.671	-2711
1026.739	-2389
1026.806	-2479
1026.874	-2127
1026.941	-2081
1027.009	-2673
1027.076	-2518
1027.144	-2086
1027.211	-2553
1027.278	-2657
1027.345	-1951
1027.413	-2511
1027.480	-3522
1027.547	-2581
1027.614	-1899
1027.682	-2344
1027.749	-2495
1027.816	-1731
1027.883	-2701
1027.950	-2108
1028.017	-2371
1028.084	-2529
1028.151	-2540
1028.218	-2218
1028.285	-2784
1028.352	-2089
1028.419	-2358
1028.486	-1839
1028.553	-1789
1028.619	-2098
1028.686	-2500
1028.753	-1940
1028.820	-3077
1028.886	-2587
1028.953	-2021
1029.020	-1993
1029.086	-2472
1029.153	-2187
1029.220	-2548
1029.286	-1683
1029.353	-2981
1029.419	-2140
1029.486	-1726
1029.552	-2261
1029.619	-1750
1029.685	-2604
1029.751	-2429
1029.818	-1104
1029.884	-1278
1029.951	-1126
1030.017	-2328
1030.083	-2537
1030.149	-1935
1030.216	-2254
1030.282	-2389
1030.348	-1824
1030.414	-2693
1030.480	-2585
1030.546	-2763
1030.612	-1367
1030.678	-2769
1030.744	-1386
1030.810	-1722
1030.876	-1535
1030.942	-2367
1031.008	-2005
1031.074	-3076
1031.140	-1679
1031.206	-1962
1031.272	-2293
1031.337	-2162
1031.403	-1786
1031.469	-2148
1031.534	-1708
1031.600	-2321
1031.666	-3179
1031.731	-2636
1031.797	-2196
1031.863	-1921
1031.928	-1983
1031.994	-2045
1032.059	-2273
1032.125	-2000
1032.190	-2358
1032.256	-3135
1032.321	-2801
1032.386	-2845
1032.452	-1056
1032.517	-2715
1032.582	-2365
1032.647	-1709
1032.713	-1412
1032.778	-1965
1032.843	-2383
1032.908	-2157
1032.974	-2025
1033.039	-2215
1033.104	-2412
1033.169	-2664
1033.234	-2372
1033.299	-1776
1033.364	-1206
1033.429	-2797
1033.494	-1687
1033.559	-2743
1033.624	-2220
1033.688	-2210
1033.753	-2388
1033.818	-2333
1033.883	-2092
1033.948	-1976
1034.013	-2691
1034.077	-2183
1034.142	-1708
1034.207	-2778
1034.271	-1279
1034.336	-1363
1034.400	-1953
1034.465	-2266
1034.530	-1550
1034.594	-1545
1034.658	-2290
1034.723	-2724
1034.787	-2137
1034.852	-2531
1034.916	-2162
1034.981	-2149
1035.045	-2028
1035.109	-1805
1035.173	-1712
1035.238	-2293
1035.302	-2103
1035.366	-2312
1035.430	-2289
1035.495	-2355
1035.559	-2083
1035.623	-1951
1035.687	-2461
1035.751	-2695
1035.815	-1928
1035.879	-1873
1035.943	-2192
1036.007	-3488
1036.071	-2269
1036.135	-2122
1036.198	-2657
1036.262	-3013
1036.326	-2179
1036.390	-2576
1036.454	-1920
1036.517	-2223
1036.581	-2736
1036.645	-2143
1036.709	-1739
1036.772	-1848
1036.836	-1843
1036.900	-2198
1036.963	-2382
1037.026	-1634
1037.090	-2051
1037.154	-1934
1037.217	-2262
1037.280	-2726
1037.344	-2538
1037.407	-2576
1037.471	-2555
1037.534	-1976
1037.597	-2544
1037.661	-3010
1037.724	-2094
1037.787	-2557
1037.850	-1808
1037.913	-1844
1037.977	-1637
1038.040	-2631
1038.103	-1969
1038.166	-2412
1038.229	-1645
1038.292	-2549
1038.355	-2859
1038.418	-2213
1038.481	-1404
1038.544	-2068
1038.607	-1803
1038.670	-2441
1038.732	-2255
1038.795	-1858
1038.858	-1978
1038.921	-2628
1038.984	-1347
1039.046	-2281
1039.109	-2059
1039.172	-1811
1039.234	-2625
1039.297	-2544
1039.360	-2237
1039.422	-3165
1039.485	-1530
1039.547	-2675
1039.610	-2231
1039.672	-2084
1039.734	-2310
1039.797	-1336
1039.859	-1680
1039.922	-2075
1039.984	-1823
1040.046	-2007
1040.109	-2286
1040.171	-2409
1040.233	-2312
1040.295	-1305
1040.358	-2422
1040.420	-2221
1040.482	-2434
1040.544	-2602
1040.606	-2501
1040.668	-2663
1040.730	-2637
1040.792	-3074
1040.854	-2235
1040.916	-2088
1040.978	-1985
1041.040	-1766
1041.102	-1512
1041.164	-2443
1041.225	-2231
1041.287	-2753
1041.349	-2854
1041.411	-2445
1041.472	-2588
1041.534	-2560
1041.596	-2250
1041.657	-2087
1041.719	-1716
1041.781	-2767
1041.842	-2828
1041.904	-1906
1041.965	-1487
1042.027	-2367
1042.088	-2018
1042.150	-2195
1042.211	-1953
1042.272	-2151
1042.334	-2668
1042.395	-2551
1042.456	-2147
1042.518	-2140
1042.579	-1722
1042.640	-2233
1042.701	-1978
1042.763	-1646
1042.824	-1554
1042.885	-1962
1042.946	-1830
1043.007	-2573
1043.068	-2401
1043.129	-2693
1043.190	-2164
1043.251	-1692
1043.312	-2409
1043.373	-2151
1043.434	-1927
1043.495	-2502
1043.556	-2873
1043.616	-2287
1043.677	-2500
1043.738	-2542
1043.799	-2673
1043.859	-1618
1043.920	-1684
1043.981	-1952
1044.041	-1851
1044.102	-2244
1044.162	-1832
1044.223	-2816
1044.284	-2703
1044.344	-1635
1044.405	-2012
1044.465	-2725
1044.525	-2204
1044.586	-2055
1044.646	-2349
1044.707	-2011
1044.767	-2476
1044.827	-2185
1044.887	-1475
1044.948	-1780
1045.008	-2105
1045.068	-2087
1045.128	-1669
1045.188	-2374
1045.249	-1451
1045.309	-2235
1045.369	-2132
1045.429	-2222
1045.489	-2793
1045.549	-1927
1045.609	-1786
1045.669	-1997
1045.729	-1259
1045.789	-2094
1045.848	-1722
1045.908	-1187
1045.968	-1579
1046.028	-1999
1046.088	-910
1046.147	-2430
1046.207	-1477
1046.267	-1670
1046.326	-2503
1046.386	-1632
1046.446	-1108
1046.505	-1053
1046.565	-727
1046.624	-1272
1046.684	-1325
1046.743	-785
1046.803	-1395
1046.862	-521
1046.922	0
