'Start Wavelength	183.907
'End Wavelength	1046.922
'Gate Delay	5.000
'Gate Width (ms)	1.050
'Laser Output Level	0.000
'X Position	0.000
'Y Position	0.000
'Z Position	0.000
'Grid Point Number	1.000
'Shot Number	100.000
183.907	212.000
183.977	-522.000
184.047	454
184.116	439
184.186	-134
184.256	350
184.325	-350
184.395	211
184.465	1020
184.534	-28
184.604	19
184.674	-179
184.743	339
184.813	719
184.883	246
184.952	-347
185.022	369
185.092	502
185.161	-56
185.231	507
185.301	-182
185.370	108
185.440	-582
185.509	-264
185.579	547
185.649	288
185.718	383
185.788	-91
185.857	-170
185.927	226
185.996	-353
186.066	397
186.136	-135
186.205	296
186.275	178
186.344	461
186.414	422
186.483	-1065
186.553	291
186.622	111
186.692	206
186.761	67
186.831	-261
186.900	679
186.970	680
187.039	-131
187.109	362
187.178	801
187.248	1044
187.317	35
187.387	159
187.456	540
187.526	-107
187.595	618
187.664	80
187.734	522
187.803	562
187.873	-153
187.942	-275
188.012	-432
188.081	-235
188.150	82
188.220	590
188.289	-67
188.358	249
188.428	108
188.497	-78
188.567	39
188.636	72
188.705	-306
188.775	466
188.844	140
188.913	327
188.983	247
189.052	803
189.121	-192
189.191	-161
189.260	96
189.329	-453
189.399	102
189.468	338
189.537	27
189.606	73
189.676	-364
189.745	-201
189.814	111
189.883	242
189.953	-389
190.022	4
190.091	167
190.161	99
190.230	171
190.299	284
190.368	-15
190.437	102
190.507	86
190.576	-174
190.645	202
190.714	401
190.783	-614
190.853	-190
190.922	-678
190.991	89
191.060	177
191.129	304
191.198	39
191.268	-111
191.337	-167
191.406	37
191.475	681
191.544	-398
191.613	-282
191.682	-863
191.752	-216
191.821	290
191.890	-1265
191.959	656
192.028	147
192.097	726
192.166	137
192.235	-568
192.304	-173
192.373	467
192.442	-448
192.511	-14
192.580	-174
192.650	-45
192.719	-125
192.788	99
192.857	190
192.926	169
192.995	-275
193.064	-170
193.133	-312
193.202	-101
193.271	127
193.340	-243
193.409	-275
193.478	53
193.547	-974
193.615	-84
193.684	-34
193.753	-540
193.822	516
193.891	189
193.960	-135
194.029	272
194.098	-432
194.167	126
194.236	242
194.305	120
194.374	-264
194.443	-217
194.512	-529
194.580	223
194.649	276
194.718	-199
194.787	152
194.856	40
194.925	-187
194.994	341
195.062	220
195.131	172
195.200	-460
195.269	-239
195.338	-99
195.407	326
195.475	-60
195.544	87
195.613	184
195.682	-26
195.751	-591
195.819	-591
195.888	397
195.957	346
196.026	-462
196.094	510
196.163	-510
196.232	149
196.301	402
196.369	-281
196.438	-167
196.507	36
196.576	-329
196.644	406
196.713	-620
196.782	-380
196.850	-330
196.919	-187
196.988	-436
197.056	-289
197.125	49
197.194	-53
197.262	-373
197.331	-292
197.400	-128
197.468	-736
197.537	-440
197.606	678
197.674	-353
197.743	196
197.812	201
197.880	-206
197.949	-63
198.017	319
198.086	-729
198.155	-48
198.223	295
198.292	-206
198.360	-105
198.429	-196
198.497	85
198.566	-472
198.635	-311
198.703	-64
198.772	263
198.840	230
198.909	-152
198.977	-374
199.046	-215
199.114	447
199.183	208
199.251	-5
199.320	14
199.388	-26
199.457	-162
199.525	-315
199.594	-286
199.662	142
199.731	21
199.799	-330
199.867	-386
199.936	-28
200.004	-312
200.073	80
200.141	-294
200.210	-528
200.278	-178
200.346	-70
200.415	213
200.483	708
200.552	-962
200.620	548
200.688	67
200.757	291
200.825	-80
200.893	-637
200.962	48
201.030	-194
201.098	449
201.167	483
201.235	-417
201.303	517
201.372	-405
201.440	562
201.508	-707
201.577	-381
201.645	-577
201.713	-135
201.781	29
201.850	-127
201.918	-524
201.986	65
202.055	-53
202.123	-4
202.191	56
202.259	476
202.327	-287
202.396	297
202.464	-456
202.532	-69
202.600	-171
202.669	-488
202.737	64
202.805	35
202.873	-25
202.941	362
203.009	117
203.078	-689
203.146	18
203.214	-323
203.282	-395
203.350	415
203.418	612
203.487	619
203.555	329
203.623	287
203.691	16
203.759	26
203.827	-664
203.895	-470
203.963	-419
204.031	123
204.099	143
204.168	-301
204.236	-292
204.304	209
204.372	236
204.440	-219
204.508	-165
204.576	-279
204.644	103
204.712	101
204.780	-825
204.848	-326
204.916	-192
204.984	-383
205.052	-443
205.120	-48
205.188	-382
205.256	-322
205.324	-478
205.392	-535
205.460	-8
205.528	386
205.596	278
205.664	181
205.732	-1350
205.799	-223
205.867	-296
205.935	-292
206.003	-25
206.071	-188
206.139	-1189
206.207	-387
206.275	-413
206.343	-1042
206.411	-590
206.478	-73
206.546	-730
206.614	147
206.682	-872
206.750	-302
206.818	-177
206.885	754
206.953	-565
207.021	1005
207.089	-406
207.157	-238
207.225	-123
207.292	-114
207.360	-396
207.428	-387
207.496	159
207.563	165
207.631	30
207.699	-379
207.767	-94
207.834	-520
207.902	18
207.970	-411
208.038	-847
208.105	506
208.173	-314
208.241	-591
208.309	251
208.376	139
208.444	-372
208.512	-27
208.579	-449
208.647	-42
208.715	-137
208.782	49
208.850	-413
208.918	-721
208.985	-744
209.053	-350
209.120	68
209.188	-741
209.256	-432
209.323	-687
209.391	-298
209.459	826
209.526	312
209.594	-299
209.661	116
209.729	519
209.796	-480
209.864	-390
209.932	-1366
209.999	33
210.067	-413
210.134	-77
210.202	-473
210.269	-193
210.337	-28
210.404	183
210.472	44
210.539	-424
210.607	-200
210.674	-318
210.742	-1001
210.809	-114
210.877	50
210.944	219
211.012	-678
211.079	212
211.146	-455
211.214	-680
211.281	38
211.349	217
211.416	96
211.484	-466
211.551	-942
211.618	-396
211.686	-401
211.753	-227
211.821	-120
211.888	105
211.955	-526
212.023	-251
212.090	-966
212.157	245
212.225	-168
212.292	-255
212.359	403
212.427	-117
212.494	-197
212.561	-895
212.629	-347
212.696	-177
212.763	185
212.831	-457
212.898	-173
212.965	-175
213.032	-604
213.100	-153
213.167	-472
213.234	666
213.301	215
213.369	-701
213.436	-60
213.503	96
213.570	184
213.638	-660
213.705	-562
213.772	-734
213.839	-943
213.906	-276
213.973	107
214.041	-407
214.108	-735
214.175	83
214.242	-375
214.309	-219
214.376	-1139
214.444	-467
214.511	-150
214.578	241
214.645	412
214.712	235
214.779	-233
214.846	-726
214.913	351
214.980	-634
215.048	10
215.115	-487
215.182	-681
215.249	219
215.316	-444
215.383	185
215.450	64
215.517	-593
215.584	-256
215.651	819
215.718	-1025
215.785	-511
215.852	-643
215.919	161
215.986	-168
216.053	-45
216.120	-260
216.187	-148
216.254	253
216.321	-267
216.388	-323
216.455	930
216.522	-175
216.589	-649
216.656	514
216.722	200
216.789	-934
216.856	-573
216.923	836
216.990	-72
217.057	24
217.124	110
217.191	-283
217.258	-402
217.324	-43
217.391	625
217.458	62
217.525	405
217.592	-300
217.659	-1111
217.725	-149
217.792	198
217.859	-82
217.926	112
217.993	357
218.059	467
218.126	77
218.193	106
218.260	-186
218.327	-618
218.393	-493
218.460	-233
218.527	-688
218.594	101
218.660	-244
218.727	143
218.794	-284
218.860	797
218.927	-169
218.994	-529
219.061	-868
219.127	-468
219.194	-793
219.261	-249
219.327	-664
219.394	-352
219.461	-804
219.527	-52
219.594	-990
219.661	-318
219.727	-780
219.794	430
219.860	-188
219.927	-180
219.994	485
220.060	-147
220.127	210
220.193	-236
220.260	-192
220.326	-174
220.393	-561
220.460	1062
220.526	26
220.593	-58
220.659	359
220.726	-12
220.792	-3
220.859	-348
220.925	-216
220.992	663
221.058	75
221.125	971
221.191	643
221.258	-835
221.324	-9
221.391	-495
221.457	-1086
221.524	-140
221.590	-37
221.657	2
221.723	542
221.789	605
221.856	-450
221.922	-441
221.989	-579
222.055	-488
222.121	-892
222.188	805
222.254	-910
222.321	198
222.387	-533
222.453	-529
222.520	-154
222.586	-572
222.652	-209
222.719	-763
222.785	-119
222.851	-359
222.918	-328
222.984	-336
223.050	1
223.116	-1737
223.183	25
223.249	-453
223.315	-519
223.382	10
223.448	-541
223.514	-1003
223.580	-458
223.647	-877
223.713	-801
223.779	321
223.845	-225
223.911	-366
223.978	-199
224.044	196
224.110	-425
224.176	60
224.242	-210
224.309	-1363
224.375	-422
224.441	-152
224.507	-197
224.573	-772
224.639	-524
224.705	75
224.772	-1249
224.838	-50
224.904	849
224.970	-229
225.036	-869
225.102	-567
225.168	-187
225.234	184
225.300	143
225.366	-152
225.432	3
225.499	-134
225.565	222
225.631	-1140
225.697	-379
225.763	-867
225.829	-475
225.895	-63
225.961	195
226.027	151
226.093	-317
226.159	-359
226.225	268
226.291	995
226.357	1963
226.423	681
226.489	240
226.554	-653
226.620	-619
226.686	184
226.752	-437
226.818	392
226.884	1822
226.950	1636
227.016	-467
227.082	984
227.148	-496
227.214	-46
227.279	-350
227.345	-405
227.411	-157
227.477	-121
227.543	127
227.609	-21
227.674	-76
227.740	197
227.806	-127
227.872	110
227.938	-262
228.003	293
228.069	-439
228.135	215
228.201	-429
228.267	-692
228.332	-435
228.398	-486
228.464	730
228.530	-287
228.595	-235
228.661	-568
228.727	-495
228.792	302
228.858	-664
228.924	-622
228.990	159
229.055	-589
229.121	-254
229.187	-207
229.252	-137
229.318	-169
229.384	-20
229.449	-95
229.515	-1428
229.581	-1262
229.646	823
229.712	-536
229.777	-193
229.843	-64
229.909	-817
229.974	141
230.040	-398
230.105	153
230.171	-883
230.236	812
230.302	-65
230.368	-738
230.433	-848
230.499	24
230.564	-273
230.630	-1301
230.695	-489
230.761	-124
230.826	-488
230.892	-23
230.957	-424
231.023	-889
231.088	-219
231.154	341
231.219	-314
231.284	-402
231.350	-364
231.415	-501
231.481	-543
231.546	-331
231.612	-371
231.677	-849
231.742	-579
231.808	728
231.873	-295
231.939	-1768
232.004	170
232.069	-188
232.135	-600
232.200	-74
232.265	-136
232.331	-73
232.396	-687
232.461	-58
232.527	-911
232.592	-660
232.657	-958
232.723	-6
232.788	-544
232.853	1300
232.918	-676
232.984	-822
233.049	-1261
233.114	-451
233.179	-383
233.245	-638
233.310	-725
233.375	-1168
233.440	205
233.506	-834
233.571	-1785
233.636	191
233.701	-647
233.766	118
233.832	-734
233.897	-787
233.962	-1499
234.027	-232
234.092	-441
234.157	-148
234.222	-855
234.288	-103
234.353	191
234.418	327
234.483	110
234.548	-598
234.613	-192
234.678	132
234.743	-707
234.808	-186
234.873	-998
234.938	280
235.004	-1014
235.069	-815
235.134	-688
235.199	-848
235.264	-272
235.329	-811
235.394	80
235.459	121
235.524	-835
235.589	-650
235.654	-448
235.719	-1053
235.784	58
235.849	-675
235.913	-632
235.978	-146
236.043	-316
236.108	-1083
236.173	-806
236.238	-151
236.303	-1361
236.368	-1326
236.433	507
236.498	296
236.563	-413
236.627	293
236.692	1902
236.757	1404
236.822	1125
236.887	-812
236.952	175
237.017	-891
237.081	824
237.146	-259
237.211	235
237.276	2322
237.341	3724
237.405	1521
237.470	348
237.535	-130
237.600	67
237.664	452
237.729	-1163
237.794	-961
237.859	163
237.923	-212
237.988	-362
238.053	-369
238.118	-811
238.182	26
238.247	695
238.312	-611
238.376	332
238.441	-1369
238.506	637
238.570	-1661
238.635	-65
238.700	93
238.764	-918
238.829	219
238.893	-661
238.958	-695
239.023	-853
239.087	-283
239.152	42
239.216	-603
239.281	-244
239.346	-572
239.410	-818
239.475	-687
239.539	-88
239.604	-971
239.668	-355
239.733	13
239.797	309
239.862	915
239.926	-157
239.991	-192
240.055	-615
240.120	-675
240.184	-632
240.249	-563
240.313	-541
240.378	-212
240.442	21
240.507	189
240.571	-744
240.635	-403
240.700	58
240.764	71
240.829	-538
240.893	-1366
240.957	-571
241.022	1254
241.086	-203
241.151	-946
241.215	-713
241.279	71
241.344	-821
241.408	-70
241.472	-1195
241.537	549
241.601	187
241.665	-789
241.730	-51
241.794	379
241.858	-547
241.922	113
241.987	-257
242.051	-851
242.115	-644
242.179	-328
242.244	-1032
242.308	807
242.372	-361
242.436	-913
242.501	-964
242.565	-1212
242.629	-428
242.693	121
242.757	-554
242.822	-804
242.886	137
242.950	209
243.014	-1398
243.078	-93
243.142	-255
243.206	-907
243.271	-373
243.335	-399
243.399	-431
243.463	209
243.527	1880
243.591	-802
243.655	-332
243.719	-1076
243.783	46
243.847	-338
243.911	54
243.975	-846
244.040	-1512
244.104	114
244.168	213
244.232	-583
244.296	-275
244.360	-22
244.424	-1229
244.488	-315
244.552	181
244.615	-970
244.679	-135
244.743	-655
244.807	-605
244.871	-287
244.935	-192
244.999	-690
245.063	-112
245.127	-187
245.191	-1047
245.255	-171
245.319	-431
245.383	-1329
245.446	825
245.510	-1095
245.574	-1042
245.638	-66
245.702	-1406
245.766	-312
245.829	373
245.893	-701
245.957	-718
246.021	-342
246.085	-793
246.149	63
246.212	1522
246.276	27
246.340	-410
246.404	-760
246.467	-328
246.531	-1072
246.595	894
246.659	-350
246.722	-427
246.786	-613
246.850	-47
246.913	-421
246.977	-972
247.041	36
247.104	-768
247.168	-587
247.232	138
247.295	624
247.359	-293
247.423	48
247.486	37
247.550	274
247.614	-661
247.677	-213
247.741	352
247.804	-881
247.868	-320
247.932	-527
247.995	1165
248.059	-859
248.122	-980
248.186	18
248.249	198
248.313	1685
248.376	1708
248.440	392
248.503	-1550
248.567	46
248.630	-637
248.694	-21
248.757	113
248.821	1313
248.884	1070
248.948	-320
249.011	862
249.075	2383
249.138	1615
249.202	213
249.265	-772
249.328	380
249.392	-597
249.455	362
249.519	-626
249.582	-488
249.645	-290
249.709	-392
249.772	-741
249.835	-173
249.899	-578
249.962	85
250.025	-1336
250.089	206
250.152	562
250.215	-441
250.279	-846
250.342	-312
250.405	260
250.468	-604
250.532	-896
250.595	98
250.658	704
250.721	3572
250.785	485
250.848	1233
250.911	-75
250.974	90
251.038	-941
251.101	705
251.164	-220
251.227	156
251.290	43
251.354	251
251.417	3420
251.480	2803
251.543	1372
251.606	6166
251.669	3599
251.732	1655
251.795	1378
251.859	2295
251.922	3001
251.985	945
252.048	647
252.111	583
252.174	-408
252.237	548
252.300	1922
252.363	1898
252.426	4937
252.489	1155
252.552	227
252.615	-786
252.678	425
252.741	1834
252.804	529
252.867	5099
252.930	2204
252.993	311
253.056	999
253.119	-164
253.182	-573
253.245	-519
253.308	401
253.371	-646
253.434	-297
253.497	585
253.559	1194
253.622	370
253.685	-566
253.748	235
253.811	-1216
253.874	1046
253.937	-394
254.000	-296
254.062	343
254.125	762
254.188	1644
254.251	45
254.314	-133
254.376	-655
254.439	-5
254.502	-81
254.565	-35
254.628	1403
254.690	-494
254.753	-898
254.816	-595
254.878	-149
254.941	263
255.004	348
255.067	-246
255.129	-748
255.192	-741
255.255	-731
255.317	-230
255.380	5
255.443	-920
255.505	-527
255.568	-217
255.631	411
255.693	-530
255.756	-1400
255.819	-539
255.881	-653
255.944	391
256.006	-19
256.069	-718
256.132	-1380
256.194	-557
256.257	-10
256.319	-1096
256.382	-866
256.444	-364
256.507	-648
256.569	-1478
256.632	446
256.694	-1019
256.757	2053
256.819	4088
256.882	-586
256.944	-577
257.007	670
257.069	-500
257.132	-214
257.194	3
257.257	-804
257.319	-474
257.381	-1121
257.444	1310
257.506	4978
257.569	5029
257.631	1489
257.693	1085
257.756	-142
257.818	-921
257.880	-619
257.943	-287
258.005	-1005
258.067	-240
258.130	-458
258.192	-285
258.254	-376
258.317	-335
258.379	-931
258.441	-397
258.503	908
258.566	-1086
258.628	415
258.690	-863
258.753	371
258.815	-187
258.877	-621
258.939	-841
259.001	-72
259.064	-46
259.126	-578
259.188	-283
259.250	-361
259.312	-470
259.375	219
259.437	-1134
259.499	-756
259.561	-813
259.623	-595
259.685	-822
259.747	-267
259.809	-502
259.872	150
259.934	1030
259.996	1297
260.058	184
260.120	-984
260.182	-451
260.244	-1049
260.306	-119
260.368	156
260.430	-1614
260.492	92
260.554	400
260.616	-396
260.678	-61
260.740	-327
260.802	-1088
260.864	-153
260.926	-1833
260.988	-32
261.050	-365
261.112	33
261.174	1820
261.236	299
261.298	-1222
261.359	96
261.421	443
261.483	-1335
261.545	-417
261.607	-1562
261.669	-584
261.731	-422
261.793	344
261.854	-1082
261.916	-293
261.978	-467
262.040	-938
262.102	726
262.164	-601
262.225	-673
262.287	-181
262.349	-829
262.411	-1149
262.472	13
262.534	-1337
262.596	-497
262.658	-366
262.719	-1047
262.781	-67
262.843	-870
262.904	-464
262.966	-690
263.028	-818
263.090	728
263.151	1619
263.213	139
263.275	-980
263.336	-504
263.398	337
263.459	-850
263.521	-759
263.583	60
263.644	-716
263.706	-793
263.767	-1221
263.829	-155
263.891	-215
263.952	-747
264.014	-1434
264.075	-853
264.137	3
264.198	145
264.260	-734
264.321	148
264.383	-333
264.444	1821
264.506	-872
264.567	-616
264.629	1427
264.690	-246
264.752	-97
264.813	-189
264.875	-1144
264.936	-722
264.998	-633
265.059	-635
265.120	-398
265.182	-184
265.243	1497
265.305	1229
265.366	-710
265.427	-581
265.489	-355
265.550	-1458
265.611	-766
265.673	-946
265.734	-1105
265.795	-1072
265.857	-727
265.918	-1480
265.979	241
266.040	3607
266.102	2332
266.163	1053
266.224	-281
266.286	-436
266.347	-1309
266.408	-522
266.469	-297
266.530	-442
266.592	-969
266.653	-24
266.714	-377
266.775	-1013
266.836	-451
266.898	-1055
266.959	-902
267.020	-796
267.081	-458
267.142	-1245
267.203	-1176
267.264	-1364
267.326	-354
267.387	-1079
267.448	-1197
267.509	-1055
267.570	-1091
267.631	-1169
267.692	-1073
267.753	-1352
267.814	-1294
267.875	-1150
267.936	264
267.997	-78
268.058	-436
268.119	-1235
268.180	-1094
268.241	-1609
268.302	-672
268.363	-944
268.424	-788
268.485	-888
268.546	-1535
268.607	-425
268.668	-1404
268.729	-1000
268.790	-1736
268.851	-292
268.912	-463
268.972	-691
269.033	-1247
269.094	-1046
269.155	8
269.216	-1434
269.277	-1339
269.338	-901
269.398	-1355
269.459	-1496
269.520	-845
269.581	-1192
269.642	-808
269.702	-637
269.763	-1144
269.824	-1553
269.885	-520
269.945	140
270.006	-815
270.067	-1362
270.128	-1292
270.188	-1113
270.249	-1622
270.310	-1608
270.370	-672
270.431	-796
270.492	-1942
270.553	-1528
270.613	-702
270.674	-276
270.734	-728
270.795	-556
270.856	-503
270.916	-1442
270.977	-1159
271.038	-793
271.098	-803
271.159	-428
271.219	-1398
271.280	-1189
271.340	-277
271.401	-267
271.462	-839
271.522	-933
271.583	-955
271.643	-571
271.704	-1536
271.764	-379
271.825	-763
271.885	2275
271.946	1063
272.006	91
272.066	1023
272.127	1781
272.187	-132
272.248	-747
272.308	-1296
272.369	671
272.429	582
272.489	-316
272.550	-1402
272.610	-529
272.671	-764
272.731	-48
272.791	-423
272.852	-1209
272.912	-1029
272.972	-1541
273.033	-758
273.093	-1343
273.153	-1035
273.214	-206
273.274	-1159
273.334	685
273.394	899
273.455	-409
273.515	-242
273.575	737
273.635	-824
273.696	212
273.756	1114
273.816	-893
273.876	-262
273.936	-202
273.997	1163
274.057	-1357
274.117	-1281
274.177	-390
274.237	1804
274.297	1373
274.358	730
274.418	699
274.478	285
274.538	-1327
274.598	-1195
274.658	131
274.718	188
274.778	-629
274.838	-1048
274.898	-793
274.958	-310
275.018	1159
275.078	360
275.138	-190
275.198	-795
275.258	-1281
275.318	-549
275.378	-300
275.438	-216
275.498	-522
275.558	-546
275.618	1247
275.678	209
275.738	766
275.798	-715
275.858	-884
275.918	-877
275.978	-835
276.038	-268
276.098	-971
276.157	-618
276.217	272
276.277	-940
276.337	-404
276.397	-1510
276.457	-459
276.517	-467
276.576	-1218
276.636	-1388
276.696	-1136
276.756	122
276.815	-506
276.875	-645
276.935	-940
276.995	-572
277.055	-1085
277.114	-1157
277.174	-1604
277.234	446
277.293	-803
277.353	-805
277.413	-813
277.472	-1684
277.532	-1215
277.592	-904
277.651	-1053
277.711	-195
277.771	-1138
277.830	1688
277.890	765
277.950	-32
278.009	2732
278.069	-213
278.128	351
278.188	-10
278.248	-625
278.307	477
278.367	-125
278.426	-1232
278.486	-857
278.545	-840
278.605	-1217
278.664	-1022
278.724	-784
278.783	-68
278.843	1247
278.902	-360
278.962	-754
279.021	-919
279.081	69
279.140	-762
279.199	-821
279.259	-135
279.318	-447
279.378	81
279.437	-34
279.496	4099
279.556	8025
279.615	6117
279.675	1638
279.734	-542
279.793	731
279.853	2676
279.912	480
279.971	-862
280.031	-663
280.090	458
280.149	2056
280.208	511
280.268	5497
280.327	5565
280.386	116
280.445	-149
280.505	-187
280.564	-899
280.623	-988
280.682	-1099
280.742	68
280.801	-1025
280.860	-1029
280.919	-540
280.978	-1062
281.037	-1012
281.097	-1591
281.156	-1375
281.215	-731
281.274	-1234
281.333	1196
281.392	117
281.451	-309
281.510	-731
281.569	-1162
281.628	-1014
281.688	82
281.747	-463
281.806	-1377
281.865	-1292
281.924	-794
281.983	-491
282.042	-1464
282.101	-960
282.160	-607
282.219	-1561
282.278	-1064
282.337	36
282.396	-918
282.454	-1090
282.513	-114
282.572	300
282.631	-678
282.690	-919
282.749	-1284
282.808	-370
282.867	-478
282.926	-712
282.985	-470
283.043	-1284
283.102	-698
283.161	-995
283.220	108
283.279	307
283.338	-937
283.396	-1159
283.455	-647
283.514	-512
283.573	-1267
283.631	-176
283.690	-1036
283.749	-1041
283.808	-247
283.866	139
283.925	-1573
283.984	-1070
284.043	-983
284.101	-885
284.160	-1644
284.219	83
284.277	-623
284.336	-29
284.395	1683
284.453	606
284.512	-679
284.570	-306
284.629	-411
284.688	-242
284.746	-627
284.805	-134
284.863	85
284.922	-368
284.981	-37
285.039	379
285.098	2602
285.156	7966
285.215	16319
285.273	15494
285.332	7331
285.390	3023
285.449	1309
285.507	1367
285.566	489
285.624	-652
285.683	53
285.741	-762
285.799	-581
285.858	-1466
285.916	-232
285.975	-622
286.033	-552
286.091	-1100
286.150	-1262
286.208	-796
286.267	-1688
286.325	-783
286.383	-559
286.442	-932
286.500	-483
286.558	-1077
286.616	-1102
286.675	-637
286.733	-970
286.791	-1039
286.850	-69
286.908	-812
286.966	-605
287.024	-1316
287.083	-1112
287.141	-890
287.199	-935
287.257	-604
287.315	687
287.374	-999
287.432	367
287.490	-677
287.548	-1259
287.606	-682
287.664	-612
287.723	-751
287.781	-547
287.839	-693
287.897	-845
287.955	31
288.013	86
288.071	424
288.129	6565
288.187	19551
288.245	7997
288.303	1472
288.361	367
288.419	330
288.477	372
288.535	-655
288.593	-478
288.651	-983
288.709	-1334
288.767	-1753
288.825	-1297
288.883	-780
288.941	-810
288.999	-1409
289.057	-524
289.115	-1336
289.173	-1125
289.231	-1251
289.289	-794
289.346	-1396
289.404	-1105
289.462	-598
289.520	-106
289.578	-386
289.636	-2101
289.694	-1074
289.751	-1141
289.809	-537
289.867	-1533
289.925	222
289.983	-702
290.040	-644
290.098	-611
290.156	-1169
290.214	-584
290.271	-1205
290.329	-863
290.387	-1207
290.444	-355
290.502	-842
290.560	-987
290.617	-868
290.675	-1369
290.733	-1147
290.790	-751
290.848	-1088
290.906	-716
290.963	-705
291.021	-840
291.078	-1283
291.136	-1076
291.194	-232
291.251	2350
291.309	-120
291.366	-1080
291.424	-394
291.481	-1411
291.539	-1075
291.596	-509
291.654	-1116
291.711	-903
291.769	-864
291.826	-447
291.884	-972
291.941	-1090
291.999	-1521
292.056	-594
292.114	-1770
292.171	-1472
292.228	-1029
292.286	-605
292.343	-678
292.401	-142
292.458	-1381
292.515	-536
292.573	-705
292.630	-947
292.687	-1669
292.745	-1122
292.802	-972
292.859	974
292.917	1068
292.974	129
293.031	-576
293.089	-714
293.146	-1096
293.203	-755
293.260	-799
293.318	-677
293.375	-101
293.432	-300
293.489	-644
293.546	-1382
293.604	-89
293.661	540
293.718	3557
293.775	957
293.832	-826
293.889	-905
293.947	24
294.004	-922
294.061	-16
294.118	218
294.175	2273
294.232	3676
294.289	337
294.346	-879
294.403	-258
294.460	-772
294.517	-1190
294.574	-658
294.631	-637
294.688	-1294
294.745	-62
294.802	4650
294.859	6008
294.916	2385
294.973	-276
295.030	-145
295.087	-165
295.144	-257
295.201	-480
295.258	-1377
295.315	-626
295.372	1037
295.429	2408
295.486	895
295.542	952
295.599	2633
295.656	4699
295.713	2770
295.770	2632
295.827	847
295.883	316
295.940	-1071
295.997	-57
296.054	598
296.111	-785
296.167	-154
296.224	-841
296.281	-984
296.338	-901
296.394	-666
296.451	-752
296.508	965
296.564	1658
296.621	1454
296.678	2550
296.734	3974
296.791	754
296.848	86
296.904	337
296.961	1645
297.018	2500
297.074	2491
297.131	205
297.187	-386
297.244	-103
297.301	2383
297.357	5003
297.414	838
297.470	-370
297.527	-954
297.583	-470
297.640	260
297.696	-357
297.753	-181
297.809	-775
297.866	-655
297.922	-1056
297.979	-1221
298.035	-133
298.092	-599
298.148	1216
298.204	1446
298.261	-297
298.317	1413
298.374	3881
298.430	1321
298.486	-55
298.543	-123
298.599	-998
298.656	80
298.712	220
298.768	1888
298.824	937
298.881	-321
298.937	-1052
298.993	-794
299.050	-672
299.106	-647
299.162	-534
299.218	45
299.275	-307
299.331	-282
299.387	60
299.443	3402
299.500	4287
299.556	1816
299.612	630
299.668	-523
299.724	1277
299.780	1231
299.837	-8
299.893	564
299.949	3224
300.005	4757
300.061	3410
300.117	5368
300.173	2559
300.229	548
300.285	730
300.341	766
300.397	-699
300.453	-204
300.510	-497
300.566	-87
300.622	62
300.678	3478
300.734	5004
300.790	4153
300.845	3279
300.901	2927
300.957	3860
301.013	1310
301.069	-236
301.125	278
301.181	-134
301.237	-514
301.293	-779
301.349	-1277
301.405	-883
301.461	-543
301.516	-35
301.572	-598
301.628	242
301.684	5
301.740	902
301.796	1905
301.851	1173
301.907	2158
301.963	2558
302.019	3240
302.074	10384
302.130	10392
302.186	4404
302.242	1376
302.297	390
302.353	595
302.409	1207
302.464	1409
302.520	1022
302.576	3310
302.631	4650
302.687	1863
302.743	991
302.798	184
302.854	-222
302.910	219
302.965	189
303.021	1218
303.076	633
303.132	869
303.187	1090
303.243	650
303.299	-407
303.354	-899
303.410	151
303.465	-399
303.521	-175
303.576	-660
303.632	-270
303.687	152
303.743	2522
303.798	2972
303.853	1198
303.909	-356
303.964	-100
304.020	569
304.075	26
304.130	833
304.186	1960
304.241	1863
304.297	1563
304.352	523
304.358	515
304.407	450
304.449	564
304.463	604
304.518	-306
304.539	-130
304.573	149
304.629	-155
304.630	-134
304.684	827
304.720	1652
304.739	2045
304.794	3731
304.811	3205
304.850	1968
304.902	246
304.905	134
304.960	566
304.992	202
305.015	-64
305.071	-302
305.083	-298
305.126	-365
305.173	6
305.181	88
305.236	-468
305.264	-604
305.292	-791
305.347	167
305.354	152
305.402	93
305.445	245
305.457	284
305.512	454
305.535	552
305.567	705
305.622	277
305.626	287
305.678	726
305.716	3103
305.733	3986
305.788	4741
305.807	4055
305.843	2854
305.897	3935
305.898	3947
305.953	3386
305.988	2417
306.008	1892
306.063	473
306.078	485
306.118	546
306.168	-57
306.173	-106
306.228	21
306.259	-133
306.283	-306
306.338	-614
306.349	-618
306.393	-528
306.440	201
306.448	330
306.503	556
306.530	301
306.558	168
306.613	1353
306.620	1524
306.668	2571
306.711	3200
306.723	3237
306.778	2931
306.801	1916
306.833	694
306.888	-38
306.892	-44
306.943	188
306.982	22
306.997	-96
307.052	-80
307.072	-18
307.107	262
307.162	185
307.163	192
307.217	902
307.253	981
307.272	1006
307.327	1713
307.343	1391
307.381	601
307.434	917
307.436	959
307.491	1340
307.524	2965
307.546	3798
307.600	3557
307.614	3274
307.655	2275
307.704	885
307.710	773
307.765	750
307.795	974
307.819	1300
307.874	2616
307.885	2674
307.929	2515
307.975	2383
307.984	2400
308.038	3058
308.065	3828
308.093	6403
308.148	12837
308.156	14525
308.202	23754
308.246	29549
308.257	29091
308.312	17154
308.336	12385
308.366	9353
308.421	5577
308.426	5285
308.475	3130
308.517	2364
308.530	2195
308.585	1815
308.607	1518
308.639	1253
308.694	1415
308.697	1443
308.748	2472
308.787	3480
308.803	3556
308.857	3031
308.877	2583
308.912	2033
308.967	1665
308.967	1672
309.021	3054
309.058	3840
309.076	4584
309.130	7907
309.148	9348
309.185	17330
309.238	32016
309.239	32126
309.293	35977
309.328	33860
309.348	29721
309.402	14452
309.418	10970
309.457	7753
309.508	4354
309.511	4215
309.566	3814
309.598	3209
309.620	2955
309.674	3287
309.688	3388
309.729	3185
309.778	2398
309.783	2342
309.837	1889
309.868	1766
309.892	2233
309.946	3509
309.959	3978
310.001	5351
310.049	6456
310.055	6280
310.109	3967
310.139	2670
310.163	2096
310.218	925
310.229	762
310.272	845
310.319	935
310.326	864
310.381	542
310.409	404
310.435	574
310.489	629
310.499	665
310.543	473
310.589	320
310.598	359
310.652	533
310.679	706
310.706	755
310.760	598
310.769	579
310.814	638
310.859	675
310.868	638
310.923	430
310.948	382
310.977	612
311.031	1089
311.038	1135
311.085	817
311.128	512
311.139	587
311.193	969
311.218	1126
311.247	1038
311.301	878
311.308	852
311.356	871
311.398	929
311.410	957
311.464	1046
311.488	1043
311.518	869
311.572	630
311.578	598
311.626	705
311.668	794
311.680	812
311.734	853
311.758	883
311.788	932
311.842	1007
311.847	1017
311.896	1201
311.937	1347
311.950	1403
312.004	1651
312.027	1754
312.058	1253
312.112	371
312.117	287
312.165	494
312.207	679
312.297	1416
312.386	1351
312.476	1208
312.566	1363
312.656	1236
312.745	769
312.835	739
312.925	1437
313.015	739
313.104	472
313.194	456
313.284	1339
313.374	1196
313.463	960
313.553	997
313.643	278
313.732	775
313.822	108
313.912	548
314.001	877
314.091	807
314.180	1785
314.270	1663
314.360	1471
314.449	968
314.539	1535
314.628	1516
314.718	967
314.808	1515
314.897	943
314.987	109
315.076	1251
315.166	1158
315.255	1448
315.345	993
315.434	1014
315.524	1331
315.613	1540
315.703	776
315.792	1587
315.881	3687
315.971	1658
316.060	1614
316.150	2453
316.239	2113
316.328	1344
316.418	1732
316.507	272
316.597	926
316.686	1097
316.775	1147
316.865	2991
316.954	1527
317.043	558
317.133	44
317.222	803
317.311	853
317.400	612
317.490	1206
317.579	1039
317.668	299
317.757	1208
317.847	1702
317.936	4870
318.025	2526
318.114	1420
318.203	736
318.293	1952
318.382	3690
318.471	3353
318.560	4427
318.649	9075
318.738	2390
318.828	559
318.917	1413
319.006	1241
319.095	2966
319.184	9944
319.273	5020
319.362	1862
319.451	608
319.540	84
319.629	1070
319.718	2564
319.807	1392
319.896	2385
319.985	13155
320.074	4156
320.163	1613
320.252	1616
320.341	2313
320.430	1751
320.519	1404
320.608	711
320.697	476
320.786	1216
320.875	1843
320.964	1261
321.053	1542
321.142	2341
321.230	3146
321.319	1510
321.408	4429
321.497	2430
321.586	1433
321.675	2100
321.764	2151
321.852	1551
321.941	2078
322.030	1558
322.119	2019
322.207	4561
322.296	3534
322.385	2864
322.474	2181
322.562	4396
322.651	2690
322.740	1630
322.829	2967
322.917	2395
323.006	1785
323.095	1102
323.183	818
323.272	1604
323.361	2925
323.449	8550
323.538	2646
323.626	5943
323.715	4070
323.804	1974
323.892	4915
323.981	2243
324.069	1215
324.158	3353
324.246	3373
324.335	1037
324.424	2015
324.512	1182
324.601	1729
324.689	1893
324.778	3566
324.866	1745
324.954	1100
325.043	973
325.131	934
325.220	2701
325.308	3052
325.397	1852
325.485	1745
325.574	612
325.662	113
325.750	750
325.839	691
325.927	93
326.015	782
326.104	1074
326.192	769
326.280	998
326.369	1275
326.457	711
326.545	969
326.634	1052
326.722	39
326.810	722
326.898	826
326.987	979
327.075	162
327.163	1725
327.251	850
327.340	1474
327.428	3083
327.516	574
327.604	-140
327.692	1119
327.781	340
327.869	796
327.957	1113
328.045	83
328.133	835
328.221	-754
328.309	362
328.397	664
328.485	630
328.574	1403
328.662	2479
328.750	1107
328.838	861
328.926	344
329.014	37
329.102	807
329.190	2338
329.278	1238
329.366	531
329.454	-66
329.542	841
329.630	212
329.718	537
329.806	228
329.893	477
329.981	319
330.069	1126
330.157	4621
330.245	13250
330.333	7585
330.421	533
330.509	749
330.597	2178
330.684	1549
330.772	1211
330.860	1715
330.948	2253
331.036	1146
331.123	213
331.211	635
331.299	411
331.387	1010
331.475	3174
331.562	455
331.650	872
331.738	665
331.825	596
331.913	642
332.001	791
332.089	418
332.176	1490
332.264	2159
332.352	2281
332.439	1187
332.527	1070
332.614	-264
332.702	703
332.790	1413
332.877	845
332.965	2135
333.052	-169
333.140	-394
333.228	1682
333.315	305
333.403	360
333.490	1118
333.578	715
333.665	1107
333.753	1022
333.840	624
333.928	439
334.015	1470
334.103	3953
334.190	11702
334.278	3942
334.365	1597
334.452	1718
334.540	-111
334.627	1281
334.715	1943
334.802	3066
334.889	10270
334.977	11717
335.064	2611
335.151	946
335.239	156
335.326	1005
335.413	6456
335.501	9559
335.588	1573
335.675	1397
335.762	1251
335.850	3005
335.937	1828
336.024	4034
336.111	13657
336.199	7613
336.286	2912
336.373	1195
336.460	977
336.547	643
336.635	1325
336.722	1140
336.809	343
336.896	517
336.983	3633
337.070	10105
337.157	14339
337.245	7133
337.332	4954
337.419	830
337.506	980
337.593	170
337.680	3694
337.767	10857
337.854	2875
337.941	2328
338.028	1580
338.115	770
338.202	1768
338.289	1133
338.376	6108
338.463	2702
338.550	5276
338.637	6078
338.724	1854
338.811	2611
338.898	565
338.984	511
339.071	484
339.158	179
339.245	1647
339.332	1560
339.419	1915
339.506	921
339.593	-704
339.679	414
339.766	823
339.853	151
339.940	1307
340.027	144
340.113	1126
340.200	228
340.287	514
340.374	129
340.460	1129
340.547	153
340.634	414
340.720	2966
340.807	693
340.894	-352
340.980	1015
341.067	-171
341.154	-382
341.240	517
341.327	1062
341.414	727
341.500	40
341.587	80
341.674	456
341.760	1068
341.847	893
341.933	10
342.020	103
342.106	-648
342.193	-276
342.279	268
342.366	-135
342.452	472
342.539	207
342.625	1206
342.712	2536
342.798	1341
342.885	567
342.971	61
343.058	-306
343.144	-343
343.230	159
343.317	210
343.403	315
343.490	-3
343.576	-31
343.662	513
343.749	917
343.835	585
343.921	1283
344.008	6450
344.094	15532
344.180	3836
344.267	693
344.353	3847
344.439	4231
344.525	1100
344.612	1092
344.698	847
344.784	175
344.870	198
344.957	-333
345.043	605
345.129	-414
345.215	921
345.301	498
345.387	561
345.474	-73
345.560	87
345.646	-574
345.732	-115
345.818	696
345.904	432
345.990	-165
346.076	366
346.162	545
346.249	146
346.335	-139
346.421	572
346.507	795
346.593	5695
346.679	1215
346.765	1161
346.851	744
346.937	-473
347.023	534
347.108	-77
347.194	-523
347.280	-192
347.366	226
347.452	2240
347.538	6447
347.624	5311
347.710	3549
347.796	865
347.882	-188
347.967	395
348.053	885
348.139	510
348.225	349
348.311	272
348.397	485
348.482	931
348.568	379
348.654	-229
348.740	339
348.825	-315
348.911	1347
348.997	2220
349.083	6298
349.168	505
349.254	465
349.340	1028
349.425	489
349.511	282
349.597	-519
349.682	705
349.768	4155
349.854	1373
349.939	-76
350.025	-45
350.110	862
350.196	164
350.282	-1105
350.367	195
350.453	259
350.538	-87
350.624	14
350.709	253
350.795	188
350.880	124
350.966	1029
351.051	531
351.137	697
351.222	29
351.308	650
351.393	2374
351.479	199
351.564	-163
351.649	-45
351.735	93
351.820	-411
351.906	-77
351.991	-99
352.076	1809
352.162	2972
352.247	648
352.332	399
352.418	663
352.503	705
352.588	4149
352.673	2897
352.759	131
352.844	-136
352.929	-304
353.014	47
353.100	1129
353.185	1333
353.270	878
353.355	662
353.441	-68
353.526	-135
353.611	975
353.696	94
353.781	715
353.866	-948
353.952	749
354.037	49
354.122	1876
354.207	1230
354.292	-54
354.377	67
354.462	617
354.547	228
354.632	269
354.717	1139
354.802	884
354.887	38
354.972	-166
355.057	-443
355.142	-410
355.227	-97
355.312	174
355.397	695
355.482	1976
355.567	1368
355.652	1599
355.737	1077
355.822	3718
355.907	3148
355.991	1539
356.076	-411
356.161	374
356.246	277
356.331	-522
356.416	730
356.501	7623
356.585	7596
356.670	771
356.755	919
356.840	1020
356.924	4647
357.009	17723
357.094	6279
357.179	702
357.263	131
357.348	532
357.433	498
357.517	609
357.602	777
357.687	665
357.771	745
357.856	2661
357.941	1837
358.025	3969
358.110	17578
358.195	8494
358.279	260
358.364	625
358.448	2496
358.533	7846
358.617	5846
358.702	5033
358.787	2456
358.871	635
358.956	861
359.040	-182
359.125	612
359.209	360
359.294	1490
359.378	2419
359.462	-59
359.547	-22
359.631	-148
359.716	571
359.800	-26
359.885	921
359.969	-565
360.053	1132
360.138	79
360.222	-120
360.306	696
360.391	683
360.475	1175
360.559	3250
360.644	1952
360.728	2006
360.812	4910
360.896	11773
360.981	4983
361.065	2856
361.149	514
361.233	436
361.318	373
361.402	-109
361.486	759
361.570	-405
361.654	576
361.739	700
361.823	6396
361.907	12829
361.991	1328
362.075	844
362.159	1218
362.243	1891
362.327	2021
362.411	4997
362.495	835
362.580	296
362.664	144
362.748	498
362.832	705
362.916	1365
363.000	8035
363.084	16680
363.168	15685
363.252	3120
363.336	1399
363.420	1431
363.503	8779
363.587	11154
363.671	1373
363.755	-138
363.839	1822
363.923	301
364.007	1451
364.091	816
364.175	2891
364.258	16694
364.342	12168
364.426	18686
364.510	8713
364.594	4066
364.677	2311
364.761	10640
364.845	7193
364.929	1214
365.013	1584
365.096	826
365.180	807
365.264	3869
365.347	14687
365.431	6542
365.515	548
365.598	-436
365.682	424
365.766	1209
365.849	2383
365.933	421
366.017	1716
366.100	954
366.184	-674
366.267	228
366.351	-1
366.435	-87
366.518	129
366.602	-134
366.685	-183
366.769	8
366.852	1228
366.936	912
367.019	639
367.103	470
367.186	3017
367.270	426
367.353	-809
367.436	338
367.520	144
367.603	-222
367.687	-873
367.770	738
367.853	585
367.937	3418
368.020	4919
368.104	487
368.187	-475
368.270	912
368.353	699
368.437	1594
368.520	3790
368.603	2132
368.687	2340
368.770	5894
368.853	443
368.936	1651
369.020	1511
369.103	-734
369.186	-245
369.269	-600
369.352	638
369.436	954
369.519	617
369.602	-1053
369.685	1079
369.768	-412
369.851	229
369.934	-667
370.018	-27
370.101	-542
370.184	1934
370.267	496
370.350	542
370.433	1592
370.516	5112
370.599	6349
370.682	75
370.765	3508
370.848	4065
370.931	7350
371.014	3498
371.097	-262
371.180	232
371.263	-50
371.346	-1245
371.429	-146
371.511	-931
371.594	434
371.677	1074
371.760	2683
371.843	1325
371.926	5306
372.009	14191
372.091	5600
372.174	2852
372.257	7657
372.340	1996
372.423	1712
372.505	3959
372.588	533
372.671	2014
372.754	6248
372.836	3560
372.919	4174
373.002	9566
373.085	1723
373.167	1489
373.250	3211
373.332	6927
373.415	9874
373.498	20324
373.580	7947
373.663	8517
373.746	13479
373.828	2042
373.911	1114
373.993	1066
374.076	8269
374.159	7590
374.241	2407
374.324	5824
374.406	4358
374.489	5604
374.571	17520
374.654	6763
374.736	3215
374.819	10148
374.901	15678
374.983	15487
375.066	3186
375.148	850
375.231	6110
375.313	13687
375.395	4111
375.478	1177
375.560	416
375.643	297
375.725	2730
375.807	13087
375.890	11104
375.972	2670
376.054	1932
376.136	2689
376.219	289
376.301	3229
376.383	10165
376.465	4501
376.548	1122
376.630	2156
376.712	9100
376.794	4066
376.877	51
376.959	-216
377.041	378
377.123	801
377.205	1418
377.287	-853
377.369	524
377.452	-370
377.534	-50
377.616	-215
377.698	-560
377.780	-1326
377.862	-86
377.944	447
378.026	178
378.108	21
378.190	351
378.272	-152
378.354	-186
378.436	-443
378.518	132
378.600	2716
378.682	2324
378.764	2834
378.846	3305
378.928	468
379.010	719
379.091	563
379.173	234
379.255	-384
379.337	-174
379.419	495
379.501	6663
379.583	2182
379.664	90
379.746	227
379.828	4285
379.910	5497
379.991	4443
380.073	-16
380.155	504
380.237	-420
380.318	-71
380.400	-634
380.482	856
380.564	666
380.645	638
380.727	974
380.809	576
380.890	-24
380.972	-239
381.053	-1009
381.135	300
381.217	883
381.298	4138
381.380	752
381.461	1286
381.543	8468
381.624	11182
381.706	1473
381.787	799
381.869	169
381.951	2754
382.032	15125
382.113	11360
382.195	846
382.276	1717
382.358	2285
382.439	7265
382.521	9468
382.602	16245
382.684	6222
382.765	10318
382.846	8603
382.928	7719
383.009	3822
383.090	2198
383.172	10382
383.253	18054
383.334	7456
383.416	11569
383.497	6487
383.578	1182
383.659	2355
383.741	8332
383.822	26834
383.903	13930
383.984	6192
384.066	14361
384.147	8237
384.228	1164
384.309	707
384.390	257
384.471	251
384.553	-559
384.634	794
384.715	566
384.796	-568
384.877	422
384.958	2987
385.039	3613
385.120	542
385.201	746
385.282	361
385.363	1323
385.444	176
385.525	1220
385.606	6508
385.687	5874
385.768	1102
385.849	1540
385.930	7161
386.011	13225
386.092	3566
386.173	453
386.254	635
386.335	463
386.416	-109
386.496	1902
386.577	4887
386.658	987
386.739	275
386.820	1318
386.901	-582
386.981	838
387.062	-70
387.143	540
387.224	3018
387.304	4176
387.385	1943
387.466	25
387.547	1138
387.627	-101
387.708	675
387.789	8394
387.869	9046
387.950	2551
388.031	458
388.111	-1456
388.192	2364
388.273	4262
388.353	662
388.434	497
388.514	549
388.595	7980
388.676	9571
388.756	4432
388.837	4226
388.917	2213
388.998	-1494
389.078	569
389.159	-95
389.239	-1448
389.320	686
389.400	-1263
389.480	1588
389.561	4081
389.641	2637
389.722	353
389.802	-66
389.883	1235
389.963	6295
390.043	2699
390.124	308
390.204	1162
390.284	3647
390.365	2053
390.445	4052
390.525	7528
390.605	4600
390.686	1585
390.766	1138
390.846	422
390.927	-1490
391.007	-217
391.087	-171
391.167	-357
391.247	-1192
391.328	638
391.408	1770
391.488	352
391.568	-979
391.648	-853
391.728	-460
391.808	338
391.888	-215
391.969	2158
392.049	3660
392.129	2558
392.209	1058
392.289	6366
392.369	2695
392.449	3622
392.529	1722
392.609	1813
392.689	1309
392.769	4812
392.849	5171
392.929	5150
393.009	9583
393.089	6218
393.169	6321
393.248	20687
393.328	82357
393.408	94004
393.488	26104
393.568	6556
393.648	3026
393.728	833
393.807	340
393.887	1164
393.967	758
394.047	971
394.127	493
394.206	2983
394.286	9608
394.366	47215
394.446	54461
394.525	12649
394.605	2924
394.685	2540
394.764	4683
394.844	8674
394.924	6523
395.003	1487
395.083	785
395.163	1102
395.242	-467
395.322	342
395.402	-1128
395.481	1412
395.561	2904
395.640	10827
395.720	9315
395.799	12184
395.879	9333
395.958	3832
396.038	15425
396.117	62425
396.197	71626
396.276	22626
396.356	6995
396.435	4236
396.515	2634
396.594	2033
396.673	5903
396.753	23279
396.832	76909
396.912	58590
396.991	12692
397.070	3798
397.150	182
397.229	1238
397.308	1714
397.388	4914
397.467	2013
397.546	725
397.625	-1532
397.705	1162
397.784	163
397.863	-355
397.942	162
398.022	280
398.101	1324
398.180	10633
398.259	4794
398.338	411
398.417	-79
398.497	-670
398.576	306
398.655	-1812
398.734	-377
398.813	124
398.892	2208
398.971	10231
399.050	4804
399.129	-707
399.208	-269
399.287	42
399.366	-704
399.445	-482
399.524	-224
399.603	-1544
399.682	-626
399.761	1168
399.840	11133
399.919	10458
399.998	354
400.077	-1196
400.156	-1804
400.235	1047
400.313	-765
400.392	-1092
400.471	1899
400.550	3273
400.629	-56
400.708	-215
400.786	-146
400.865	1452
400.944	720
401.023	1507
401.102	-915
401.180	-666
401.259	-198
401.338	-425
401.416	-450
401.495	-535
401.574	15
401.652	-1013
401.731	-118
401.810	-770
401.888	-866
401.967	-1332
402.046	-601
402.124	389
402.203	-546
402.281	-291
402.360	34
402.438	2423
402.517	757
402.596	635
402.674	-287
402.753	-848
402.831	13
402.910	237
402.988	703
403.066	7675
403.145	4934
403.223	1940
403.302	5216
403.380	5058
403.459	4091
403.537	346
403.615	-105
403.694	-1151
403.772	151
403.850	-134
403.929	-46
404.007	-1677
404.085	1365
404.164	-1038
404.242	-200
404.320	1462
404.398	5416
404.477	5534
404.555	11438
404.633	11197
404.711	3825
404.789	2741
404.868	-485
404.946	-1658
405.024	93
405.102	-805
405.180	-1367
405.258	-1243
405.336	95
405.415	-1219
405.493	-11
405.571	464
405.649	-1423
405.727	-1335
405.805	43
405.883	-363
405.961	-427
406.039	-470
406.117	-1638
406.195	35
406.273	220
406.351	9774
406.429	6157
406.507	18
406.585	-652
406.663	-576
406.740	-70
406.818	-1373
406.896	-929
406.974	-405
407.052	-1428
407.130	4969
407.208	7202
407.285	1328
407.363	-1210
407.441	-413
407.519	-153
407.596	-71
407.674	-104
407.752	5672
407.830	6173
407.907	1091
407.985	40
408.063	-949
408.141	-1366
408.218	393
408.296	-488
408.373	-648
408.451	-484
408.529	-1182
408.606	-1295
408.684	-810
408.762	-1179
408.839	-757
408.917	-995
408.994	-1265
409.072	-2055
409.149	-80
409.227	107
409.304	58
409.382	-199
409.459	-746
409.537	1694
409.614	332
409.692	-686
409.769	-475
409.846	-25
409.924	1682
410.001	-1115
410.079	-475
410.156	451
410.233	-83
410.311	-1163
410.388	-633
410.465	-359
410.543	-775
410.620	-371
410.697	-1265
410.775	-206
410.852	-1756
410.929	-46
411.006	-228
411.083	-943
411.161	-308
411.238	214
411.315	-820
411.392	-816
411.469	-180
411.547	-83
411.624	-1329
411.701	-816
411.778	-215
411.855	-767
411.932	-835
412.009	-872
412.086	-331
412.163	-266
412.240	-1061
412.317	-310
412.394	-385
412.471	-407
412.548	-1610
412.625	-1689
412.702	-841
412.779	-143
412.856	467
412.933	-1078
413.010	-690
413.087	-430
413.164	487
413.241	1729
413.318	-874
413.395	-286
413.471	-755
413.548	-88
413.625	-882
413.702	-1377
413.779	261
413.855	-773
413.932	-600
414.009	-1395
414.086	-786
414.162	-448
414.239	-349
414.316	1006
414.393	4293
414.469	-77
414.546	-2019
414.623	-1071
414.699	-880
414.776	-981
414.853	-1900
414.929	-225
415.006	-1327
415.082	-795
415.159	-751
415.236	-614
415.312	-217
415.389	-628
415.465	-732
415.542	-1037
415.618	-1766
415.695	208
415.771	-1380
415.848	-410
415.924	-153
416.000	-888
416.077	-714
416.153	-1828
416.230	-1854
416.306	-1330
416.383	-960
416.459	-30
416.535	-1228
416.612	-1591
416.688	-1091
416.764	-417
416.841	-1765
416.917	-373
416.993	-373
417.069	-1163
417.146	-1029
417.222	-952
417.298	-929
417.374	-490
417.451	-532
417.527	-1008
417.603	-1090
417.679	-406
417.755	-957
417.831	-1137
417.908	-7
417.984	-856
418.060	-2091
418.136	-920
418.212	-251
418.288	-1053
418.364	-530
418.440	-1619
418.516	-393
418.592	-276
418.668	359
418.744	-58
418.820	-225
418.896	-1139
418.972	-1613
419.048	-1069
419.124	193
419.200	-1779
419.276	-1143
419.352	-1204
419.428	-714
419.504	-1317
419.579	-448
419.655	-1555
419.731	-1139
419.807	-281
419.883	-754
419.959	-42
420.034	-157
420.110	-670
420.186	1497
420.262	1440
420.337	-1091
420.413	-1587
420.489	-412
420.565	-46
420.640	-1324
420.716	-280
420.792	-1885
420.867	78
420.943	-2375
421.019	243
421.094	-1202
421.170	-174
421.245	-641
421.321	-1
421.397	-691
421.472	443
421.548	2682
421.623	1297
421.699	517
421.774	440
421.850	-518
421.925	623
422.001	40
422.076	500
422.152	541
422.227	1523
422.302	2914
422.378	5414
422.453	9340
422.529	23852
422.604	56924
422.679	85762
422.755	62737
422.830	29415
422.905	13191
422.981	6367
423.056	3418
423.131	2776
423.207	884
423.282	674
423.357	701
423.432	448
423.508	682
423.583	-498
423.658	1015
423.733	-220
423.808	49
423.883	217
423.959	-147
424.034	-215
424.109	708
424.184	-1042
424.259	-479
424.334	-812
424.409	-558
424.484	-589
424.559	90
424.634	-1438
424.709	-1180
424.784	-381
424.859	-1126
424.934	-362
425.009	662
425.084	2358
425.159	691
425.234	-505
425.309	-1274
425.384	-382
425.459	384
425.534	364
425.609	-1290
425.683	-688
425.758	-644
425.833	-751
425.908	-281
425.983	-172
426.058	2819
426.132	288
426.207	-595
426.282	508
426.357	-936
426.431	-747
426.506	-823
426.581	-760
426.655	-400
426.730	-898
426.805	-1258
426.879	-955
426.954	-637
427.029	-961
427.103	2018
427.178	7644
427.253	3939
427.327	170
427.402	-347
427.476	1049
427.551	-20
427.625	-386
427.700	-713
427.774	-1507
427.849	-298
427.923	-893
427.998	-741
428.072	-944
428.147	732
428.221	3472
428.296	16774
428.370	9051
428.444	107
428.519	-7
428.593	1166
428.667	1471
428.742	1558
428.816	1237
428.890	9975
428.965	18218
429.039	4648
429.113	2920
429.188	547
429.262	-989
429.336	117
429.410	1197
429.485	633
429.559	1192
429.633	1361
429.707	-408
429.781	618
429.855	10013
429.930	18629
430.004	8257
430.078	11102
430.152	11785
430.226	21916
430.300	25630
430.374	3858
430.448	1819
430.522	2873
430.596	9494
430.670	6944
430.744	14489
430.818	22550
430.892	4099
430.966	-432
431.040	-646
431.114	-1397
431.188	-1027
431.262	-1115
431.336	-569
431.410	313
431.484	1974
431.557	1262
431.631	-1179
431.705	-234
431.779	1452
431.853	14614
431.927	12936
432.000	1376
432.074	-449
432.148	-564
432.222	-726
432.295	-706
432.369	-598
432.443	-1439
432.516	2253
432.590	8738
432.664	3468
432.737	-535
432.811	-711
432.885	-960
432.958	-380
433.032	-1753
433.106	-659
433.179	-1000
433.253	-1314
433.326	-901
433.400	-1378
433.473	-896
433.547	-1852
433.620	-1247
433.694	-1227
433.767	-955
433.841	-1596
433.914	-874
433.988	-1190
434.061	-778
434.134	-1307
434.208	-1539
434.281	-1153
434.355	-1759
434.428	-1001
434.501	-985
434.575	-819
434.648	-695
434.721	-953
434.795	-1541
434.868	-1231
434.941	-1157
435.014	-966
435.088	-969
435.161	-899
435.234	-1100
435.307	-813
435.381	-858
435.454	-989
435.527	244
435.600	-549
435.673	29
435.746	-595
435.819	-1328
435.892	-281
435.966	-1171
436.039	-1032
436.112	-895
436.185	-1178
436.258	-1535
436.331	-1730
436.404	-1531
436.477	-1360
436.550	-1555
436.623	-983
436.696	-995
436.769	-714
436.842	-763
436.915	-754
436.987	-1080
437.060	-1393
437.133	-1216
437.206	-1481
437.279	-257
437.352	-1315
437.425	-1130
437.498	-924
437.570	-795
437.643	-1062
437.716	-313
437.789	-477
437.861	-1190
437.934	459
438.007	-148
438.080	-869
438.152	-466
438.225	-190
438.298	3184
438.370	14903
438.443	6775
438.516	1523
438.588	-721
438.661	-1236
438.734	-1091
438.806	-1713
438.879	-1085
438.951	-817
439.024	-560
439.096	-1425
439.169	-401
439.241	-1282
439.314	-1068
439.386	-132
439.459	263
439.531	92
439.604	-688
439.676	-669
439.749	-926
439.821	-1260
439.893	-922
439.966	-605
440.038	-848
440.110	-775
440.183	-777
440.255	-1287
440.327	527
440.400	1336
440.472	8452
440.544	6304
440.617	500
440.689	248
440.761	-165
440.833	408
440.905	-128
440.978	-903
441.050	-914
441.122	-748
441.194	-1079
441.266	-952
441.338	-1205
441.411	-312
441.483	1672
441.555	3539
441.627	93
441.699	89
441.771	-277
441.843	-1093
441.915	-281
441.987	-713
442.059	-1126
442.131	-659
442.203	433
442.275	-560
442.347	634
442.419	808
442.491	8497
442.563	26524
442.635	14473
442.706	4594
442.778	2787
442.850	346
442.922	-654
442.994	-327
443.066	97
443.137	-84
443.209	-110
443.281	-1
443.353	2155
443.425	10730
443.496	41787
443.568	50380
443.640	22194
443.711	4560
443.783	1149
443.855	-16
443.926	-478
443.998	61
444.070	-508
444.141	-896
444.213	-636
444.285	51
444.356	-608
444.428	-313
444.499	-291
444.571	-100
444.642	-1302
444.714	-316
444.785	-688
444.857	138
444.928	1952
445.000	1152
445.071	915
445.143	2065
445.214	1695
445.285	2419
445.357	8716
445.428	27990
445.500	67237
445.571	51108
445.642	30249
445.714	11428
445.785	7024
445.856	1837
445.928	691
445.999	503
446.070	-77
446.141	212
446.213	1244
446.284	-263
446.355	-115
446.426	-202
446.497	-657
446.569	-444
446.640	-204
446.711	-35
446.782	-192
446.853	-864
446.924	-396
446.995	-1003
447.066	-273
447.138	556
447.209	206
447.280	-381
447.351	-1209
447.422	-862
447.493	-572
447.564	23
447.635	-1165
447.706	-1065
447.777	-718
447.847	-1654
447.918	-1386
447.989	-490
448.060	-109
448.131	699
448.202	725
448.273	428
448.344	43
448.414	-540
448.485	-548
448.556	-879
448.627	-164
448.698	-28
448.768	-966
448.839	-634
448.910	454
448.981	322
449.051	-600
449.122	-1660
449.193	-672
449.263	-889
449.334	-452
449.405	-229
449.475	272
449.546	228
449.616	592
449.687	1235
449.758	-352
449.828	-301
449.899	-1143
449.969	-1057
450.040	-1135
450.110	-150
450.181	473
450.251	-658
450.322	16
450.392	-276
450.463	-773
450.533	-690
450.604	-1201
450.674	-312
450.744	-719
450.815	-907
450.885	-491
450.955	-599
451.026	-802
451.096	-730
451.166	-264
451.237	757
451.307	3939
451.377	1507
451.447	-1207
451.518	-987
451.588	-789
451.658	-479
451.728	-47
451.799	3859
451.869	5493
451.939	771
452.009	-484
452.079	-510
452.149	-456
452.219	1243
452.289	4998
452.360	4362
452.430	146
452.500	-136
452.570	380
452.640	1497
452.710	3932
452.780	7427
452.850	4742
452.920	2205
452.990	1073
453.060	162
453.129	-625
453.199	490
453.269	4639
453.339	12145
453.409	19701
453.479	17524
453.549	26366
453.619	30165
453.688	14108
453.758	2651
453.828	401
453.898	-412
453.968	314
454.037	486
454.087	182
454.107	50
454.168	-25
454.177	-45
454.247	-64
454.249	-52
454.316	-26
454.330	-20
454.386	-54
454.411	812
454.456	2051
454.492	3171
454.525	4143
454.574	2518
454.595	1830
454.655	491
454.665	286
454.734	103
454.736	154
454.804	1256
454.817	2039
454.873	4755
454.898	5052
454.943	5248
454.979	3093
455.013	1357
455.060	977
455.082	908
455.141	998
455.152	987
455.221	4104
455.222	4207
455.291	8418
455.303	8342
455.360	7569
455.384	9887
455.430	12909
455.465	10508
455.499	8400
455.546	6937
455.569	6074
455.627	3786
455.638	3445
455.707	583
455.708	592
455.777	231
455.789	262
455.846	425
455.869	459
455.916	441
455.950	417
455.985	381
456.031	302
456.054	242
456.112	258
456.124	274
456.193	229
456.193	219
456.262	396
456.274	463
456.332	512
456.355	501
456.401	509
456.436	496
456.470	413
456.516	182
456.540	85
456.597	-98
456.609	-127
456.678	-70
456.678	-80
456.747	-47
456.759	-75
456.817	96
456.840	196
456.886	92
456.920	165
456.955	363
457.001	139
457.024	52
457.082	419
457.093	458
457.162	1211
457.163	1220
457.232	1131
457.243	1047
457.301	472
457.324	434
457.370	443
457.405	477
457.439	518
457.485	499
457.508	495
457.566	635
457.577	659
457.646	1039
457.647	1044
457.715	1686
457.727	2101
457.784	4588
457.808	5908
457.853	7556
457.889	9357
457.922	9721
457.969	6525
457.991	6217
458.050	7095
458.060	7418
458.129	12905
458.130	13079
458.198	13815
458.211	12738
458.267	7743
458.292	5312
458.336	2989
458.372	2553
458.405	3446
458.453	5291
458.474	6755
458.533	12471
458.543	13080
458.611	21913
458.614	22129
458.680	15284
458.694	12257
458.749	6069
458.775	4302
458.818	2116
458.855	1387
458.887	1161
458.936	1435
458.955	1487
459.016	1316
459.024	1318
459.093	1597
459.097	1602
459.162	1032
459.177	1030
459.230	1348
459.257	1540
459.299	1895
459.338	2034
459.368	2029
459.418	2143
459.437	2059
459.499	1657
459.505	1644
459.574	1739
459.579	1722
459.643	1416
459.659	1356
459.711	1547
459.740	1715
459.780	1364
459.820	1162
459.849	1530
459.900	2238
459.917	2174
459.981	1610
459.986	1625
460.054	1931
460.061	1978
460.123	1487
460.141	1331
460.191	1836
460.222	2130
460.260	1963
460.302	1982
460.328	2107
460.382	2160
460.397	2215
460.462	2596
460.465	2653
460.534	4077
460.543	4230
460.602	11921
460.623	15087
460.671	25344
460.703	34389
460.739	32801
460.783	29360
460.808	25216
460.864	7256
460.876	5928
460.944	2360
460.945	2324
461.013	2295
461.024	2351
461.081	2002
461.104	1870
461.150	1962
461.184	1797
461.218	1741
461.264	2087
461.286	2181
461.345	2105
461.355	2043
461.423	1680
461.425	1677
461.491	2126
461.505	2181
461.559	3079
461.585	3566
461.628	6545
461.665	9375
461.696	10847
461.745	14469
461.764	12758
461.825	4083
461.832	3903
461.901	2139
461.905	2119
461.969	1934
461.985	1859
462.037	2002
462.065	2080
462.105	2234
462.145	2471
462.173	3342
462.225	4934
462.241	5640
462.305	9232
462.310	9014
462.378	5106
462.385	4527
462.446	2576
462.465	2088
462.514	1851
462.545	2038
462.582	2330
462.625	2386
462.650	2247
462.705	2007
462.718	2075
462.785	2646
462.786	2662
462.854	3236
462.865	3365
462.922	4686
462.945	5358
462.990	4275
463.025	2942
463.058	2643
463.104	2434
463.126	2314
463.184	2151
463.194	2262
463.262	2500
463.264	2533
463.330	3040
463.344	3001
463.398	2897
463.424	3077
463.466	3081
463.504	2961
463.533	3090
463.583	3096
463.601	2965
463.663	2695
463.669	2796
463.737	4384
463.743	4476
463.805	5953
463.823	6404
463.873	10035
463.903	12434
463.940	13393
463.982	14609
464.008	11992
464.062	5607
464.076	5234
464.142	2923
464.144	2903
464.211	2696
464.221	2738
464.279	2651
464.301	2401
464.347	3028
464.381	3751
464.414	3655
464.461	3445
464.482	3770
464.540	4677
464.550	4469
464.617	2798
464.620	2734
464.685	3045
464.699	3172
464.753	4311
464.779	4823
464.820	5555
464.859	6224
464.888	5934
464.938	5494
464.956	5614
465.018	5894
465.023	5852
465.091	5157
465.098	5082
465.158	4685
465.177	4577
465.226	4473
465.257	4367
465.293	4646
465.336	4906
465.361	4949
465.416	5182
465.428	5528
465.495	7353
465.496	7394
465.563	12153
465.575	13020
465.631	17992
465.654	20193
465.698	13029
465.734	6562
465.765	5814
465.813	4743
465.833	4419
465.893	3699
465.900	3796
465.968	4634
465.972	4680
466.035	4571
466.052	4552
466.102	4102
466.131	3822
466.170	3929
466.210	4020
466.237	4348
466.290	5064
466.304	4976
466.369	4432
466.372	4475
466.439	5619
466.449	5771
466.506	5585
466.528	5516
466.573	7308
466.607	8638
466.641	12738
466.687	18431
466.708	21230
466.766	28988
466.775	26746
466.842	9474
466.845	8637
466.909	6203
466.925	5662
466.977	6140
467.004	6410
467.044	6376
467.083	6313
467.111	6607
467.163	7166
467.178	7421
467.242	8424
467.245	8387
467.312	7412
467.321	7274
467.379	7665
467.400	7792
467.446	7837
467.480	7850
467.559	7704
467.638	5902
467.717	7049
467.796	6236
467.875	6910
467.955	6190
468.034	9798
468.113	23113
468.192	35352
468.271	11455
468.350	7967
468.429	7667
468.508	9182
468.588	7125
468.667	7147
468.746	6139
468.825	6392
468.904	5660
468.983	6798
469.062	9292
469.141	12023
469.220	5456
469.299	5482
469.378	5146
469.456	7220
469.535	6570
469.614	6239
469.693	6373
469.772	8727
469.851	10611
469.930	8601
470.009	5567
470.088	5713
470.166	5169
470.245	6058
470.324	6038
470.403	5765
470.482	4605
470.560	5904
470.639	4575
470.718	5958
470.797	5028
470.875	6162
470.954	8042
471.033	9941
471.111	4847
471.190	5409
471.269	3960
471.347	4056
471.426	4705
471.505	5744
471.583	5802
471.662	6635
471.740	5386
471.819	6391
471.898	4624
471.976	4926
472.055	5293
472.133	5753
472.212	7849
472.290	8055
472.369	5712
472.447	4658
472.526	4956
472.604	4740
472.683	4448
472.761	5188
472.839	4433
472.918	5422
472.996	4631
473.075	6176
473.153	5402
473.231	4639
473.310	5606
473.388	5085
473.466	4168
473.545	5698
473.623	6299
473.701	5635
473.780	4586
473.858	4472
473.936	5989
474.014	5273
474.093	5761
474.171	7424
474.249	10217
474.327	7881
474.405	4974
474.484	4855
474.562	4027
474.640	4333
474.718	3655
474.796	5022
474.874	5040
474.952	4189
475.030	3938
475.108	4730
475.187	4995
475.265	5025
475.343	6436
475.421	7624
475.499	4668
475.577	5284
475.655	6646
475.733	11026
475.811	19405
475.889	18046
475.966	12956
476.044	4809
476.122	5282
476.200	6699
476.278	6122
476.356	4770
476.434	4532
476.512	5184
476.590	6581
476.667	6689
476.745	4254
476.823	4685
476.901	5228
476.979	4570
477.056	4784
477.134	5218
477.212	4557
477.290	5757
477.367	3880
477.445	5717
477.523	4311
477.601	5259
477.678	4374
477.756	5533
477.834	6346
477.911	4696
477.989	4345
478.066	4065
478.144	4739
478.222	5567
478.299	6991
478.377	7422
478.454	5038
478.532	4301
478.609	3715
478.687	5435
478.764	4029
478.842	5077
478.919	3881
478.997	4686
479.074	4066
479.152	4849
479.229	6888
479.307	5084
479.384	3439
479.461	4245
479.539	2717
479.616	5581
479.694	4412
479.771	5452
479.848	4041
479.926	5849
480.003	6258
480.080	4784
480.157	3639
480.235	4071
480.312	3961
480.389	5168
480.467	7074
480.544	9571
480.621	5230
480.698	5816
480.775	4377
480.853	5627
480.930	3874
481.007	4885
481.084	6076
481.161	6736
481.238	6293
481.315	4451
481.392	4303
481.470	4232
481.547	4222
481.624	4508
481.701	4552
481.778	5228
481.855	4996
481.932	7734
482.009	11179
482.086	10110
482.163	5065
482.240	5299
482.317	8540
482.393	7285
482.470	4530
482.547	4878
482.624	4688
482.701	4489
482.778	3927
482.855	4103
482.932	3658
483.009	4052
483.085	4037
483.162	5624
483.239	5539
483.316	3976
483.393	3808
483.469	4657
483.546	4638
483.623	5631
483.699	4281
483.776	5017
483.853	4921
483.930	7159
484.006	16878
484.083	31173
484.160	15725
484.236	20427
484.313	16451
484.389	12460
484.466	11187
484.543	10862
484.619	10921
484.696	13170
484.772	11090
484.849	11935
484.925	9729
485.002	10388
485.078	9852
485.155	11685
485.231	9626
485.308	9676
485.384	10506
485.461	11282
485.537	16584
485.614	21585
485.690	10153
485.766	8713
485.843	8652
485.919	10630
485.995	10716
486.072	8462
486.148	8254
486.224	8722
486.301	8703
486.377	8876
486.453	10122
486.530	9999
486.606	12659
486.682	14261
486.758	15265
486.835	19221
486.911	14042
486.987	21665
487.063	17803
487.139	17727
487.215	14352
487.292	10910
487.368	10121
487.444	10622
487.520	13163
487.596	12848
487.672	17209
487.748	42863
487.824	69694
487.900	28113
487.976	11889
488.052	10191
488.128	11484
488.204	9585
488.280	9337
488.356	10660
488.432	19268
488.508	31273
488.584	11263
488.660	7299
488.736	7998
488.812	7280
488.888	9451
488.964	10034
489.039	13914
489.115	22005
489.191	14929
489.267	9182
489.343	8199
489.418	7499
489.494	6842
489.570	5665
489.646	8262
489.722	7754
489.797	6977
489.873	10245
489.949	21332
490.024	21027
490.100	6701
490.176	7593
490.251	7507
490.327	8492
490.403	5643
490.478	6920
490.554	5914
490.629	5571
490.705	6304
490.781	6095
490.856	6137
490.932	6867
491.007	5504
491.083	6045
491.158	6436
491.234	7797
491.309	15563
491.385	18733
491.460	6958
491.536	6784
491.611	5122
491.686	6149
491.762	6110
491.837	9978
491.913	15884
491.988	21044
492.063	24496
492.139	11822
492.214	8458
492.289	5133
492.365	4864
492.440	5832
492.515	4972
492.590	6382
492.666	4675
492.741	6509
492.816	10343
492.891	5800
492.967	5284
493.042	4984
493.117	5033
493.192	6232
493.267	9791
493.342	28774
493.418	47650
493.493	10345
493.568	3821
493.643	4763
493.718	5052
493.793	7219
493.868	6824
493.943	5222
494.018	4014
494.093	4501
494.168	3777
494.243	3927
494.318	3855
494.393	4630
494.468	3263
494.543	3502
494.618	3247
494.693	4398
494.768	3585
494.842	4391
494.917	3037
494.992	4088
495.067	3936
495.142	3071
495.217	3549
495.292	4558
495.366	4361
495.441	5989
495.516	7393
495.591	7831
495.665	15563
495.740	37300
495.815	18795
495.890	6780
495.964	3958
496.039	7200
496.114	5848
496.188	6628
496.263	6577
496.338	5170
496.412	5357
496.487	7093
496.561	5837
496.636	6656
496.710	4809
496.785	6707
496.860	7343
496.934	5957
497.009	5206
497.083	5505
497.158	5571
497.232	6001
497.307	7718
497.381	6970
497.455	6916
497.530	11388
497.604	7336
497.679	7744
497.753	11986
497.827	16463
497.902	13583
497.976	16431
498.050	32993
498.125	134039
498.199	154461
498.273	21190
498.348	11862
498.422	11313
498.496	9885
498.570	9515
498.645	7295
498.719	8493
498.793	10516
498.867	15102
498.941	19859
499.016	49024
499.090	152759
499.164	63703
499.238	7856
499.312	5785
499.386	6440
499.460	6644
499.534	6777
499.609	8642
499.683	12212
499.757	12839
499.831	22072
499.905	97294
499.979	106023
500.053	16239
500.127	13307
500.201	7682
500.275	6860
500.349	6191
500.422	7735
500.496	9880
500.570	15038
500.644	47647
500.718	112029
500.792	28141
500.866	6628
500.940	10055
501.013	7977
501.087	7713
501.161	10410
501.235	14193
501.309	30738
501.382	91063
501.456	91146
501.530	18123
501.603	30818
501.677	14716
501.751	5733
501.825	8028
501.898	12223
501.972	38111
502.046	26171
502.119	7959
502.193	14593
502.266	40389
502.340	22083
502.413	17490
502.487	35847
502.561	21169
502.634	6268
502.708	5218
502.781	3873
502.855	4651
502.928	3317
503.002	4626
503.075	3359
503.149	4722
503.222	4189
503.295	5943
503.369	6772
503.442	7757
503.516	22831
503.589	67809
503.662	47305
503.736	14145
503.809	30538
503.882	28201
503.956	38342
504.029	41092
504.102	23836
504.175	36493
504.249	14018
504.322	7154
504.395	6710
504.468	4702
504.542	3765
504.615	4346
504.688	3556
504.761	3220
504.834	4605
504.907	4219
504.980	6060
505.053	4141
505.127	2400
505.200	6122
505.273	6188
505.346	4851
505.419	3095
505.492	3947
505.565	2845
505.638	3457
505.711	2759
505.784	3806
505.857	2254
505.930	4263
506.003	2043
506.076	5143
506.149	4175
506.221	5767
506.294	5498
506.367	12802
506.440	50547
506.513	31062
506.586	6200
506.659	4287
506.731	4217
506.804	3507
506.877	3705
506.950	5118
507.022	3105
507.095	3944
507.168	5552
507.241	3755
507.313	1162
507.386	2166
507.459	3559
507.531	2819
507.604	1623
507.677	3566
507.749	1604
507.822	4399
507.894	5141
507.967	8260
508.040	5252
508.112	4897
508.185	4540
508.257	3907
508.330	5127
508.402	3202
508.475	3966
508.547	3952
508.620	4750
508.692	7196
508.765	4512
508.837	3533
508.909	3568
508.982	3305
509.054	3300
509.127	4424
509.199	3233
509.271	2568
509.344	2799
509.416	2695
509.488	2465
509.560	3471
509.633	3175
509.705	4035
509.777	3748
509.849	4344
509.922	3210
509.994	3941
510.066	4199
510.138	3838
510.210	7612
510.283	7457
510.355	6170
510.427	5526
510.499	4218
510.571	5078
510.643	4793
510.715	6249
510.787	4698
510.859	4675
510.931	4607
511.003	5435
511.076	5583
511.148	4901
511.219	3692
511.291	7181
511.363	8111
511.435	4036
511.507	3101
511.579	4524
511.651	4061
511.723	3707
511.795	2803
511.867	4685
511.939	4668
512.010	7937
512.082	7417
512.154	3541
512.226	4563
512.298	5342
512.369	7100
512.441	6089
512.513	6126
512.585	3944
512.656	5332
512.728	5013
512.800	4239
512.871	3871
512.943	4564
513.015	3237
513.086	3514
513.158	4132
513.230	3955
513.301	4561
513.373	5293
513.444	3795
513.516	3821
513.588	3553
513.659	3536
513.731	4678
513.802	2694
513.874	6736
513.945	8025
514.016	4065
514.088	3300
514.159	3939
514.231	4765
514.302	6294
514.374	5049
514.445	4348
514.516	10623
514.588	8841
514.659	5481
514.730	9501
514.802	7798
514.873	3966
514.944	6161
515.016	4909
515.087	4162
515.158	6583
515.229	11329
515.301	5338
515.372	6139
515.443	4283
515.514	4323
515.585	2440
515.656	3780
515.728	4353
515.799	3132
515.870	4329
515.941	4044
516.012	3408
516.083	4813
516.154	4887
516.225	5853
516.296	5489
516.367	4389
516.438	4866
516.509	4702
516.580	6880
516.651	13578
516.722	46127
516.793	28174
516.864	9371
516.935	7884
517.006	9565
517.077	10149
517.148	17422
517.219	43199
517.289	80373
517.360	53584
517.431	24890
517.502	5479
517.573	6857
517.643	5576
517.714	5954
517.785	6195
517.856	5865
517.926	7186
517.997	7922
518.068	6961
518.138	10572
518.209	10650
518.280	27408
518.350	112146
518.421	49688
518.492	9473
518.562	8962
518.633	8664
518.703	8517
518.774	15944
518.845	37875
518.915	42916
518.986	13542
519.056	10090
519.127	11866
519.197	16112
519.268	49518
519.338	39994
519.408	8300
519.479	7400
519.549	5876
519.620	5390
519.690	5091
519.760	4058
519.831	4788
519.901	3696
519.971	5137
520.042	4331
520.112	4493
520.182	4886
520.253	6331
520.323	3582
520.393	5046
520.463	7781
520.534	4187
520.604	11499
520.674	6329
520.744	6418
520.814	10541
520.885	10670
520.955	15427
521.025	64962
521.095	28937
521.165	6124
521.235	5652
521.305	3346
521.375	4035
521.445	4275
521.515	4586
521.585	5353
521.655	3356
521.725	4029
521.795	5255
521.865	2299
521.935	8129
522.005	5362
522.075	4580
522.145	3345
522.215	4169
522.285	6695
522.355	8307
522.424	14863
522.494	13334
522.564	6595
522.634	6610
522.704	18819
522.774	9577
522.843	4209
522.913	3696
522.983	3641
523.053	3755
523.122	3800
523.192	3730
523.262	8823
523.331	9035
523.401	4767
523.471	3763
523.540	3019
523.610	2660
523.680	3202
523.749	3648
523.819	4123
523.888	4353
523.958	2592
524.027	3494
524.097	3638
524.166	2960
524.236	2419
524.305	4961
524.375	2333
524.444	2666
524.514	4400
524.583	3131
524.653	3590
524.722	5914
524.791	3142
524.861	4034
524.930	2091
524.999	2895
525.069	4326
525.138	3576
525.207	4441
525.277	4462
525.346	3807
525.415	3600
525.484	2840
525.554	4500
525.623	4377
525.692	5883
525.761	4617
525.830	5970
525.900	5517
525.969	9092
526.038	13869
526.107	24157
526.176	79300
526.245	73733
526.314	21405
526.383	39329
526.452	57959
526.522	86166
526.591	102974
526.660	21676
526.729	12170
526.797	15167
526.867	19881
526.935	73968
527.004	181844
527.073	125566
527.142	13407
527.211	6620
527.280	4811
527.349	4382
527.418	2660
527.487	5216
527.555	2087
527.624	2265
527.693	1420
527.762	3601
527.831	1786
527.899	3428
527.968	2668
528.037	1380
528.106	3719
528.174	4946
528.243	4494
528.312	5780
528.380	6565
528.449	3475
528.518	3207
528.586	1364
528.655	3341
528.723	2761
528.792	1801
528.861	2646
528.929	1032
528.998	2906
529.066	2393
529.135	3158
529.203	3046
529.272	2353
529.340	4611
529.409	5453
529.477	3989
529.545	4649
529.614	6349
529.682	4927
529.751	6102
529.819	7888
529.887	5973
529.956	4882
530.024	5219
530.092	5226
530.161	5396
530.229	5509
530.297	3691
530.365	6516
530.434	4629
530.502	5606
530.570	5085
530.638	3141
530.707	4732
530.775	6581
530.843	4253
530.911	4772
530.979	4436
531.047	4983
531.115	5106
531.183	5005
531.252	5061
531.320	5550
531.388	3218
531.456	5707
531.524	4027
531.592	5802
531.660	6914
531.728	4971
531.796	4611
531.864	5131
531.932	5452
532.000	4438
532.067	5507
532.135	5409
532.203	6304
532.271	5363
532.339	7956
532.407	10069
532.475	9211
532.542	6161
532.610	6246
532.678	6670
532.746	17256
532.814	42603
532.881	12837
532.949	6827
533.017	6353
533.084	6001
533.152	4991
533.220	5089
533.287	3907
533.355	5330
533.423	5641
533.490	5390
533.558	5166
533.625	5644
533.693	4764
533.761	5797
533.828	5621
533.896	4594
533.963	7158
534.031	7438
534.098	9327
534.166	6626
534.233	5067
534.300	6340
534.368	6625
534.435	4876
534.503	5592
534.570	6037
534.637	5996
534.705	6325
534.772	7064
534.840	9164
534.907	34026
534.974	52992
535.041	9696
535.109	5992
535.176	4414
535.243	5180
535.310	4045
535.378	4419
535.445	3785
535.512	5014
535.579	4761
535.646	3553
535.714	4235
535.781	6352
535.848	5285
535.915	6108
535.982	4626
536.049	4603
536.116	5724
536.183	3628
536.250	3799
536.317	4125
536.384	5053
536.451	5841
536.518	4902
536.585	3593
536.652	6418
536.719	5725
536.786	3723
536.853	4490
536.920	5513
536.987	7046
537.053	5544
537.120	19851
537.187	20311
537.254	4170
537.321	3658
537.388	4756
537.454	2714
537.521	4223
537.588	3494
537.654	4783
537.721	4494
537.788	4968
537.855	3305
537.921	5199
537.988	3287
538.055	4871
538.121	3011
538.188	3596
538.254	4198
538.321	6139
538.388	5228
538.454	4458
538.521	3524
538.587	3637
538.654	3809
538.720	3749
538.787	3451
538.853	4476
538.920	4068
538.986	4714
539.053	3274
539.119	4302
539.185	3443
539.252	5047
539.318	4688
539.385	5646
539.451	3837
539.517	5467
539.583	4634
539.650	7682
539.716	15875
539.782	6593
539.849	4108
539.915	4501
539.981	3345
540.047	3980
540.114	3317
540.180	5248
540.246	3708
540.312	4150
540.378	5901
540.444	7016
540.510	6184
540.576	16847
540.643	7509
540.709	3058
540.775	3918
540.841	4174
540.907	4670
540.973	7444
541.039	5638
541.105	4742
541.171	3432
541.237	4120
541.303	4756
541.369	6079
541.435	3532
541.500	6117
541.566	3798
541.632	3646
541.698	2838
541.764	5148
541.830	3037
541.896	2549
541.961	3610
542.027	3019
542.093	4409
542.159	4041
542.224	2105
542.290	5790
542.356	5258
542.421	6671
542.487	5178
542.553	4299
542.618	4098
542.684	3815
542.750	3128
542.815	4954
542.881	4776
542.947	13654
543.012	12799
543.078	4221
543.143	2713
543.209	4297
543.274	2773
543.340	4412
543.405	5900
543.471	9663
543.536	4208
543.602	3410
543.667	2508
543.732	4500
543.798	3471
543.863	4827
543.928	3196
543.994	3132
544.059	3801
544.124	3898
544.190	3655
544.255	4791
544.320	2983
544.386	3459
544.451	4583
544.516	4628
544.581	5023
544.646	9607
544.712	16336
544.777	6398
544.842	5083
544.907	5283
544.972	5334
545.037	4603
545.102	5591
545.168	5295
545.233	6915
545.298	6490
545.363	6248
545.428	6094
545.493	8900
545.558	12403
545.623	7925
545.688	5245
545.753	5075
545.818	5537
545.883	6422
545.947	5238
546.012	5804
546.077	5701
546.142	6274
546.207	5456
546.272	5924
546.337	6512
546.401	7272
546.466	6855
546.531	6022
546.596	7982
546.661	7216
546.725	7578
546.790	5333
546.855	8234
546.919	6320
546.984	8310
547.049	8871
547.113	11228
547.178	9784
547.243	11769
547.307	12745
547.372	13938
547.436	14151
547.501	14596
547.565	15554
547.630	14435
547.695	13379
547.759	15547
547.823	14468
547.888	14092
547.952	14658
548.017	14263
548.081	16961
548.146	17239
548.210	16645
548.274	16605
548.339	16112
548.403	15420
548.468	13019
548.532	14557
548.596	13742
548.660	14877
548.725	15937
548.789	15981
548.853	18080
548.917	16070
548.982	15802
549.046	17569
549.110	12667
549.174	13688
549.238	14001
549.303	15570
549.367	16339
549.431	15820
549.495	14251
549.559	16060
549.623	18356
549.687	19427
549.751	19895
549.815	21426
549.879	22376
549.943	20034
550.007	22278
550.071	22061
550.135	21288
550.199	19192
550.263	18911
550.327	19534
550.391	20221
550.455	21290
550.519	21705
550.582	23113
550.646	24556
550.710	26828
550.774	25293
550.838	25694
550.901	25921
550.965	27742
551.029	28206
551.093	31699
551.156	34219
551.220	42929
551.284	50275
551.347	34746
551.411	39116
551.475	41610
551.538	28810
551.602	26395
551.666	25454
551.729	24433
551.793	23729
551.856	23984
551.920	23727
551.983	23657
552.047	23592
552.110	22938
552.174	22770
552.237	24031
552.301	22643
552.364	22172
552.428	20168
552.491	20741
552.554	22957
552.618	23140
552.681	22482
552.745	22336
552.808	22067
552.871	25270
552.934	24156
552.998	22476
553.061	23014
553.124	23268
553.187	22640
553.251	23563
553.314	25314
553.377	24137
553.440	29160
553.503	45162
553.567	69301
553.630	31468
553.693	25311
553.756	26215
553.819	24847
553.882	24707
553.945	24759
554.008	24607
554.071	24699
554.134	25008
554.197	23237
554.260	23879
554.323	24854
554.386	24464
554.449	24368
554.512	26305
554.575	23222
554.638	24948
554.701	23656
554.764	23632
554.827	23269
554.889	22131
554.952	21114
555.015	19643
555.078	20825
555.141	21157
555.203	20869
555.266	20947
555.329	20854
555.391	20195
555.454	19938
555.517	18812
555.580	18326
555.642	18177
555.705	18316
555.768	18110
555.830	17435
555.893	15798
555.955	15280
556.018	16109
556.080	15229
556.143	16505
556.206	14641
556.268	16124
556.330	16338
556.393	15321
556.455	15542
556.518	17266
556.580	16710
556.643	14479
556.705	13445
556.767	11903
556.830	13449
556.892	13169
556.955	13793
557.017	13246
557.079	12556
557.142	12671
557.204	11228
557.266	14507
557.328	12926
557.391	10715
557.453	9339
557.515	10922
557.577	10986
557.639	11752
557.701	10951
557.764	10785
557.826	11460
557.888	13011
557.950	12049
558.012	12030
558.074	14453
558.136	24924
558.198	62920
558.260	29163
558.322	12184
558.384	12974
558.446	14631
558.508	15247
558.570	17728
558.632	22102
558.694	27881
558.756	36212
558.818	93828
558.880	261149
558.942	97911
559.003	67484
559.065	40967
559.127	17700
559.189	17038
559.251	19259
559.312	23632
559.374	47627
559.436	164560
559.498	101454
559.559	19038
559.621	17387
559.683	18814
559.744	27337
559.806	73648
559.868	131334
559.929	30886
559.991	18064
560.052	22758
560.114	59305
560.176	44142
560.237	32867
560.299	59469
560.360	17513
560.422	8864
560.483	8376
560.545	7476
560.606	7719
560.667	7532
560.729	7380
560.790	7275
560.852	7253
560.913	6379
560.974	7402
561.036	5596
561.097	6948
561.158	6669
561.220	7465
561.281	6215
561.342	7105
561.403	7464
561.465	7796
561.526	10506
561.587	13468
561.648	6968
561.709	6332
561.771	5521
561.832	6778
561.893	6471
561.954	6598
562.015	6140
562.076	6021
562.137	6240
562.198	6446
562.259	6325
562.320	5430
562.381	5311
562.442	7444
562.503	6539
562.564	6276
562.625	5867
562.686	7019
562.747	5575
562.808	5930
562.869	6357
562.930	8635
562.991	7166
563.051	6741
563.112	6847
563.173	6929
563.234	5541
563.294	6220
563.355	5808
563.416	6659
563.477	6192
563.537	6265
563.598	6974
563.659	6045
563.720	5443
563.780	6504
563.841	5911
563.901	6580
563.962	5975
564.023	6329
564.083	6611
564.144	7250
564.204	5710
564.265	7211
564.325	7300
564.386	11581
564.446	11130
564.507	5706
564.567	5770
564.628	6088
564.688	6231
564.749	6223
564.809	6750
564.869	8216
564.930	6285
564.990	7588
565.050	5496
565.111	6717
565.171	5614
565.231	6414
565.292	6379
565.352	4883
565.412	6441
565.472	6806
565.532	6003
565.593	6933
565.653	5278
565.713	6446
565.773	6053
565.833	6105
565.893	7545
565.953	5837
566.013	6281
566.074	6628
566.134	8224
566.194	10202
566.254	11296
566.314	8985
566.374	6206
566.434	7253
566.494	6840
566.554	6569
566.614	7124
566.673	6926
566.733	7845
566.793	7594
566.853	7956
566.913	7683
566.973	7704
567.033	8454
567.092	7406
567.152	7174
567.212	7703
567.272	8457
567.331	7370
567.391	8454
567.451	9021
567.511	11654
567.570	10748
567.630	8004
567.690	8138
567.749	8310
567.809	8121
567.868	9814
567.928	9193
567.988	11427
568.047	12172
568.107	13957
568.166	16398
568.226	23715
568.285	30804
568.345	28287
568.404	23195
568.464	20165
568.523	18893
568.582	19350
568.642	19904
568.701	24578
568.761	32104
568.820	49433
568.879	51702
568.939	41166
568.998	30862
569.057	23269
569.116	18897
569.176	15137
569.235	12347
569.294	12297
569.353	10986
569.413	9793
569.472	10389
569.531	9752
569.590	8989
569.649	8774
569.708	7808
569.767	8852
569.827	9054
569.886	8764
569.945	7341
570.004	7406
570.063	7008
570.122	7768
570.181	7120
570.240	8667
570.299	8649
570.358	8236
570.417	6805
570.475	7442
570.534	6672
570.593	7749
570.652	6799
570.711	7133
570.770	6868
570.829	8129
570.887	6582
570.946	6384
571.005	5774
571.064	7376
571.122	6936
571.181	7597
571.240	7107
571.299	6805
571.357	7206
571.416	7692
571.475	6706
571.533	8358
571.592	7261
571.650	7681
571.709	6800
571.768	6676
571.826	6832
571.885	6899
571.943	6345
572.002	7102
572.060	6699
572.119	7269
572.177	6793
572.236	6381
572.294	6515
572.352	7835
572.411	6750
572.469	7194
572.528	6293
572.586	5648
572.644	7285
572.703	8172
572.761	6717
572.819	6997
572.877	6543
572.936	6496
572.994	5126
573.052	5814
573.110	6257
573.169	6714
573.227	5937
573.285	6499
573.343	5846
573.401	7169
573.459	6721
573.517	6707
573.576	6920
573.634	6859
573.692	6145
573.750	7150
573.808	6296
573.866	6671
573.924	7393
573.982	7758
574.040	6627
574.098	6945
574.155	6429
574.213	6228
574.271	6075
574.329	6418
574.387	6213
574.445	6135
574.503	5797
574.560	5471
574.618	5976
574.676	6485
574.734	5422
574.792	5542
574.849	6037
574.907	5259
574.965	5334
575.022	5161
575.080	4663
575.138	5703
575.195	5659
575.253	5735
575.311	5952
575.368	5761
575.426	5509
575.483	5880
575.541	5762
575.598	6008
575.656	6037
575.713	5693
575.771	5485
575.828	5761
575.886	5689
575.943	6691
576.001	6155
576.058	6535
576.115	6158
576.173	6836
576.230	7570
576.287	7589
576.345	5998
576.402	6300
576.459	5870
576.517	6769
576.574	7193
576.631	7317
576.688	6740
576.746	6643
576.803	6403
576.860	6478
576.917	6329
576.974	6748
577.031	5805
577.089	6535
577.146	5890
577.203	6585
577.260	6510
577.317	6869
577.374	6607
577.431	6916
577.488	5919
577.545	6752
577.602	7016
577.659	6787
577.716	6625
577.773	7282
577.830	7235
577.886	7362
577.943	5721
578.000	6707
578.057	6438
578.114	7251
578.171	7008
578.227	9132
578.284	8319
578.341	8189
578.398	7026
578.454	7565
578.511	7613
578.568	8146
578.625	7320
578.681	6835
578.738	6734
578.794	7438
578.851	6266
578.908	6687
578.964	6473
579.021	8013
579.077	6778
579.134	7730
579.190	6333
579.247	6691
579.303	6454
579.360	6585
579.416	6237
579.473	5621
579.529	5848
579.586	6474
579.642	6302
579.698	7497
579.755	7518
579.811	7235
579.867	7957
579.924	7515
579.980	7450
580.036	9675
580.093	8055
580.149	11366
580.205	11873
580.261	10912
580.317	9695
580.374	8502
580.430	9128
580.486	8734
580.542	7332
580.598	7525
580.619	7774
580.654	8213
580.692	8349
580.710	8432
580.765	7190
580.767	7158
580.823	8580
580.838	8455
580.879	8135
580.911	8045
580.935	7981
580.984	7501
580.991	7451
581.047	8270
581.057	8363
581.103	8797
581.130	9121
581.159	9445
581.203	9048
581.215	8960
581.270	9817
581.276	9760
581.326	9289
581.349	8949
581.382	8452
581.422	8400
581.438	8376
581.494	9451
581.494	9444
581.550	9324
581.567	9301
581.606	9177
581.640	9174
581.661	9212
581.713	9944
581.717	10013
581.773	8490
581.786	8806
581.829	9758
581.859	9433
581.885	9222
581.932	9252
581.940	9257
581.996	9112
582.004	9242
582.052	9904
582.077	9667
582.107	9439
582.150	10434
582.163	10694
582.219	9520
582.223	9532
582.274	9901
582.296	9767
582.330	9563
582.368	10267
582.386	10610
582.441	9362
582.441	9361
582.497	10781
582.514	10537
582.552	10082
582.587	10546
582.608	10762
582.659	11139
582.663	11172
582.719	11015
582.732	10794
582.774	10265
582.805	10698
582.830	11026
582.877	11266
582.885	11297
582.941	11478
582.950	11628
582.996	12498
583.023	12997
583.052	13566
583.095	13487
583.107	13446
583.162	14968
583.168	14944
583.218	14499
583.240	14087
583.273	13599
583.313	12836
583.328	12510
583.384	12186
583.385	12155
583.439	11232
583.458	11525
583.494	12168
583.531	11342
583.549	10904
583.603	12069
583.605	12102
583.660	11203
583.676	11088
583.715	10957
583.748	11105
583.770	11121
583.820	11305
583.825	11338
583.881	11156
583.893	11231
583.936	11551
583.965	11449
583.991	11199
584.038	11882
584.046	12058
584.101	11553
584.110	11635
584.156	11891
584.183	11785
584.211	11704
584.255	11692
584.266	11692
584.321	11884
584.328	11956
584.376	12371
584.400	12315
584.431	12345
584.472	12793
584.486	12928
584.541	13268
584.545	13289
584.596	13500
584.617	13218
584.651	12987
584.689	13258
584.706	13289
584.761	13601
584.762	13604
584.816	14227
584.834	14347
584.871	14486
584.906	14777
584.926	14810
584.978	14475
584.980	14485
585.035	15017
585.051	15351
585.090	15888
585.123	15937
585.145	16009
585.195	16475
585.200	16536
585.254	17948
585.267	18282
585.309	19372
585.340	20298
585.364	20956
585.412	21528
585.419	21615
585.473	22842
585.484	23176
585.528	25312
585.556	28056
585.583	32208
585.628	43494
585.637	47369
585.692	84234
585.700	92324
585.747	133565
585.772	122218
585.801	89828
585.845	42303
585.856	34192
585.910	23958
585.917	22964
585.965	20794
585.989	20154
586.019	20097
586.061	19989
586.074	19746
586.128	19741
586.133	19733
586.183	19974
586.205	19790
586.237	19415
586.277	19416
586.292	19539
586.346	20000
586.349	20012
586.401	19837
586.421	19992
586.455	20674
586.493	20968
586.509	21229
586.564	23271
586.565	23357
586.618	28676
586.637	29697
586.672	28862
586.709	24949
586.727	23412
586.781	23975
586.781	23982
586.835	23214
586.853	23268
586.889	23039
586.925	22824
586.944	22875
586.996	23566
586.998	23595
587.052	23810
587.068	24120
587.106	24735
587.140	24573
587.161	24617
587.212	26126
587.215	26222
587.269	27299
587.284	27701
587.323	28205
587.356	28305
587.377	28567
587.427	30084
587.431	30216
587.485	31198
587.499	31597
587.539	33083
587.571	34054
587.593	34558
587.643	36317
587.648	36517
587.702	37868
587.715	38506
587.755	40559
587.786	41863
587.810	42846
587.858	44454
587.864	44751
587.917	48505
587.930	49468
587.971	52841
588.001	55115
588.025	56819
588.073	60636
588.079	61269
588.133	67200
588.145	68644
588.187	74357
588.217	78489
588.241	82345
588.288	91520
588.295	92963
588.348	105165
588.360	107879
588.402	119020
588.431	127308
588.456	136370
588.503	155961
588.510	159218
588.564	186140
588.575	192463
588.617	223788
588.646	246146
588.671	272255
588.718	325300
588.725	335864
588.778	421079
588.789	438736
588.832	512644
588.861	561511
588.886	569746
588.932	571568
588.939	565615
588.993	491234
589.004	483660
589.047	562692
589.075	602765
589.100	584329
589.147	535015
589.154	523082
589.207	429113
589.218	410778
589.261	374958
589.290	353483
589.314	353629
589.361	360235
589.368	366827
589.421	427633
589.433	441163
589.475	505181
589.504	549493
589.528	548155
589.576	522987
589.582	524368
589.635	541012
589.647	541358
589.689	497292
589.718	459445
589.742	405560
589.790	300286
589.795	292999
589.849	226733
589.861	212160
589.902	182110
589.932	160590
589.955	148622
590.004	124283
590.009	122839
590.062	107918
590.075	104494
590.115	95371
590.146	88441
590.168	85212
590.218	78036
590.222	77555
590.275	70899
590.289	69319
590.328	65829
590.360	62928
590.381	61262
590.431	57122
590.435	56969
590.488	54063
590.503	53263
590.541	51090
590.574	49338
590.594	48666
590.645	46475
590.647	46422
590.700	44394
590.716	43853
590.753	42806
590.787	41712
590.806	41280
590.859	40086
590.859	40097
590.912	38959
590.930	38684
590.965	38111
591.001	37569
591.018	37365
591.071	36378
591.072	36338
591.124	35610
591.143	35279
591.177	34898
591.214	34322
591.230	34225
591.283	34125
591.285	34080
591.336	32877
591.356	32450
591.389	32449
591.427	32215
591.442	31987
591.495	31173
591.498	31078
591.547	30805
591.569	30701
591.600	30302
591.640	29570
591.653	29597
591.706	29787
591.711	29766
591.759	30256
591.782	30506
591.811	30320
591.853	29921
591.864	29887
591.917	29540
591.924	29456
591.969	28778
591.995	28388
592.022	28550
592.066	28724
592.075	28883
592.127	29732
592.137	29856
592.180	30487
592.208	30855
592.233	30103
592.279	28484
592.285	28483
592.338	28367
592.350	28306
592.390	27451
592.421	26769
592.443	26940
592.491	27258
592.495	27319
592.548	27825
592.562	27933
592.600	27582
592.633	27247
592.653	26979
592.704	26073
592.705	26228
592.775	26519
592.846	26669
592.916	26869
592.987	27083
593.058	26467
593.128	26184
593.199	26907
593.270	26048
593.341	25869
593.411	26204
593.482	25952
593.553	26361
593.623	26154
593.694	26213
593.764	27558
593.835	26106
593.906	27128
593.976	26939
594.047	26596
594.117	27668
594.188	29426
594.258	26748
594.329	26697
594.399	27142
594.470	28797
594.540	28011
594.611	27288
594.681	27964
594.751	28332
594.822	28706
594.892	28915
594.963	30350
595.033	31166
595.103	30453
595.174	30994
595.244	34278
595.314	36941
595.384	33739
595.455	31327
595.525	32806
595.595	33734
595.665	34497
595.736	33863
595.806	33513
595.876	33861
595.946	33381
596.016	34991
596.087	34387
596.157	34622
596.227	34596
596.297	36197
596.367	37593
596.437	40539
596.507	42691
596.577	44404
596.647	41139
596.717	40652
596.787	41697
596.857	41974
596.927	41674
596.997	42259
597.067	42488
597.137	45067
597.207	45285
597.277	44571
597.347	43154
597.417	42294
597.487	42667
597.557	43960
597.626	43407
597.696	44757
597.766	45916
597.836	47188
597.906	43822
597.975	40703
598.045	41151
598.115	42177
598.185	44037
598.254	47599
598.324	50488
598.394	51799
598.464	51171
598.533	50214
598.603	48883
598.672	46811
598.742	49443
598.812	49305
598.881	50808
598.951	49769
599.020	50369
599.090	51768
599.159	51946
599.229	52340
599.299	50963
599.368	52011
599.437	52910
599.507	49565
599.576	48782
599.646	49755
599.715	53031
599.785	49472
599.854	49278
599.924	50118
599.993	49413
600.062	50568
600.132	51331
600.201	53430
600.270	56768
600.340	60712
600.409	60178
600.478	60608
600.547	62815
600.617	60934
600.686	53334
600.755	51337
600.824	51224
600.894	51705
600.963	52201
601.032	52076
601.101	52038
601.170	52301
601.239	51743
601.308	52014
601.378	52982
601.447	54733
601.516	54978
601.585	56568
601.654	56714
601.723	58265
601.792	59327
601.861	60921
601.930	65379
601.999	66606
602.068	64722
602.137	66564
602.206	66035
602.275	66604
602.343	67971
602.412	68267
602.481	67923
602.550	67320
602.619	69584
602.688	69340
602.756	70208
602.825	70224
602.894	72200
602.963	70884
603.032	73201
603.100	73468
603.169	70760
603.238	76379
603.307	72720
603.375	71955
603.444	75573
603.513	71763
603.581	73240
603.650	76115
603.719	67798
603.787	63684
603.856	63740
603.924	65028
603.993	66640
604.061	67187
604.130	70676
604.198	71851
604.267	71719
604.335	74138
604.404	75177
604.472	75148
604.541	77208
604.609	78002
604.678	81713
604.746	81662
604.815	82889
604.883	82385
604.951	80351
605.020	83005
605.088	79194
605.156	76594
605.225	75958
605.293	75798
605.361	75904
605.429	76684
605.498	76773
605.566	76737
605.634	79513
605.702	81011
605.771	80773
605.839	85324
605.907	79661
605.975	80667
606.043	80151
606.111	75287
606.180	81676
606.248	80100
606.316	76324
606.384	78492
606.452	73290
606.520	60066
606.588	61294
606.656	62581
606.724	61224
606.792	58716
606.860	53733
606.928	51076
606.996	48056
607.064	47419
607.132	48632
607.200	49360
607.267	52121
607.335	51715
607.403	53957
607.471	52830
607.539	50998
607.607	51734
607.674	45756
607.742	45981
607.810	45104
607.878	45866
607.946	46491
608.013	47072
608.081	48301
608.149	48525
608.216	49013
608.284	51650
608.352	51273
608.419	50832
608.487	51981
608.555	50878
608.622	49445
608.690	51184
608.757	55257
608.825	58063
608.893	55408
608.960	53695
609.028	53014
609.095	54159
609.163	52237
609.230	47555
609.298	43909
609.365	45068
609.432	48519
609.500	50794
609.567	56522
609.635	64416
609.702	68758
609.769	66847
609.837	56063
609.904	46899
609.971	46518
610.039	50543
610.106	57912
610.173	90437
610.241	183056
610.308	163990
610.375	76293
610.442	53224
610.509	49372
610.577	49433
610.644	49507
610.711	51097
610.778	50881
610.845	53587
610.912	55671
610.980	58763
611.047	62609
611.114	61249
611.181	55655
611.248	55953
611.315	58390
611.382	59011
611.449	60714
611.516	62204
611.583	61704
611.650	62445
611.717	61158
611.784	63238
611.851	64279
611.918	67166
611.984	74195
612.051	92350
612.118	149924
612.185	326799
612.252	297621
612.319	97142
612.386	78261
612.452	74366
612.519	70325
612.586	71380
612.653	70297
612.719	71950
612.786	71210
612.853	65632
612.919	64178
612.986	64812
613.053	63102
613.120	59737
613.186	57291
613.253	59388
613.319	58133
613.386	58252
613.453	58732
613.519	59231
613.586	59013
613.652	61718
613.719	60242
613.785	60298
613.852	61625
613.918	60325
613.985	60136
614.051	63875
614.118	71896
614.184	73651
614.250	59749
614.317	60989
614.383	59057
614.449	61264
614.516	60735
614.582	63445
614.648	60592
614.715	60772
614.781	60051
614.847	59657
614.914	60929
614.980	60088
615.046	58192
615.112	58904
615.179	60770
615.245	62167
615.311	63054
615.377	67191
615.443	71597
615.509	63898
615.575	64040
615.642	62255
615.708	64911
615.774	66569
615.840	70203
615.906	74709
615.972	85547
616.038	116136
616.104	191163
616.170	376255
616.236	429701
616.302	137295
616.368	94158
616.434	78127
616.500	73326
616.565	74345
616.631	85365
616.697	79725
616.763	77417
616.829	93121
616.895	140765
616.961	153912
617.026	90594
617.092	68360
617.158	67046
617.224	65929
617.289	61887
617.355	60024
617.421	59681
617.487	61191
617.552	57521
617.618	56648
617.684	56610
617.749	58278
617.815	55702
617.880	54692
617.946	55134
618.012	55867
618.077	57095
618.143	57143
618.208	55045
618.274	58956
618.339	60309
618.405	52895
618.470	53580
618.536	53221
618.601	53703
618.667	51557
618.732	49332
618.798	50126
618.863	48747
618.928	48034
618.994	48332
619.059	49523
619.124	50098
619.190	50073
619.255	49069
619.320	49068
619.386	48903
619.451	47801
619.516	47794
619.581	48481
619.647	49655
619.712	48979
619.777	48425
619.842	50158
619.907	50819
619.972	49888
620.038	50393
620.103	48635
620.168	48994
620.233	50789
620.298	50265
620.363	49764
620.428	50259
620.493	51284
620.558	51797
620.623	52683
620.688	53357
620.753	51842
620.818	52551
620.883	53758
620.948	53381
621.013	51828
621.078	52859
621.143	52747
621.207	54443
621.272	52851
621.337	54081
621.402	52949
621.467	54438
621.532	56086
621.596	55303
621.661	52116
621.726	52073
621.791	53174
621.855	52631
621.920	53335
621.985	53970
622.049	55452
622.114	54024
622.179	54409
622.243	55637
622.308	56983
622.373	56872
622.437	58577
622.502	54692
622.566	54966
622.631	53910
622.695	54438
622.760	55861
622.824	55572
622.889	55686
622.953	56297
623.018	57421
623.082	58634
623.147	56380
623.211	56185
623.276	56192
623.340	54356
623.404	53649
623.469	52691
623.533	53884
623.597	52041
623.662	53232
623.726	51551
623.790	48768
623.854	47390
623.919	47736
623.983	47972
624.047	48864
624.111	49118
624.176	48190
624.240	48930
624.304	51173
624.368	49340
624.432	48824
624.496	49190
624.560	50058
624.625	50838
624.689	50501
624.753	51550
624.817	50445
624.881	48133
624.945	47163
625.009	45212
625.073	45812
625.137	46147
625.201	47444
625.265	47286
625.329	44656
625.393	45742
625.456	45707
625.520	45942
625.584	46635
625.648	48554
625.712	51714
625.776	65406
625.839	70503
625.903	51157
625.967	39449
626.031	45404
626.095	54562
626.158	45600
626.222	35806
626.286	36044
626.349	33888
626.413	31387
626.477	33264
626.540	31200
626.604	31025
626.668	31832
626.731	30876
626.795	30688
626.858	30966
626.922	29896
626.986	31146
627.049	29305
627.113	29991
627.176	30263
627.240	28706
627.303	28175
627.366	28290
627.430	27765
627.493	28580
627.557	26677
627.620	29147
627.684	29108
627.747	29023
627.810	26283
627.874	25687
627.937	24494
628.000	25857
628.064	24878
628.127	20807
628.190	23501
628.253	23317
628.317	21580
628.380	20563
628.443	21613
628.506	20232
628.569	20047
628.632	19244
628.696	19548
628.759	18956
628.822	18203
628.885	17624
628.948	18533
629.011	17253
629.074	17882
629.137	16171
629.200	16976
629.263	18242
629.326	16523
629.389	16751
629.452	16279
629.515	15992
629.578	15936
629.641	17326
629.704	16131
629.767	16073
629.830	15278
629.892	16045
629.955	14716
630.018	15732
630.081	14778
630.144	15748
630.207	14047
630.269	16255
630.332	15351
630.395	14445
630.458	14196
630.520	13673
630.583	13997
630.646	14069
630.708	14176
630.771	13332
630.834	14849
630.896	13414
630.959	13919
631.021	13692
631.084	12679
631.146	13756
631.209	14912
631.272	12495
631.334	12843
631.397	13385
631.459	12319
631.522	13537
631.584	13347
631.646	13218
631.709	13961
631.771	14413
631.834	13509
631.896	13451
631.958	12670
632.021	12910
632.083	12041
632.145	13256
632.208	12608
632.270	13547
632.332	12421
632.395	11320
632.457	12519
632.519	12034
632.581	12460
632.643	11433
632.706	12555
632.768	11654
632.830	12532
632.892	12133
632.954	11370
633.016	12216
633.078	11774
633.141	12985
633.203	11937
633.265	12069
633.327	11831
633.389	11066
633.451	12406
633.513	12537
633.575	12134
633.637	11895
633.698	12019
633.760	12477
633.822	12364
633.884	12562
633.946	12566
634.008	12271
634.070	12853
634.132	12729
634.193	13285
634.255	13717
634.317	12412
634.379	13431
634.441	12751
634.502	12410
634.564	11939
634.626	11768
634.687	11164
634.749	11348
634.811	11243
634.873	10021
634.934	11266
634.996	11940
635.057	10712
635.119	11366
635.181	11895
635.242	11164
635.304	9651
635.365	12280
635.427	11093
635.488	11240
635.550	11120
635.611	11561
635.673	9865
635.734	12275
635.796	11236
635.857	12353
635.918	11520
635.980	12968
636.041	12344
636.102	13980
636.164	12629
636.225	12874
636.286	11626
636.348	12482
636.409	11459
636.470	10507
636.531	10671
636.593	11101
636.654	12177
636.715	10274
636.776	10759
636.838	10328
636.899	10522
636.960	9199
637.021	10511
637.082	9614
637.143	9801
637.204	9071
637.265	9537
637.326	10273
637.387	9775
637.448	9073
637.509	10169
637.570	10115
637.631	10648
637.692	8764
637.753	8427
637.814	9620
637.875	9295
637.936	10551
637.997	9240
638.058	10434
638.119	11044
638.179	10008
638.240	9232
638.301	10553
638.362	9597
638.423	9929
638.483	10068
638.544	8631
638.605	9579
638.666	8463
638.726	10046
638.787	9747
638.848	9220
638.908	9423
638.969	9331
639.030	8906
639.090	8254
639.151	9407
639.211	9757
639.272	9473
639.332	10128
639.393	9486
639.453	9357
639.514	9259
639.574	9042
639.635	8742
639.695	8855
639.756	8176
639.816	8461
639.877	8195
639.937	10170
639.997	10354
640.058	8161
640.118	8211
640.178	9319
640.239	8460
640.299	8578
640.359	8279
640.420	8419
640.480	8229
640.540	9581
640.600	8840
640.661	9035
640.721	7638
640.781	10902
640.841	8754
640.901	10250
640.961	8070
641.021	8758
641.082	8993
641.142	9105
641.202	8461
641.262	7644
641.322	9418
641.382	7492
641.442	8764
641.502	8207
641.562	8390
641.622	8055
641.682	8849
641.742	8263
641.802	8992
641.861	8910
641.921	8008
641.981	8218
642.041	7770
642.101	8460
642.161	6942
642.221	7914
642.280	7581
642.340	7666
642.400	7128
642.460	8829
642.519	8266
642.579	8589
642.639	9002
642.698	6335
642.758	9799
642.818	7555
642.877	7495
642.937	7545
642.997	8357
643.056	7675
643.116	6850
643.175	8093
643.235	8068
643.294	8346
643.354	8115
643.414	8680
643.473	9583
643.532	9496
643.592	11014
643.651	15514
643.711	24151
643.770	42110
643.830	88983
643.889	227083
643.948	92508
644.008	17063
644.067	10881
644.126	9407
644.186	9395
644.245	8876
644.304	6963
644.363	8696
644.423	6642
644.482	7160
644.541	7216
644.600	6758
644.659	8877
644.719	8710
644.778	12370
644.837	15191
644.896	26955
644.955	65159
645.014	36374
645.073	11324
645.132	8818
645.191	9010
645.250	6953
645.309	7692
645.368	7385
645.427	8723
645.486	10093
645.545	17837
645.604	9231
645.663	7233
645.722	6369
645.781	7551
645.840	8485
645.898	8610
645.957	10974
646.016	13442
646.075	22875
646.134	40460
646.192	90040
646.251	186005
646.310	44282
646.369	11731
646.427	9922
646.486	7404
646.545	7108
646.603	8206
646.662	6972
646.721	6468
646.779	6170
646.838	5934
646.896	7431
646.955	8336
647.014	11261
647.072	15742
647.131	38961
647.189	31081
647.248	7920
647.306	6973
647.365	6880
647.423	5504
647.481	6605
647.540	4516
647.598	6331
647.657	5557
647.715	6602
647.773	5546
647.832	6084
647.890	4948
647.948	4781
648.007	6112
648.065	4451
648.123	5088
648.181	6824
648.240	5554
648.298	5490
648.356	5023
648.414	5478
648.472	5212
648.531	4967
648.589	4600
648.647	4264
648.705	4614
648.763	4045
648.821	4868
648.879	5274
648.937	4900
648.995	5203
649.053	5559
649.111	7844
649.169	11580
649.227	17098
649.285	32178
649.343	93178
649.401	74351
649.459	12813
649.516	9973
649.574	5633
649.632	9999
649.690	13111
649.748	8714
649.806	8495
649.863	16622
649.921	27219
649.979	28277
650.037	7054
650.094	4000
650.152	5265
650.210	3629
650.268	5006
650.325	4177
650.383	4201
650.440	2913
650.498	4648
650.556	3882
650.613	3771
650.671	4541
650.728	2766
650.786	4423
650.843	4145
650.901	2674
650.958	3673
651.016	4043
651.073	3773
651.131	3341
651.188	2682
651.246	3692
651.303	2429
651.360	3471
651.418	2827
651.475	3869
651.532	2497
651.590	3626
651.647	2467
651.704	3219
651.762	2626
651.819	3653
651.876	2829
651.933	2799
651.990	3463
652.048	1850
652.105	2909
652.162	3362
652.219	2877
652.276	3676
652.333	2870
652.390	2170
652.448	3326
652.505	2215
652.562	3529
652.619	3685
652.676	4702
652.733	5280
652.790	3309
652.847	2077
652.904	3033
652.961	1980
653.017	2385
653.074	3612
653.131	2929
653.188	2127
653.245	2951
653.302	2697
653.359	2297
653.415	2883
653.472	1750
653.529	3665
653.586	1471
653.642	1873
653.699	2583
653.756	1957
653.813	2274
653.869	2241
653.926	2314
653.983	1815
654.039	2367
654.096	1817
654.152	3770
654.209	1681
654.266	3179
654.322	1421
654.379	2922
654.435	2560
654.492	2718
654.548	3300
654.605	3911
654.661	4062
654.717	2824
654.774	2552
654.830	2771
654.887	3029
654.943	2353
655.000	3080
655.056	1770
655.112	2926
655.168	2192
655.225	1943
655.281	3137
655.337	2731
655.394	4134
655.450	3532
655.506	3073
655.562	2615
655.618	4278
655.675	1631
655.731	1916
655.787	1264
655.843	2922
655.899	2050
655.955	2897
656.011	1591
656.067	1456
656.123	2559
656.179	2802
656.235	3975
656.291	726
656.347	2657
656.403	1981
656.459	2043
656.515	2582
656.571	3101
656.627	2838
656.683	1565
656.739	2695
656.795	3103
656.850	2827
656.906	3106
656.962	3138
657.018	1512
657.074	2078
657.129	2998
657.185	3964
657.241	6403
657.297	4895
657.352	2444
657.408	1440
657.464	3273
657.519	1160
657.575	1951
657.630	2341
657.686	2631
657.742	1366
657.797	2630
657.853	1748
657.908	3261
657.964	995
658.019	1409
658.075	1927
658.130	2681
658.186	984
658.241	1951
658.297	1365
658.352	1836
658.407	2279
658.463	1875
658.518	2692
658.573	2940
658.629	998
658.684	2510
658.739	2093
658.795	1003
658.850	1897
658.905	605
658.960	1908
659.016	1623
659.071	2428
659.126	2343
659.181	2046
659.236	3677
659.291	3349
659.346	2262
659.401	2506
659.457	3174
659.512	3019
659.567	3838
659.622	1841
659.677	1294
659.732	1101
659.787	1999
659.842	2186
659.897	2602
659.952	2286
660.007	2967
660.061	2180
660.116	1890
660.171	2164
660.226	2202
660.281	2708
660.336	829
660.391	2196
660.445	1233
660.500	2793
660.555	2844
660.610	1020
660.664	2351
660.719	896
660.774	2490
660.828	2264
660.883	1657
660.938	2280
660.992	954
661.047	1637
661.101	1483
661.156	1826
661.211	1439
661.265	1401
661.320	2236
661.374	1844
661.429	1332
661.483	2281
661.538	1555
661.592	1075
661.647	2887
661.701	2863
661.755	1980
661.810	2372
661.864	1062
661.919	775
661.973	2074
662.027	1278
662.081	1421
662.136	1889
662.190	1660
662.244	2233
662.299	1607
662.353	1771
662.407	2050
662.461	1299
662.515	2836
662.569	1608
662.624	3561
662.678	1190
662.732	2533
662.786	1826
662.840	2804
662.894	2013
662.948	941
663.002	1178
663.056	1847
663.110	516
663.164	1136
663.218	1313
663.272	2204
663.326	1024
663.380	1510
663.434	1559
663.488	972
663.542	1704
663.595	1841
663.649	1675
663.703	1645
663.757	1159
663.811	946
663.864	1411
663.918	1967
663.972	1046
664.026	1410
664.079	889
664.133	1713
664.187	2429
664.240	2074
664.294	1954
664.348	2034
664.401	1975
664.455	1292
664.508	1117
664.562	1987
664.615	1050
664.669	884
664.722	2203
664.776	1938
664.829	1584
664.883	1369
664.936	1391
664.990	2093
665.043	2329
665.097	2012
665.150	2165
665.203	1363
665.257	1863
665.310	1701
665.363	1620
665.417	2429
665.470	1482
665.523	2187
665.576	1414
665.630	1532
665.683	1974
665.736	2036
665.789	2033
665.842	2177
665.895	2061
665.949	2274
666.002	1535
666.055	2470
666.108	2114
666.161	2387
666.214	2173
666.267	2245
666.320	2065
666.373	1594
666.426	1212
666.479	1726
666.532	1436
666.585	1030
666.638	1948
666.691	1923
666.744	2290
666.796	1840
666.849	2514
666.902	1880
666.955	1370
667.008	993
667.060	1672
667.113	1335
667.166	1251
667.219	1847
667.271	1997
667.324	1578
667.377	2244
667.430	2373
667.482	1797
667.535	2007
667.587	2250
667.640	2029
667.693	1641
667.745	1776
667.798	2187
667.850	1445
667.903	2017
667.955	1438
668.008	1038
668.060	1884
668.113	1679
668.165	1977
668.218	1913
668.270	1667
668.322	1431
668.375	1761
668.427	2127
668.479	1709
668.532	2154
668.584	1896
668.636	2904
668.689	1897
668.741	1300
668.793	2064
668.845	2219
668.898	1606
668.950	1941
669.002	2230
669.054	1478
669.106	1583
669.158	2132
669.211	1657
669.263	1562
669.315	2299
669.367	2278
669.419	2100
669.471	2235
669.523	1858
669.575	2279
669.627	2112
669.679	1998
669.731	1665
669.783	2070
669.835	2203
669.886	1411
669.938	2088
669.990	1779
670.042	1378
670.094	1330
670.146	1525
670.197	1989
670.249	2216
670.301	2997
670.353	3713
670.404	4554
670.456	6203
670.508	10156
670.560	15554
670.611	25865
670.663	45370
670.715	96544
670.766	188239
670.818	91417
670.869	16630
670.921	7077
670.972	4253
671.024	3415
671.075	3192
671.127	1851
671.178	2813
671.230	2111
671.281	2588
671.333	2196
671.384	1718
671.436	2387
671.487	3106
671.538	3951
671.590	4434
671.641	6190
671.692	9896
671.744	17521
671.795	16642
671.846	6893
671.897	3190
671.949	2488
672.000	2174
672.051	1677
672.102	2362
672.153	1202
672.204	1815
672.256	1739
672.307	1990
672.358	1312
672.409	707
672.460	1490
672.511	741
672.562	1676
672.613	1394
672.664	1528
672.715	1361
672.766	1067
672.817	985
672.868	1306
672.919	1664
672.970	982
673.021	1313
673.071	815
673.122	1605
673.173	1590
673.224	582
673.275	465
673.326	1234
673.376	1348
673.427	252
673.478	1676
673.528	1368
673.579	505
673.630	1165
673.680	1500
673.731	312
673.782	694
673.832	299
673.883	778
673.934	1075
673.984	1060
674.035	821
674.085	632
674.136	861
674.186	832
674.237	1643
674.287	1980
674.338	1237
674.388	857
674.438	1034
674.489	1543
674.539	911
674.589	481
674.640	590
674.690	938
674.740	533
674.791	1617
674.841	1303
674.891	1158
674.942	1471
674.992	405
675.042	1105
675.092	966
675.142	1317
675.193	944
675.243	751
675.293	1590
675.343	773
675.393	490
675.443	1597
675.493	1065
675.543	900
675.593	1315
675.643	968
675.693	1358
675.743	577
675.793	726
675.843	804
675.893	1084
675.943	257
675.993	188
676.043	760
676.093	1077
676.142	645
676.192	1076
676.242	380
676.292	-314
676.341	265
676.391	752
676.441	1099
676.491	708
676.540	793
676.590	515
676.640	506
676.689	585
676.739	875
676.789	389
676.838	388
676.888	133
676.937	634
676.987	142
677.037	331
677.086	519
677.136	508
677.185	877
677.235	685
677.284	221
677.333	171
677.383	238
677.432	361
677.482	-113
677.531	829
677.580	290
677.630	487
677.679	-543
677.728	-64
677.778	293
677.827	318
677.876	20
677.925	211
677.975	503
678.024	211
678.073	355
678.122	444
678.171	772
678.220	766
678.269	571
678.319	544
678.368	506
678.417	992
678.466	1142
678.515	916
678.564	801
678.613	829
678.662	764
678.711	280
678.760	745
678.809	-136
678.857	469
678.906	563
678.955	1195
679.004	710
679.053	598
679.102	793
679.151	859
679.199	-49
679.248	126
679.297	445
679.346	80
679.394	570
679.443	-507
679.492	799
679.540	853
679.589	514
679.638	532
679.686	749
679.735	467
679.784	471
679.832	741
679.881	226
679.929	354
679.978	266
680.026	860
680.075	377
680.123	-478
680.172	574
680.220	196
680.268	927
680.317	496
680.365	-336
680.414	72
680.462	1284
680.510	163
680.559	923
680.607	146
680.655	117
680.703	172
680.752	468
680.800	-470
680.848	261
680.896	687
680.945	737
680.993	372
681.041	303
681.089	121
681.137	991
681.185	-585
681.233	102
681.258	158
681.281	153
681.329	737
681.377	281
681.380	347
681.425	437
681.473	1092
681.502	1106
681.521	1008
681.569	1454
681.617	812
681.624	938
681.665	1310
681.713	1770
681.745	1168
681.761	799
681.809	1193
681.857	2482
681.867	2320
681.904	1528
681.952	1837
681.989	2377
682.000	2464
682.048	1396
682.096	2160
682.111	2291
682.143	2402
682.191	1810
682.233	2325
682.239	2346
682.286	2119
682.334	2842
682.354	2745
682.382	2485
682.430	2723
682.476	2984
682.477	2937
682.525	3502
682.572	2710
682.598	2995
682.620	3172
682.667	2963
682.715	4082
682.720	4187
682.763	4668
682.810	3749
682.841	4174
682.857	4308
682.905	4190
682.952	4254
682.963	4392
683.000	4718
683.047	4875
683.085	5285
683.095	5330
683.142	4990
683.190	4614
683.206	4694
683.237	4739
683.284	5148
683.328	5432
683.332	5405
683.379	4955
683.426	5148
683.449	5347
683.473	5528
683.521	5531
683.568	5748
683.571	5808
683.615	5964
683.662	6181
683.693	6062
683.709	5940
683.757	6200
683.804	6412
683.814	6540
683.851	6827
683.898	7078
683.936	7064
683.945	7022
683.992	7147
684.039	7604
684.057	7722
684.086	7788
684.133	7848
684.179	7392
684.180	7341
684.227	7471
684.274	8139
684.300	8038
684.321	7929
684.368	7659
684.415	8280
684.422	8287
684.462	8141
684.509	8414
684.543	8288
684.556	8189
684.603	8172
684.649	9154
684.665	8920
684.696	8427
684.743	8601
684.786	9111
684.790	9111
684.837	9082
684.883	9653
684.908	9431
684.930	9318
684.977	10142
685.023	10607
685.029	10541
685.070	9458
685.117	9829
685.150	9834
685.164	9920
685.210	10175
685.257	10861
685.272	10977
685.303	10929
685.350	10372
685.393	11129
685.396	11171
685.443	11210
685.490	11152
685.514	11371
685.536	11515
685.583	11225
685.629	11019
685.636	11054
685.675	11269
685.722	11545
685.757	12575
685.768	12841
685.815	12004
685.861	12189
685.878	12014
685.908	11766
685.954	12499
686.000	12658
686.000	12646
686.047	12136
686.093	12712
686.121	12862
686.139	12963
686.185	12793
686.232	12951
686.242	12934
686.278	12588
686.324	13028
686.363	12697
686.370	12662
686.416	12896
686.463	12714
686.484	12926
686.509	13241
686.555	12745
686.601	13639
686.606	13658
686.647	13487
686.693	13681
686.727	13574
686.739	13565
686.785	14225
686.831	13672
686.848	13865
686.877	14103
686.923	13595
686.969	13636
686.969	13635
687.015	13802
687.061	14226
687.090	14291
687.107	14265
687.153	14527
687.199	14847
687.211	14672
687.245	14094
687.291	14586
687.332	14089
687.336	14089
687.382	14744
687.428	15011
687.453	15374
687.474	15396
687.520	15807
687.565	15180
687.574	15143
687.611	15400
687.657	15902
687.695	16167
687.702	16245
687.748	17048
687.794	17805
687.816	18013
687.839	17836
687.885	16564
687.931	16141
687.937	16138
687.976	16399
688.022	16342
688.058	16666
688.067	16781
688.113	16714
688.158	16349
688.179	16442
688.204	16578
688.249	16921
688.295	16883
688.300	16865
688.340	16999
688.386	17518
688.421	17877
688.431	17885
688.477	17428
688.522	17152
688.542	17205
688.567	17610
688.613	17774
688.658	18155
688.663	18163
688.703	17787
688.749	17388
688.784	17176
688.794	17208
688.839	17514
688.884	17537
688.905	17311
688.930	17210
688.975	18052
689.020	18232
689.026	18285
689.065	18697
689.110	18585
689.146	18922
689.155	18988
689.201	18731
689.246	19017
689.267	18860
689.291	18742
689.336	18427
689.381	18634
689.388	18605
689.426	18601
689.471	18793
689.509	18843
689.516	18874
689.561	18982
689.606	18797
689.630	18667
689.651	18679
689.696	18811
689.741	19109
689.750	19151
689.785	19461
689.830	19560
689.871	19313
689.875	19263
689.920	18885
689.965	18990
689.992	18709
690.010	18845
690.054	18476
690.099	19654
690.112	19630
690.144	19644
690.189	19885
690.233	20100
690.233	20128
690.278	20116
690.323	20196
690.354	19774
690.367	19794
690.412	20151
690.457	20435
690.474	20580
690.501	20643
690.546	20385
690.590	20474
690.595	20423
690.635	20857
690.680	21423
690.716	21660
690.724	21896
690.769	23478
690.813	25015
690.836	25644
690.857	27040
690.902	30085
690.946	33145
690.957	33816
690.991	42248
691.035	53883
691.077	64558
691.080	64686
691.124	64237
691.168	63452
691.198	63241
691.213	59302
691.257	47356
691.301	35356
691.318	30545
691.346	29175
691.390	27113
691.434	24692
691.439	24400
691.478	23881
691.522	23517
691.559	22739
691.567	22763
691.611	23228
691.655	23417
691.680	23488
691.699	23502
691.743	23150
691.787	23445
691.800	23295
691.831	23303
691.875	23266
691.919	23652
691.921	23623
691.964	24011
692.008	23873
692.041	23983
692.052	24051
692.096	23648
692.139	23742
692.162	23550
692.183	23422
692.227	23608
692.271	23269
692.282	23176
692.315	23394
692.359	23651
692.402	24044
692.403	24093
692.447	24003
692.490	23951
692.523	24097
692.534	24258
692.578	23999
692.622	24156
692.643	24259
692.666	24288
692.709	24126
692.753	23521
692.763	23448
692.797	23751
692.840	23959
692.884	24087
692.884	24139
692.928	24453
692.971	24718
693.004	24667
693.015	24699
693.059	24884
693.102	25297
693.124	25330
693.146	25519
693.189	25664
693.233	25925
693.245	26010
693.276	26507
693.320	26925
693.363	27013
693.365	26966
693.407	28162
693.450	29530
693.485	30498
693.493	31083
693.537	33840
693.580	36189
693.605	37849
693.624	41080
693.667	48021
693.710	55538
693.725	57964
693.753	74659
693.797	100477
693.840	126909
693.845	129831
693.883	128732
693.926	126559
693.966	124569
693.970	122083
694.013	93831
694.056	65360
694.086	45665
694.099	44380
694.142	39951
694.185	35737
694.206	33455
694.229	32673
694.272	31138
694.315	29760
694.326	29328
694.358	29042
694.401	28355
694.444	27661
694.446	27578
694.487	27771
694.530	27658
694.566	27528
694.573	27534
694.616	27166
694.659	26951
694.686	26552
694.702	26389
694.745	26009
694.787	25614
694.806	25228
694.830	25363
694.873	25934
694.916	26407
694.926	26443
694.959	26596
695.002	26564
695.044	26810
695.046	26743
695.087	26681
695.130	26744
695.166	26664
695.172	26774
695.215	27211
695.258	27540
695.286	27760
695.301	27859
695.343	27755
695.386	27765
695.406	27633
695.428	27656
695.471	27758
695.514	27712
695.526	27682
695.556	28078
695.599	28541
695.641	28699
695.646	28680
695.684	28707
695.726	28546
695.766	28312
695.769	28389
695.811	28535
695.854	28512
695.886	28460
695.896	28504
695.938	28423
695.981	28399
696.005	28288
696.023	28557
696.065	29065
696.108	29414
696.125	29575
696.150	29863
696.192	30025
696.235	30367
696.245	30325
696.277	30364
696.319	30581
696.361	30558
696.365	30485
696.404	30808
696.446	31038
696.485	31215
696.488	31277
696.530	31025
696.572	30647
696.604	30343
696.614	30378
696.656	30288
696.698	30022
696.724	29857
696.740	29935
696.783	29767
696.825	29796
696.844	29729
696.867	29930
696.909	30053
696.951	30140
696.964	30088
696.992	29799
697.034	29340
697.076	28890
697.083	28726
697.118	29466
697.160	30307
697.202	31188
697.203	31128
697.244	30705
697.286	30231
697.323	29722
697.327	29834
697.369	30120
697.411	30385
697.442	30426
697.453	30507
697.494	30693
697.536	30837
697.562	30858
697.578	30966
697.620	30924
697.661	30952
697.682	30857
697.703	30941
697.744	30961
697.786	31051
697.801	30943
697.828	31264
697.869	31766
697.911	32263
697.921	32289
697.952	32168
697.994	31900
698.035	31639
698.040	31520
698.077	31423
698.118	31206
698.160	30996
698.160	30909
698.201	31197
698.243	31466
698.279	31587
698.284	31688
698.325	31838
698.367	31989
698.399	31990
698.408	32118
698.449	32292
698.491	32517
698.518	32580
698.532	32683
698.573	32679
698.614	32719
698.638	32634
698.656	32742
698.697	32792
698.738	32845
698.757	32780
698.779	33030
698.820	33328
698.862	33620
698.877	33638
698.903	33916
698.944	34202
698.985	34495
698.996	34481
699.026	34229
699.067	33746
699.116	33078
699.235	33041
699.354	31408
699.474	32308
699.593	32901
699.713	32862
699.832	31958
699.951	33659
700.070	32497
700.190	31445
700.309	31100
700.428	31538
700.547	31047
700.667	29960
700.786	31471
700.905	30901
701.024	30701
701.143	30222
701.262	30150
701.381	31236
701.500	29772
701.619	30507
701.738	29638
701.857	29260
701.976	28595
702.095	29025
702.214	29723
702.333	29299
702.452	29085
702.571	28811
702.690	29378
702.809	29112
702.928	26978
703.047	28534
703.165	27919
703.284	27573
703.403	27530
703.522	27923
703.640	28844
703.759	27376
703.878	28928
703.997	27328
704.115	27013
704.234	26924
704.353	26539
704.471	26631
704.590	26171
704.708	25866
704.827	26466
704.946	26321
705.064	26515
705.183	26227
705.301	28338
705.420	34648
705.538	34606
705.656	30839
705.775	29482
705.893	39250
706.012	51531
706.130	31141
706.249	30138
706.367	30383
706.485	30086
706.604	29509
706.722	29488
706.840	30269
706.958	34374
707.077	32505
707.195	29266
707.313	28008
707.431	27864
707.549	28181
707.668	27396
707.786	27334
707.904	28416
708.022	27602
708.140	27572
708.258	26592
708.376	27205
708.494	27391
708.612	27915
708.730	33400
708.848	33495
708.966	31709
709.084	30632
709.202	30224
709.320	30906
709.438	30976
709.556	30502
709.674	29978
709.791	30288
709.909	28559
710.027	29722
710.145	28882
710.263	29729
710.380	28475
710.498	28630
710.616	27999
710.733	27893
710.851	28605
710.969	28350
711.086	27090
711.204	28230
711.322	27016
711.439	26637
711.557	27269
711.674	27877
711.792	26868
711.909	27910
712.027	28703
712.144	26329
712.262	26765
712.379	26713
712.497	34526
712.614	36839
712.732	32947
712.849	29693
712.966	29800
713.084	32171
713.201	31721
713.318	29535
713.436	29776
713.553	30910
713.670	31130
713.787	31340
713.905	31747
714.022	29896
714.139	29170
714.256	30614
714.373	32108
714.490	38216
714.608	54553
714.725	159502
714.842	247764
714.959	45239
715.076	30582
715.193	28201
715.310	27841
715.427	27372
715.544	26472
715.661	27387
715.778	26919
715.895	28466
716.011	28422
716.128	27052
716.245	25666
716.362	25997
716.479	26178
716.596	25573
716.713	25757
716.829	25066
716.946	25357
717.063	24359
717.180	25410
717.296	24599
717.413	25357
717.530	23317
717.646	24061
717.763	23894
717.880	23143
717.996	23249
718.113	24084
718.229	22395
718.346	22412
718.462	22343
718.579	23490
718.695	24032
718.812	23679
718.928	23978
719.045	22827
719.161	21440
719.277	22435
719.394	21603
719.510	22619
719.626	22057
719.743	25617
719.859	25883
719.975	31707
720.092	60112
720.208	152437
720.324	44156
720.440	23181
720.557	22629
720.673	22919
720.789	25481
720.905	35104
721.021	27406
721.137	21216
721.253	20859
721.369	20217
721.486	20425
721.602	22544
721.718	21232
721.834	19194
721.950	20709
722.066	19022
722.181	19619
722.297	19753
722.413	19719
722.529	19739
722.645	19718
722.761	19825
722.877	19116
722.993	18920
723.108	19571
723.224	19848
723.340	19001
723.456	19462
723.571	18806
723.687	19076
723.803	18386
723.918	18022
724.034	18050
724.150	18430
724.265	18392
724.381	20848
724.497	23866
724.612	17405
724.728	17908
724.843	16635
724.959	17296
725.074	20495
725.190	22652
725.305	17849
725.421	17670
725.536	17307
725.651	17295
725.767	17251
725.882	17240
725.997	17314
726.113	17249
726.228	16904
726.343	16713
726.459	15947
726.574	16053
726.689	15977
726.804	15977
726.920	15201
727.035	16357
727.150	15574
727.265	15691
727.380	16414
727.495	16658
727.610	15500
727.725	15868
727.841	15450
727.956	21808
728.071	23820
728.186	15945
728.301	14500
728.416	16006
728.531	15190
728.645	14587
728.760	15063
728.875	14066
728.990	13901
729.105	14570
729.220	14227
729.335	14673
729.449	14775
729.564	13653
729.679	13704
729.794	14189
729.908	14292
730.023	14621
730.138	14328
730.253	14929
730.367	14293
730.482	14047
730.596	13717
730.711	14978
730.826	15043
730.940	16055
731.055	14960
731.169	14848
731.284	14232
731.398	14983
731.513	14271
731.627	15230
731.742	16158
731.856	16571
731.970	16088
732.085	15707
732.199	16768
732.313	20483
732.428	32330
732.542	77942
732.656	70748
732.771	21862
732.885	16959
732.999	16764
733.113	17593
733.227	17212
733.342	16373
733.456	16605
733.570	16617
733.684	15884
733.798	16570
733.912	15566
734.026	14664
734.140	14813
734.254	15096
734.368	16793
734.482	17859
734.596	15142
734.710	15202
734.824	15196
734.938	14556
735.052	14353
735.166	14770
735.280	14101
735.393	14348
735.507	14709
735.621	14904
735.735	16202
735.849	15208
735.962	14277
736.076	14270
736.190	13924
736.303	14586
736.417	17236
736.531	13707
736.644	13906
736.758	13753
736.872	13466
736.985	14077
737.099	13241
737.212	13548
737.326	13710
737.439	13695
737.553	13420
737.666	13519
737.780	12394
737.893	13204
738.007	12856
738.120	13650
738.233	13421
738.347	13388
738.460	13324
738.573	12993
738.687	12803
738.800	12984
738.913	13415
739.026	13864
739.140	13775
739.253	13294
739.366	13214
739.479	12446
739.592	12439
739.705	12273
739.818	13250
739.932	12773
740.045	11821
740.158	12414
740.271	12358
740.384	12069
740.497	12150
740.610	12789
740.723	12208
740.836	12281
740.949	13181
741.062	13781
741.174	12482
741.287	12043
741.400	11691
741.513	11898
741.626	12444
741.739	11648
741.851	12557
741.964	11824
742.077	11216
742.189	11714
742.302	11937
742.415	12173
742.527	12277
742.640	11491
742.753	11538
742.865	12085
742.978	11591
743.090	11738
743.203	11156
743.316	12370
743.428	11245
743.541	11706
743.653	11176
743.766	11025
743.878	11625
743.990	11369
744.103	12844
744.215	12074
744.327	11884
744.440	12043
744.552	11853
744.664	11570
744.777	11302
744.889	9984
745.001	11688
745.113	11093
745.226	11730
745.338	11747
745.450	11187
745.562	12129
745.674	10988
745.786	11440
745.898	11318
746.010	10987
746.122	10961
746.234	10749
746.347	11306
746.459	11754
746.570	10852
746.682	10704
746.794	11384
746.906	10892
747.018	10458
747.130	11553
747.242	10824
747.354	11364
747.466	11053
747.577	10536
747.689	11489
747.801	10626
747.913	10703
748.024	10758
748.136	10416
748.248	10090
748.359	10806
748.471	10652
748.583	11078
748.694	9786
748.806	11316
748.918	10480
749.029	11410
749.141	10587
749.252	10443
749.364	9391
749.475	10295
749.587	11330
749.698	10469
749.809	10565
749.921	11293
750.032	10171
750.144	9908
750.255	10524
750.366	9552
750.478	10806
750.589	10455
750.700	10676
750.811	10117
750.923	10571
751.034	11079
751.145	11425
751.256	10279
751.367	10649
751.479	10305
751.590	9304
751.701	10274
751.812	9086
751.923	10115
752.034	10364
752.145	10235
752.256	10695
752.367	9596
752.478	10419
752.589	10812
752.700	10758
752.811	9498
752.922	10525
753.032	9920
753.143	10553
753.254	9352
753.365	10145
753.476	9894
753.586	10757
753.697	10337
753.808	10887
753.919	8969
754.029	9506
754.140	10556
754.251	10572
754.361	9940
754.472	9931
754.582	10598
754.693	9853
754.804	10419
754.914	10443
755.025	10760
755.135	10437
755.246	10526
755.356	10832
755.466	10905
755.577	10630
755.687	9672
755.798	10488
755.908	10632
756.018	10078
756.129	10591
756.239	10564
756.349	10941
756.460	9970
756.570	10138
756.680	10938
756.790	10597
756.900	11564
757.011	11221
757.121	11180
757.231	10565
757.341	10824
757.451	10178
757.561	11429
757.671	10404
757.781	10917
757.891	12379
758.001	11223
758.111	11613
758.221	11456
758.331	11619
758.441	10967
758.551	11392
758.661	10677
758.771	12016
758.880	11006
758.990	11667
759.100	12472
759.210	12486
759.320	11605
759.429	12574
759.539	12380
759.649	12906
759.758	13172
759.868	12815
759.978	13413
760.087	13947
760.197	13932
760.307	13881
760.416	13264
760.526	13517
760.635	15054
760.745	14137
760.854	14605
760.964	15199
761.073	15563
761.182	14916
761.292	15175
761.401	15447
761.511	15069
761.620	16093
761.729	16689
761.839	16809
761.948	16331
762.057	15598
762.166	17297
762.276	17088
762.385	18964
762.494	18286
762.603	18534
762.712	19243
762.822	19470
762.931	20898
763.040	21230
763.149	21318
763.258	22449
763.367	22934
763.476	24721
763.585	24452
763.694	26309
763.803	26105
763.912	28560
764.021	29447
764.130	31363
764.238	32265
764.347	35291
764.456	36814
764.565	40897
764.674	42474
764.783	46211
764.891	50204
765.000	55727
765.109	60726
765.217	70269
765.326	80543
765.435	94774
765.543	111095
765.652	135208
765.761	166563
765.869	213056
765.978	282196
766.086	372250
766.195	483909
766.303	555265
766.412	458955
766.520	358487
766.629	528866
766.737	517745
766.846	407836
766.954	310929
767.062	236894
767.171	187126
767.279	148292
767.387	121982
767.496	103448
767.604	88222
767.712	76125
767.820	70501
767.928	64745
768.037	58902
768.145	57658
768.253	54920
768.361	53175
768.469	51480
768.577	51916
768.685	54094
768.793	56348
768.901	62055
769.009	68606
769.117	80529
769.225	97382
769.333	127478
769.441	179400
769.549	260931
769.657	393350
769.765	503549
769.873	399815
769.981	449939
770.088	452434
770.196	318926
770.304	223432
770.412	163782
770.519	126386
770.627	101070
770.735	83834
770.842	70935
770.950	62401
771.058	54594
771.165	49723
771.273	46084
771.380	40901
771.488	37678
771.595	35800
771.703	33139
771.810	30894
771.918	29024
772.025	27977
772.133	27638
772.240	26365
772.348	26024
772.455	25356
772.562	22902
772.670	22946
772.777	22221
772.884	21413
772.991	20755
773.099	20585
773.206	20200
773.313	19408
773.420	18857
773.528	18409
773.635	17246
773.742	19266
773.849	16794
773.956	16707
774.063	15575
774.170	16799
774.277	16423
774.384	15413
774.491	15049
774.598	15732
774.705	15034
774.812	14509
774.919	15096
775.026	15009
775.133	15308
775.239	14428
775.346	14490
775.453	13533
775.560	13254
775.667	14234
775.773	14483
775.880	12658
775.987	12815
776.093	12392
776.200	13006
776.307	11944
776.413	12000
776.520	12304
776.627	11881
776.733	11595
776.840	10847
776.946	13214
777.053	12302
777.159	11789
777.266	10193
777.372	12350
777.478	11660
777.585	11901
777.691	10800
777.798	11160
777.904	11823
778.010	11233
778.117	12205
778.223	10791
778.329	11012
778.435	10554
778.542	10983
778.648	10304
778.754	9961
778.860	11021
778.966	10668
779.072	9624
779.178	9990
779.284	9782
779.391	10598
779.497	10221
779.603	13064
779.708	15691
779.815	25242
779.920	68485
780.026	176701
780.132	58795
780.238	16183
780.344	11534
780.450	11106
780.556	9923
780.661	8802
780.767	9290
780.873	8965
780.979	8587
781.085	8734
781.190	8505
781.296	8681
781.402	8708
781.507	8294
781.613	7983
781.719	8807
781.824	8798
781.930	8931
782.035	8666
782.141	8610
782.246	7948
782.352	7337
782.457	8226
782.563	8109
782.668	7888
782.773	7882
782.879	7733
782.984	8047
783.090	8339
783.195	8203
783.300	8876
783.405	7585
783.511	7401
783.616	7487
783.721	7979
783.826	7740
783.932	8095
784.037	7346
784.142	7631
784.247	7561
784.352	7994
784.457	7615
784.562	8160
784.667	7482
784.772	7577
784.877	6648
784.982	7418
785.087	7245
785.192	8045
785.297	7192
785.402	6332
785.507	7845
785.611	7676
785.716	6553
785.821	7227
785.926	7018
786.031	6769
786.135	5858
786.240	7223
786.345	5630
786.450	6162
786.554	6377
786.659	6103
786.763	5171
786.868	6588
786.973	7207
787.077	6171
787.182	6107
787.286	6369
787.391	6579
787.495	6450
787.600	6289
787.704	5742
787.809	7103
787.913	5915
788.017	6800
788.122	5817
788.226	6433
788.330	5197
788.435	6208
788.539	6646
788.643	5050
788.747	5255
788.852	5693
788.956	5058
789.060	5918
789.164	5376
789.268	5411
789.372	6687
789.476	5560
789.580	6143
789.684	5131
789.788	5518
789.892	5203
789.996	6142
790.100	5746
790.204	5527
790.308	6129
790.412	6409
790.516	6635
790.620	5518
790.724	6024
790.828	6226
790.931	5640
791.035	7052
791.139	6442
791.242	5483
791.346	7120
791.450	5704
791.554	5164
791.657	4222
791.761	5749
791.864	5727
791.968	5247
792.072	6007
792.175	5257
792.279	4974
792.382	5445
792.486	5257
792.589	5158
792.693	5250
792.796	4583
792.899	5572
793.003	5518
793.106	4084
793.209	4933
793.313	5873
793.416	4381
793.519	5164
793.623	5469
793.726	6209
793.829	4984
793.932	5531
794.035	5128
794.138	5990
794.242	6082
794.345	7061
794.448	8201
794.551	14786
794.654	39855
794.757	113749
794.860	40405
794.963	9312
795.066	5671
795.169	6423
795.272	6139
795.375	5566
795.477	5612
795.580	5498
795.683	4976
795.786	5336
795.889	4969
795.991	5725
796.094	5207
796.197	4701
796.300	5218
796.402	4293
796.505	4316
796.608	3900
796.710	4570
796.813	4755
796.915	4957
797.018	5609
797.120	5296
797.223	4192
797.326	5423
797.428	4367
797.530	4144
797.633	4590
797.735	5174
797.838	4516
797.940	5801
798.042	4311
798.145	5360
798.247	4634
798.349	3236
798.452	4793
798.554	3942
798.656	4075
798.758	5008
798.860	4161
798.962	4342
799.065	3696
799.167	2942
799.269	4744
799.371	4806
799.473	5672
799.575	4787
799.677	4608
799.779	5575
799.881	2984
799.983	4384
800.085	4699
800.187	4422
800.289	4190
800.390	4019
800.492	4308
800.594	5366
800.696	3958
800.798	4329
800.899	4300
801.001	4590
801.103	4396
801.205	3894
801.306	3925
801.408	3218
801.509	4267
801.611	3525
801.713	4551
801.814	3744
801.916	4391
802.017	3880
802.119	3028
802.220	3925
802.322	2447
802.423	4797
802.525	3739
802.626	4527
802.727	4211
802.829	4355
802.930	2712
803.031	5368
803.133	2853
803.234	4081
803.335	3694
803.436	3993
803.538	3728
803.639	2575
803.740	4572
803.841	3489
803.942	3824
804.043	3764
804.144	3669
804.245	3114
804.346	3101
804.447	3475
804.548	3324
804.649	4656
804.750	3391
804.851	3387
804.952	3407
805.053	3419
805.154	2464
805.255	3700
805.355	3475
805.456	3806
805.557	3135
805.658	3703
805.758	4158
805.859	4018
805.960	3702
806.061	2590
806.161	2882
806.262	3975
806.362	2805
806.463	3093
806.564	3864
806.664	4581
806.765	3241
806.865	3948
806.966	3921
807.066	3088
807.166	4612
807.267	4423
807.367	3998
807.468	4686
807.568	3333
807.668	4111
807.769	4490
807.869	3585
807.969	3787
808.069	4092
808.170	3338
808.270	3551
808.370	3667
808.470	3618
808.570	2376
808.670	3518
808.770	3510
808.870	3615
808.970	3869
809.070	2959
809.170	3069
809.271	2934
809.370	3803
809.470	3159
809.570	3241
809.670	3369
809.770	2891
809.870	3642
809.970	3447
810.070	3193
810.169	3517
810.269	2723
810.369	4356
810.469	2515
810.568	3278
810.668	3099
810.768	2724
810.867	3864
810.967	2993
811.066	3336
811.166	2426
811.265	4260
811.365	2889
811.464	3096
811.564	3523
811.663	3595
811.763	2712
811.862	3487
811.962	3657
812.061	3300
812.160	3509
812.260	3603
812.359	2808
812.458	3567
812.557	4672
812.657	6839
812.756	5154
812.855	3888
812.954	3474
813.053	3647
813.153	3323
813.252	3135
813.351	3457
813.450	2984
813.549	3102
813.648	2931
813.747	3386
813.846	3103
813.945	3173
814.044	3633
814.143	2765
814.242	3799
814.341	2655
814.439	3319
814.538	3189
814.637	2723
814.736	3074
814.835	3338
814.933	3232
815.032	3607
815.131	4108
815.229	4122
815.328	6280
815.427	4630
815.525	4179
815.624	4806
815.722	4800
815.821	3933
815.919	5049
816.018	4776
816.116	4913
816.215	4828
816.313	4707
816.412	5933
816.510	5963
816.609	5919
816.707	5657
816.805	6149
816.904	5676
817.002	6624
817.100	6412
817.198	6164
817.296	6705
817.395	6573
817.493	7616
817.591	7583
817.689	8786
817.787	11773
817.885	14479
817.983	22699
818.081	40960
818.179	85003
818.277	184565
818.375	203488
818.473	87118
818.571	37475
818.669	24138
818.767	19905
818.865	17405
818.963	21109
819.061	26360
819.158	40322
819.256	72722
819.354	140541
819.452	246938
819.549	217380
819.647	107671
819.745	50791
819.842	30440
819.940	22148
820.038	15481
820.135	12716
820.233	11480
820.330	9733
820.428	8445
820.525	9289
820.623	6792
820.720	7195
820.818	6869
820.915	6896
821.012	6045
821.110	5288
821.207	6062
821.304	6414
821.402	5812
821.499	6154
821.596	4907
821.693	5073
821.791	5643
821.888	4338
821.985	4589
822.082	3718
822.179	4437
822.276	4337
822.373	4105
822.470	4157
822.567	5254
822.664	3720
822.761	4252
822.858	3521
822.955	4361
823.052	3631
823.149	3655
823.246	4302
823.343	4101
823.440	4742
823.536	3679
823.633	3391
823.730	3166
823.827	3860
823.923	3618
824.020	4822
824.117	3527
824.213	3554
824.310	4874
824.407	4201
824.503	4030
824.600	3691
824.696	3296
824.793	3804
824.889	3184
824.986	4656
825.082	3216
825.179	3246
825.275	3605
825.371	3982
825.468	4129
825.564	2430
825.660	3910
825.757	4861
825.853	3973
825.949	2784
826.045	2716
826.142	2969
826.238	3070
826.334	3779
826.430	3037
826.526	3759
826.622	2071
826.718	3502
826.814	3142
826.910	3903
827.006	3588
827.102	3119
827.198	3539
827.294	2791
827.390	3682
827.486	3213
827.582	2004
827.678	2702
827.774	3931
827.869	2371
827.965	3576
828.061	2253
828.157	3054
828.252	2899
828.348	3433
828.444	3890
828.539	2131
828.635	2742
828.731	3543
828.826	2292
828.922	2604
829.017	2961
829.113	3595
829.208	2096
829.304	2541
829.399	4456
829.495	3424
829.590	3619
829.685	2970
829.781	3695
829.876	2335
829.971	2472
830.066	1705
830.162	3001
830.257	2984
830.352	3908
830.447	3843
830.543	2997
830.638	2269
830.733	2814
830.828	1982
830.923	3728
831.018	2509
831.113	2675
831.208	2164
831.303	2931
831.398	2181
831.493	1932
831.588	3411
831.683	2739
831.778	2431
831.873	1450
831.967	3395
832.062	2417
832.157	1919
832.252	3359
832.346	3333
832.441	2490
832.536	3077
832.631	4008
832.725	3614
832.820	1566
832.914	2782
833.009	2230
833.104	3114
833.198	2492
833.293	2439
833.387	2991
833.482	3125
833.576	2615
833.670	2805
833.765	2563
833.859	2150
833.954	3306
834.048	2133
834.142	2403
834.237	2194
834.331	2841
834.425	2083
834.519	1406
834.613	3619
834.708	1972
834.802	3093
834.896	2384
834.990	2789
835.084	2337
835.178	1681
835.272	2379
835.366	2248
835.460	2592
835.554	2342
835.648	2511
835.742	1681
835.836	1667
835.930	1472
836.024	2568
836.117	2539
836.211	2108
836.305	3701
836.399	2933
836.493	1443
836.586	2693
836.680	1887
836.774	1690
836.867	2822
836.961	1338
837.055	1588
837.148	2543
837.242	2032
837.335	2459
837.429	2822
837.522	1866
837.616	2234
837.709	2826
837.803	2352
837.896	2776
837.989	2806
838.083	2210
838.176	3731
838.269	3565
838.363	3244
838.456	2197
838.549	2046
838.642	1831
838.735	2885
838.829	2904
838.922	1950
839.015	2006
839.108	1699
839.201	2930
839.294	1767
839.387	2622
839.480	1414
839.573	2585
839.666	2834
839.759	1959
839.852	1535
839.945	2513
840.038	2303
840.131	2609
840.223	2648
840.316	2142
840.409	1939
840.502	1413
840.594	2700
840.687	1012
840.780	2775
840.873	1059
840.965	1948
841.058	2510
841.150	3070
841.243	2119
841.336	2620
841.428	1776
841.521	1357
841.613	2339
841.706	2163
841.798	1156
841.890	1763
841.983	1630
842.075	2037
842.167	1747
842.260	1968
842.352	2790
842.444	2475
842.537	3034
842.629	3913
842.721	2088
842.813	1891
842.905	1198
842.997	2313
843.090	2268
843.182	2386
843.274	2842
843.366	4481
843.458	8365
843.550	7405
843.642	2640
843.734	1126
843.826	1998
843.918	1457
844.009	1930
844.101	1716
844.193	1093
844.285	1861
844.377	1902
844.469	1847
844.560	1691
844.652	1636
844.744	1426
844.835	2372
844.927	1580
845.019	1864
845.110	1708
845.202	1005
845.293	2000
845.385	1566
845.476	2180
845.568	2816
845.659	1100
845.751	2730
845.842	1672
845.934	2046
846.025	1263
846.116	1911
846.208	1223
846.299	1076
846.390	1749
846.482	1867
846.573	2087
846.664	1849
846.755	1648
846.846	1526
846.937	1355
847.029	2085
847.120	1367
847.211	1770
847.302	2953
847.393	755
847.484	2530
847.575	1377
847.666	1185
847.757	1287
847.847	2155
847.938	2467
848.029	2366
848.120	2242
848.211	1106
848.302	2104
848.392	1637
848.483	2071
848.574	1610
848.664	933
848.755	1870
848.846	1264
848.936	2047
849.027	1980
849.118	1170
849.208	1412
849.299	1247
849.389	2129
849.480	2823
849.570	3235
849.661	4303
849.751	7986
849.841	4583
849.932	1973
850.022	1622
850.112	1886
850.203	1838
850.293	1461
850.383	2026
850.474	1644
850.564	1529
850.654	2257
850.744	2348
850.834	1581
850.924	1767
851.014	2103
851.104	1717
851.194	1720
851.284	2144
851.374	1616
851.464	1926
851.554	1357
851.644	693
851.734	2282
851.824	4167
851.914	6399
852.004	10063
852.094	15174
852.183	5344
852.273	1718
852.363	1167
852.452	2553
852.542	1555
852.632	1312
852.721	1961
852.811	1203
852.901	1991
852.990	1838
853.080	2213
853.169	1250
853.259	1984
853.348	832
853.438	1953
853.527	1754
853.617	2592
853.706	2277
853.795	3337
853.885	6649
853.974	11206
854.063	18248
854.152	33116
854.242	19120
854.331	5362
854.420	2376
854.509	1854
854.598	2482
854.687	1825
854.777	1725
854.866	1990
854.955	1492
855.044	1385
855.133	1752
855.222	937
855.311	1670
855.400	1952
855.488	2057
855.577	1821
855.666	1959
855.755	3448
855.844	1702
855.933	1996
856.021	2046
856.110	1606
856.199	1155
856.288	1569
856.376	1977
856.465	1747
856.554	633
856.642	404
856.731	790
856.819	1937
856.908	1368
856.996	1665
857.085	1145
857.173	1014
857.262	1406
857.350	1025
857.438	1325
857.527	1782
857.615	1028
857.703	1292
857.792	1136
857.880	1122
857.968	1051
858.056	2071
858.145	772
858.233	1708
858.321	1090
858.409	2481
858.497	1205
858.585	1016
858.673	1158
858.761	925
858.849	1191
858.937	1540
859.025	2323
859.113	1449
859.201	1132
859.289	1839
859.377	1568
859.465	1617
859.552	1098
859.640	1258
859.728	1375
859.816	1481
859.903	1230
859.991	1174
860.079	1023
860.166	1548
860.254	1848
860.342	2086
860.429	1568
860.517	1381
860.604	1538
860.692	1089
860.779	1168
860.867	1495
860.954	1815
861.042	1619
861.129	1285
861.216	1455
861.304	768
861.391	1636
861.478	656
861.565	1607
861.653	1601
861.740	464
861.827	1549
861.914	2194
862.001	1017
862.089	1057
862.176	763
862.263	734
862.350	1147
862.437	606
862.524	647
862.611	458
862.698	994
862.785	1814
862.871	947
862.958	662
863.045	1617
863.132	1121
863.219	1332
863.306	746
863.392	978
863.479	1662
863.566	536
863.652	1689
863.739	1473
863.826	1248
863.912	474
863.999	913
864.086	1618
864.172	422
864.259	1453
864.345	1364
864.432	1382
864.518	1086
864.604	1459
864.691	962
864.777	2002
864.863	2457
864.950	2010
865.036	1469
865.122	3643
865.209	4146
865.295	3670
865.381	2841
865.467	3025
865.553	2506
865.639	2802
865.726	3483
865.812	4490
865.898	7601
865.984	10265
866.070	15271
866.156	21963
866.242	9129
866.328	4011
866.414	3008
866.499	3582
866.585	2957
866.671	2563
866.757	2551
866.843	3197
866.928	3378
867.014	2059
867.100	3335
867.186	2656
867.271	3075
867.357	2530
867.442	3299
867.528	3172
867.614	2313
867.699	2439
867.785	3366
867.870	2831
867.956	2216
868.041	2977
868.127	3097
868.212	2741
868.297	2518
868.383	2896
868.468	3243
868.553	3588
868.639	2886
868.724	3781
868.809	4524
868.894	2889
868.979	1757
869.065	2233
869.150	2275
869.235	2106
869.320	2706
869.405	1828
869.490	2196
869.575	2147
869.660	1795
869.745	2703
869.830	1764
869.915	1844
870.000	1975
870.085	2242
870.169	2414
870.254	2170
870.339	1747
870.424	1669
870.509	2707
870.593	3035
870.678	2743
870.763	2146
870.847	2451
870.932	2132
871.016	2163
871.101	2386
871.186	1854
871.270	2476
871.355	2335
871.439	2140
871.523	2562
871.608	2430
871.692	1974
871.777	1984
871.861	2099
871.945	1479
872.030	1753
872.114	2628
872.198	1874
872.282	2090
872.367	858
872.451	1395
872.535	2915
872.619	1802
872.703	1939
872.787	1702
872.871	1712
872.955	1680
873.039	1809
873.123	1774
873.207	2648
873.291	1359
873.375	1237
873.459	1558
873.543	2589
873.627	2217
873.711	1266
873.794	1940
873.878	1382
873.962	1222
874.045	1542
874.129	2048
874.137	2044
874.213	2007
874.245	1603
874.296	945
874.352	1520
874.380	1803
874.460	1569
874.464	1559
874.547	1699
874.568	1614
874.631	1361
874.676	1684
874.714	1960
874.784	1781
874.798	1755
874.881	2002
874.892	1883
874.965	947
874.999	967
875.048	1053
875.107	1508
875.131	1676
875.215	1159
875.215	1158
875.298	1079
875.323	1106
875.381	1172
875.430	1096
875.465	1059
875.538	1763
875.548	1847
875.631	1055
875.646	1061
875.714	1179
875.753	1402
875.798	1630
875.861	1747
875.881	1777
875.964	1282
875.968	1276
876.047	1179
876.076	1120
876.130	1071
876.183	1012
876.213	950
876.291	1604
876.296	1642
876.379	1224
876.398	1169
876.462	1114
876.506	1221
876.545	1335
876.613	1055
876.628	984
876.711	1511
876.721	1496
876.794	1329
876.828	1413
876.877	1507
876.935	1627
876.960	1706
877.043	1085
877.043	1086
877.125	1062
877.150	1044
877.208	1020
877.258	1044
877.291	1052
877.365	822
877.374	807
877.456	898
877.472	844
877.539	590
877.579	944
877.622	1323
877.687	1321
877.704	1282
877.787	493
877.794	573
877.869	1621
877.901	1574
877.952	1321
878.008	1110
878.034	1130
878.115	1216
878.117	1209
878.199	1548
878.222	1361
878.282	1195
878.329	1354
878.364	1397
878.437	1324
878.447	1302
878.529	1105
878.544	1094
878.611	953
878.651	596
878.694	321
878.758	923
878.776	1099
878.858	1132
878.865	1117
878.941	803
878.972	671
879.023	450
879.078	747
879.105	991
879.185	1318
879.187	1314
879.269	1508
879.292	1321
879.351	1195
879.399	934
879.433	629
879.506	954
879.516	1000
879.598	797
879.613	714
879.680	333
879.720	591
879.762	915
879.827	924
879.844	876
879.926	381
879.933	381
880.007	839
880.040	1038
880.089	1110
880.147	1000
880.171	968
880.253	943
880.254	940
880.335	125
880.360	359
880.417	1041
880.467	1160
880.499	1259
880.574	1743
880.580	1773
880.662	1112
880.680	1150
880.744	957
880.787	627
880.825	590
880.893	525
880.907	480
880.989	717
881.000	644
881.070	135
881.106	360
881.152	704
881.213	635
881.233	648
881.315	397
881.319	444
881.396	1135
881.426	900
881.478	408
881.532	633
881.559	792
881.639	877
881.641	878
881.722	774
881.745	743
881.803	496
881.852	535
881.885	744
881.958	1011
881.966	998
882.047	882
882.064	869
882.129	1124
882.171	1115
882.210	876
882.277	573
882.291	568
882.372	600
882.383	658
882.454	809
882.489	621
882.535	489
882.596	579
882.616	625
882.697	408
882.702	428
882.778	1074
882.808	1203
882.859	896
882.914	735
882.940	791
883.020	526
883.021	521
883.102	302
883.127	324
883.183	783
883.233	692
883.264	445
883.339	352
883.345	350
883.426	382
883.445	360
883.507	301
883.551	322
883.587	518
883.657	821
883.668	830
883.749	593
883.763	637
883.830	912
883.869	1027
883.910	1040
883.975	877
883.991	783
884.072	726
884.081	659
884.152	286
884.187	251
884.233	597
884.292	800
884.314	645
884.394	691
884.398	668
884.475	234
884.504	99
884.555	2
884.610	51
884.636	209
884.716	613
884.716	611
884.797	460
884.821	411
884.877	499
884.927	377
884.958	196
885.033	72
885.038	89
885.118	482
885.139	530
885.199	317
885.244	311
885.279	473
885.350	665
885.359	649
885.439	253
885.456	217
885.520	405
885.561	637
885.600	795
885.667	829
885.680	805
885.760	684
885.773	685
885.840	817
885.878	915
885.920	1007
885.984	961
886.000	865
886.080	574
886.089	541
886.160	839
886.195	866
886.240	621
886.300	585
886.320	754
886.400	1222
886.406	1258
886.480	539
886.511	194
886.560	211
886.616	356
886.640	413
886.720	321
886.722	324
886.800	589
886.827	723
886.879	712
886.932	627
886.959	562
887.038	306
887.039	304
887.119	298
887.143	364
887.198	742
887.248	1053
887.278	891
887.354	483
887.358	510
887.437	1048
887.459	1173
887.517	636
887.564	288
887.596	535
887.669	1083
887.676	1031
887.755	508
887.774	344
887.835	452
887.880	469
887.914	122
887.985	-344
887.994	-253
888.073	402
888.090	560
888.153	78
888.195	-207
888.232	163
888.300	798
888.311	750
888.391	418
888.405	370
888.470	238
888.510	95
888.549	140
888.615	327
888.628	356
888.708	500
888.720	517
888.787	270
888.825	179
888.866	196
888.930	195
888.945	255
889.024	571
889.035	620
889.103	660
889.140	676
889.182	427
889.245	65
889.261	217
889.340	964
889.349	1051
889.419	795
889.454	682
889.498	614
889.559	500
889.577	486
889.656	458
889.664	461
889.735	917
889.768	1131
889.814	701
889.873	138
889.978	42
890.083	597
890.187	1040
890.292	555
890.397	890
890.501	195
890.606	827
890.710	-73
890.815	1141
890.919	-536
891.024	296
891.128	808
891.233	477
891.337	-317
891.442	467
891.546	433
891.650	315
891.755	-336
891.859	1388
891.963	-11
892.068	366
892.172	-3
892.276	1070
892.380	-635
892.484	911
892.589	585
892.693	792
892.797	-21
892.901	125
893.005	-169
893.109	709
893.213	949
893.317	376
893.421	-319
893.525	-332
893.629	513
893.733	472
893.837	390
893.941	265
894.045	151
894.148	478
894.252	452
894.356	1199
894.460	557
894.564	848
894.667	-463
894.771	-533
894.875	309
894.978	-18
895.082	1024
895.186	1473
895.289	723
895.393	1155
895.496	258
895.600	272
895.703	552
895.807	1202
895.910	965
896.014	1202
896.117	-124
896.221	823
896.324	483
896.427	779
896.531	523
896.634	795
896.737	-367
896.840	791
896.944	312
897.047	365
897.150	739
897.253	380
897.356	-41
897.460	453
897.563	357
897.666	730
897.769	739
897.872	688
897.975	649
898.078	487
898.181	813
898.284	125
898.387	582
898.490	469
898.593	-285
898.695	748
898.798	512
898.901	807
899.004	-156
899.107	937
899.209	661
899.312	947
899.415	400
899.518	297
899.620	416
899.723	1507
899.826	151
899.928	316
900.031	-290
900.133	190
900.236	-59
900.338	789
900.441	515
900.543	423
900.646	-53
900.748	-17
900.851	-396
900.953	1085
901.055	77
901.158	733
901.260	336
901.362	402
901.465	82
901.567	418
901.669	535
901.771	205
901.873	971
901.976	-338
902.078	298
902.180	373
902.282	-19
902.384	260
902.486	83
902.588	570
902.690	111
902.792	215
902.894	254
902.996	227
903.098	191
903.200	659
903.302	482
903.404	672
903.505	-25
903.607	400
903.709	-63
903.811	1033
903.913	389
904.014	1488
904.116	-147
904.218	82
904.319	371
904.421	413
904.523	689
904.624	739
904.726	626
904.827	-340
904.929	535
905.030	553
905.132	-20
905.233	645
905.335	-14
905.436	338
905.537	537
905.639	358
905.740	-38
905.841	-9
905.943	15
906.044	-291
906.145	661
906.247	-132
906.348	200
906.449	728
906.550	23
906.651	721
906.752	33
906.854	-117
906.955	137
907.056	-282
907.157	-162
907.258	578
907.359	390
907.460	777
907.561	887
907.662	327
907.762	116
907.863	489
907.964	-144
908.065	281
908.166	139
908.267	956
908.367	-92
908.468	592
908.569	765
908.670	436
908.770	557
908.871	514
908.971	-37
909.072	357
909.173	406
909.273	1402
909.374	161
909.474	-212
909.575	-242
909.675	536
909.776	747
909.876	-216
909.977	-515
910.077	381
910.177	399
910.278	350
910.378	-342
910.478	561
910.579	701
910.679	142
910.779	339
910.879	559
910.980	335
911.080	836
911.180	-455
911.280	-225
911.380	-166
911.480	-426
911.580	-348
911.680	-43
911.780	-384
911.880	600
911.980	485
912.080	25
912.180	651
912.280	115
912.380	-179
912.480	762
912.580	-591
912.679	-9
912.779	343
912.879	147
912.979	210
913.078	157
913.178	-561
913.278	74
913.377	-706
913.477	409
913.577	-1008
913.676	184
913.776	-597
913.875	568
913.975	100
914.074	677
914.174	138
914.273	-32
914.373	107
914.472	-245
914.572	-508
914.671	898
914.770	316
914.870	-279
914.969	-145
915.068	-267
915.167	247
915.267	-9
915.366	-202
915.465	87
915.564	-169
915.663	345
915.763	-518
915.862	805
915.961	444
916.060	-181
916.159	112
916.258	149
916.357	-298
916.456	217
916.555	-272
916.654	-632
916.752	-422
916.851	-646
916.950	-123
917.049	10
917.148	311
917.247	344
917.345	-428
917.444	631
917.543	-427
917.642	-853
917.740	-310
917.839	638
917.937	-237
918.036	249
918.135	653
918.233	674
918.332	-353
918.430	448
918.529	-79
918.627	-166
918.726	-599
918.824	849
918.923	69
919.021	823
919.119	-691
919.218	-513
919.316	-59
919.414	86
919.512	-410
919.611	153
919.709	-713
919.807	462
919.905	-405
920.003	-24
920.102	178
920.200	-324
920.298	-489
920.396	272
920.494	376
920.592	224
920.690	-325
920.788	-216
920.886	-469
920.984	403
921.082	-147
921.180	207
921.277	-56
921.375	117
921.473	576
921.571	-228
921.669	-27
921.766	239
921.864	411
921.962	453
922.060	292
922.157	566
922.255	-268
922.352	542
922.450	109
922.548	613
922.645	-76
922.743	286
922.840	-611
922.938	1405
923.035	573
923.133	199
923.230	595
923.327	847
923.425	901
923.522	1575
923.619	253
923.717	909
923.814	616
923.911	106
924.008	609
924.106	1089
924.203	187
924.300	300
924.397	555
924.494	701
924.591	285
924.688	312
924.786	574
924.883	754
924.979	360
925.077	1082
925.173	853
925.270	101
925.367	324
925.464	1027
925.561	234
925.658	655
925.755	940
925.852	473
925.948	183
926.045	754
926.142	-314
926.239	1138
926.335	-123
926.432	894
926.529	514
926.625	193
926.722	245
926.818	564
926.915	-695
927.011	258
927.108	528
927.204	273
927.301	277
927.397	822
927.494	86
927.590	527
927.687	-345
927.783	90
927.879	283
927.976	594
928.072	-38
928.168	1267
928.264	157
928.361	-138
928.457	357
928.553	-43
928.649	-64
928.745	809
928.841	-57
928.937	311
929.033	-88
929.129	424
929.225	-220
929.321	843
929.417	-455
929.513	-545
929.609	-419
929.705	-517
929.801	-183
929.897	595
929.993	286
930.089	714
930.184	50
930.280	859
930.376	-207
930.471	-129
930.567	-794
930.663	559
930.758	-154
930.854	83
930.950	-246
931.045	90
931.141	-43
931.236	404
931.332	-545
931.427	214
931.523	-109
931.618	892
931.714	38
931.809	-483
931.905	-576
932.000	-43
932.095	-927
932.191	684
932.286	-391
932.381	-28
932.476	-959
932.572	232
932.667	-443
932.762	349
932.857	-441
932.952	-1168
933.047	137
933.142	-605
933.237	-380
933.332	-9
933.427	-41
933.522	182
933.617	-65
933.712	-180
933.807	-14
933.902	83
933.997	42
934.092	-200
934.187	-778
934.282	-371
934.376	-628
934.471	148
934.566	291
934.661	1150
934.755	-825
934.850	-85
934.945	163
935.039	2
935.134	-484
935.228	-471
935.323	338
935.417	-357
935.512	-570
935.606	-715
935.701	-608
935.795	-170
935.890	-378
935.984	-829
936.079	-626
936.173	61
936.267	-1013
936.362	-402
936.456	-910
936.550	879
936.644	-252
936.738	-339
936.833	-547
936.927	-205
937.021	-125
937.115	-210
937.209	303
937.303	-35
937.397	-266
937.491	-194
937.585	-695
937.679	192
937.773	-1465
937.867	-287
937.961	-391
938.055	-678
938.149	-96
938.243	-132
938.337	-990
938.430	-789
938.524	-135
938.618	-633
938.712	-564
938.805	188
938.899	-58
938.993	-442
939.086	-764
939.180	-582
939.274	-472
939.367	-161
939.461	392
939.554	60
939.648	-610
939.741	67
939.835	-815
939.928	341
940.022	293
940.115	-294
940.208	-955
940.302	-164
940.395	-222
940.488	-1188
940.582	-259
940.675	-430
940.768	-461
940.861	-98
940.954	-863
941.048	-625
941.141	4
941.234	-1187
941.327	-144
941.420	218
941.513	-842
941.606	-487
941.699	21
941.792	-538
941.885	-561
941.978	-142
942.071	-1722
942.164	-636
942.257	-324
942.349	-394
942.442	-602
942.535	-450
942.628	-95
942.721	-651
942.813	-239
942.906	-530
942.999	-1277
943.091	-977
943.184	-688
943.277	-621
943.369	-679
943.462	35
943.554	-769
943.647	-686
943.739	-331
943.832	-373
943.924	-878
944.017	-520
944.109	-1504
944.201	120
944.294	-760
944.386	-399
944.478	-378
944.571	87
944.663	333
944.755	774
944.847	-191
944.940	-692
945.032	-242
945.124	-1203
945.216	-478
945.308	261
945.400	-450
945.492	-446
945.584	-776
945.676	80
945.768	-822
945.860	381
945.952	-668
946.044	-172
946.136	-339
946.228	-1131
946.320	-232
946.412	-544
946.503	-608
946.595	524
946.687	-1236
946.779	-563
946.870	-1046
946.962	-666
947.054	-332
947.145	-37
947.237	-346
947.329	-836
947.420	-645
947.512	-545
947.603	-1217
947.695	-35
947.786	-310
947.878	-108
947.969	-12
948.061	-1335
948.152	-596
948.243	-614
948.335	-388
948.426	-688
948.517	-651
948.609	-237
948.700	-694
948.791	150
948.882	-1282
948.973	-281
949.065	-423
949.156	-308
949.247	-794
949.338	77
949.429	-894
949.520	-1118
949.611	-1051
949.702	-339
949.793	-307
949.884	-1144
949.975	-155
950.066	-592
950.157	-932
950.247	-307
950.338	-939
950.429	-573
950.520	-409
950.611	4
950.701	-980
950.792	-188
950.883	141
950.973	-462
951.064	-183
951.155	-551
951.245	-527
951.336	169
951.427	-584
951.517	-15
951.608	-522
951.698	-632
951.788	-785
951.879	-852
951.969	-1528
952.060	724
952.150	-694
952.240	335
952.331	-1161
952.421	662
952.511	-376
952.602	-394
952.692	-563
952.782	-302
952.872	-641
952.962	-67
953.052	-933
953.143	-649
953.233	-597
953.323	-1135
953.413	-201
953.503	-371
953.593	-343
953.683	-209
953.773	-1312
953.863	-65
953.953	-562
954.042	-786
954.132	-990
954.222	-312
954.312	-1197
954.402	489
954.492	-389
954.581	-254
954.671	319
954.761	-1129
954.850	701
954.940	-179
955.030	-317
955.119	-819
955.209	-844
955.298	-643
955.388	-1036
955.477	265
955.567	-1678
955.656	-277
955.746	-159
955.835	313
955.925	-1095
956.014	-325
956.103	-751
956.193	-227
956.282	-711
956.371	-94
956.461	-853
956.550	-386
956.639	310
956.728	-445
956.817	-619
956.906	-701
956.995	204
957.085	-127
957.174	-437
957.263	-969
957.352	-559
957.441	-324
957.530	-151
957.619	-222
957.708	-66
957.796	-740
957.885	-338
957.974	-1141
958.063	-274
958.152	43
958.241	-770
958.329	-314
958.418	-330
958.507	-598
958.596	-364
958.684	-1007
958.773	-511
958.861	-640
958.950	-301
959.039	-149
959.127	-494
959.216	-804
959.304	-296
959.393	-546
959.481	-222
959.570	66
959.658	-750
959.746	176
959.835	-362
959.923	-526
960.011	-406
960.100	-194
960.188	-897
960.276	-123
960.365	-813
960.453	-131
960.541	-862
960.629	-456
960.717	-1049
960.805	-675
960.893	-1138
960.981	-639
961.069	-646
961.158	-610
961.245	-589
961.333	-591
961.421	-1278
961.509	-601
961.597	244
961.685	-805
961.773	-992
961.861	-1059
961.949	-816
962.036	-485
962.124	-571
962.212	-118
962.299	-1323
962.387	-799
962.475	-929
962.562	-710
962.650	-664
962.738	-582
962.825	-1264
962.913	7
963.000	-1457
963.088	-963
963.175	-870
963.263	18
963.350	-582
963.438	-651
963.525	-1287
963.612	176
963.700	-959
963.787	654
963.874	189
963.962	120
964.049	-408
964.136	-707
964.223	-902
964.310	-1417
964.398	5
964.485	-476
964.572	-669
964.659	-558
964.746	-402
964.833	-750
964.920	-759
965.007	-148
965.094	-989
965.181	-1318
965.268	-667
965.355	-436
965.441	-1135
965.528	-1139
965.615	-352
965.702	-684
965.789	-1061
965.875	-198
965.962	-610
966.049	-631
966.136	-640
966.222	-626
966.309	-932
966.395	-1071
966.482	-556
966.569	-528
966.655	-734
966.742	-834
966.828	-323
966.915	-479
967.001	-589
967.087	-1390
967.174	-1991
967.260	-768
967.347	-679
967.433	-227
967.519	314
967.605	-556
967.692	-816
967.778	-55
967.864	-478
967.950	-1039
968.036	-350
968.123	-27
968.209	-751
968.295	-1332
968.381	158
968.467	-393
968.553	-1849
968.639	339
968.725	-1507
968.811	-688
968.897	-273
968.983	-938
969.069	-838
969.154	-312
969.240	91
969.326	-137
969.412	-1104
969.497	-22
969.583	-1283
969.669	-984
969.755	-308
969.840	-328
969.926	-671
970.012	-534
970.097	-722
970.183	-441
970.268	-497
970.354	-229
970.439	-691
970.525	184
970.610	-492
970.696	710
970.781	-812
970.866	-380
970.952	-324
971.037	-736
971.122	-229
971.208	-30
971.293	-1050
971.378	-862
971.463	-1616
971.549	-943
971.634	-806
971.719	-184
971.804	-315
971.889	51
971.974	-1122
972.059	-161
972.144	-671
972.229	-386
972.314	-424
972.399	-310
972.484	-821
972.569	-476
972.654	-838
972.739	61
972.824	-718
972.908	-285
972.993	-1251
973.078	-225
973.163	-1094
973.247	-492
973.332	-1596
973.417	-10
973.501	-1430
973.586	-295
973.671	-460
973.755	-340
973.840	-806
973.924	-983
974.009	-946
974.093	-765
974.178	-265
974.262	-394
974.346	-849
974.431	-751
974.515	-854
974.600	-1335
974.684	-632
974.768	-720
974.852	-456
974.937	-990
975.021	-579
975.105	-508
975.189	-1233
975.273	-1017
975.358	-644
975.442	-468
975.526	-730
975.610	-873
975.694	-947
975.778	-368
975.862	-1100
975.946	-898
976.030	-432
976.114	-825
976.198	-768
976.281	-287
976.365	-1224
976.449	-733
976.533	-189
976.617	-1197
976.700	-829
976.784	-675
976.868	-455
976.951	-109
977.035	-241
977.119	-83
977.202	40
977.286	-54
977.369	-727
977.453	-610
977.536	-993
977.620	-561
977.703	-697
977.787	-1154
977.870	-8
977.953	-444
978.037	-1124
978.120	126
978.203	-1349
978.287	-516
978.370	-846
978.453	-1390
978.536	-708
978.620	79
978.703	-1496
978.786	1
978.869	-534
978.952	-1175
979.035	295
979.118	-454
979.201	-440
979.284	-79
979.367	-1077
979.450	-1
979.533	-1327
979.616	-564
979.699	-939
979.782	-456
979.865	-284
979.948	-1027
980.030	-1155
980.113	-811
980.196	-1118
980.279	-300
980.361	-602
980.444	-410
980.526	62
980.609	-702
980.692	-1223
980.774	-606
980.857	-1398
980.939	-557
981.022	-1677
981.104	-1187
981.187	-757
981.269	1084
981.352	-588
981.434	-704
981.516	-976
981.599	-190
981.681	-524
981.763	-431
981.846	-331
981.928	-246
982.010	-143
982.092	-1374
982.174	-1067
982.256	-283
982.339	8
982.421	-449
982.503	-721
982.585	-1313
982.667	-686
982.749	-75
982.831	-723
982.913	-876
982.995	472
983.077	-850
983.158	147
983.240	-1662
983.322	20
983.404	261
983.486	-762
983.568	-84
983.649	-597
983.731	-703
983.813	-1532
983.894	-86
983.976	-495
984.058	-607
984.139	-682
984.221	-845
984.302	-450
984.384	-36
984.465	-1623
984.547	-529
984.628	-728
984.710	97
984.791	-1467
984.872	42
984.954	-1013
985.035	-587
985.116	-1434
985.198	-1071
985.279	-114
985.360	-499
985.441	-790
985.522	-592
985.604	-910
985.685	-1966
985.766	-82
985.847	522
985.928	-1426
986.009	-77
986.090	-973
986.171	175
986.252	-792
986.333	-386
986.414	-534
986.495	-129
986.576	-1492
986.656	-401
986.737	-936
986.818	-177
986.899	-1650
986.980	-583
987.060	-205
987.141	-844
987.222	-1183
987.302	-647
987.383	-781
987.464	-555
987.544	-1160
987.625	-93
987.705	-214
987.786	50
987.866	-975
987.947	-184
988.027	9
988.108	-276
988.188	-805
988.268	-716
988.349	-1070
988.429	232
988.509	-1139
988.589	-790
988.670	-1819
988.750	272
988.830	-660
988.910	-755
988.990	-360
989.070	-1449
989.151	-673
989.231	-1799
989.311	-777
989.391	-591
989.471	-1471
989.551	-1141
989.631	-1382
989.711	-789
989.791	-873
989.870	-804
989.950	-305
990.030	-1030
990.110	-690
990.190	-654
990.269	-1337
990.349	-867
990.429	-1383
990.509	98
990.588	-1548
990.668	-395
990.747	-942
990.827	-1532
990.907	-1104
990.986	-552
991.066	-332
991.145	-723
991.225	-662
991.304	-1091
991.383	-633
991.463	-679
991.542	-644
991.622	-267
991.701	-682
991.780	-556
991.859	-1496
991.939	-322
992.018	-1203
992.097	-946
992.176	-1257
992.256	-1126
992.335	-1313
992.414	-507
992.493	-1666
992.572	-1063
992.651	-343
992.730	-1063
992.809	-946
992.888	-1312
992.967	-1028
993.046	-1410
993.125	-1426
993.203	-764
993.282	-519
993.361	-1033
993.440	-911
993.519	-1097
993.597	-1089
993.676	-1725
993.755	-701
993.834	-1449
993.912	-1891
993.991	476
994.069	-1615
994.148	-1201
994.226	-900
994.305	-457
994.384	-1240
994.462	112
994.540	-1825
994.619	-586
994.697	-1311
994.776	-819
994.854	-626
994.932	-1009
995.011	-1409
995.089	-2002
995.167	-1133
995.245	-735
995.324	-1834
995.402	-399
995.480	-1202
995.558	-847
995.636	-2182
995.714	-568
995.792	-944
995.870	-1227
995.948	-1792
996.026	-325
996.104	-1803
996.182	-553
996.260	-2018
996.338	-1151
996.416	-2017
996.494	-1167
996.572	-574
996.649	-1271
996.727	-2136
996.805	-67
996.883	-1710
996.960	-1677
997.038	-1062
997.116	-613
997.193	-1985
997.271	-354
997.348	-1219
997.426	-851
997.504	-1919
997.581	-558
997.658	-778
997.736	-956
997.813	-1590
997.891	-996
997.968	-2059
998.046	-349
998.123	-2252
998.200	-406
998.277	-1685
998.355	-1015
998.432	-2137
998.509	-1798
998.586	-1659
998.663	-542
998.741	-1619
998.818	-1008
998.895	-2368
998.972	-1163
999.049	-818
999.126	-1509
999.203	-1787
999.280	-646
999.357	-2141
999.434	-1224
999.511	-900
999.587	-1271
999.664	-1517
999.741	-568
999.818	-1420
999.895	-2158
999.971	-1700
1000.048	-1562
1000.125	-1165
1000.202	-1270
1000.278	-1214
1000.355	-1274
1000.431	-1521
1000.508	-1970
1000.584	-1334
1000.661	-615
1000.738	-2074
1000.814	-1706
1000.890	-1184
1000.967	-1747
1001.043	-1360
1001.120	-2106
1001.196	-1478
1001.272	-1841
1001.349	-425
1001.425	-1533
1001.501	-1133
1001.577	-1868
1001.654	-1350
1001.730	-747
1001.806	-1645
1001.882	-2573
1001.958	-1076
1002.034	-538
1002.110	-1823
1002.186	-1551
1002.262	-2146
1002.338	-1987
1002.414	-1018
1002.490	-1763
1002.566	-1937
1002.642	-1960
1002.718	-998
1002.794	-2229
1002.870	-1583
1002.945	-1580
1003.021	-1989
1003.097	-1954
1003.173	-1468
1003.248	-1290
1003.324	-2239
1003.400	-1077
1003.475	-1963
1003.551	-1668
1003.626	-1879
1003.702	-640
1003.777	-1816
1003.853	-1838
1003.928	-3384
1004.004	-1749
1004.079	-929
1004.155	-754
1004.230	-2442
1004.305	-323
1004.381	-2445
1004.456	-1707
1004.531	-1139
1004.607	-1133
1004.682	-2004
1004.757	-884
1004.832	-1262
1004.907	-1770
1004.982	-1175
1005.057	-1462
1005.133	-1593
1005.208	-1376
1005.283	-1294
1005.358	-1346
1005.433	-2732
1005.508	-1598
1005.583	-1982
1005.657	-1488
1005.732	-1487
1005.807	-1381
1005.882	-2473
1005.957	-1719
1006.032	-1751
1006.106	-1048
1006.181	-1498
1006.256	-1725
1006.331	-1637
1006.405	-1934
1006.480	-2175
1006.554	-1547
1006.629	-1679
1006.704	-1347
1006.778	-1517
1006.853	-1318
1006.927	-2126
1007.002	-1736
1007.076	-1808
1007.150	-1985
1007.225	-1340
1007.299	-615
1007.373	-2407
1007.448	-1186
1007.522	-1333
1007.596	-937
1007.671	-1994
1007.745	-628
1007.819	-1921
1007.893	-2075
1007.967	-1263
1008.041	-2377
1008.115	-1446
1008.190	-1505
1008.264	-1775
1008.338	-2237
1008.412	-2104
1008.486	-1876
1008.560	-1277
1008.633	-1560
1008.707	-1772
1008.781	-1470
1008.855	-2574
1008.929	-1314
1009.003	-1522
1009.076	-2725
1009.150	-1398
1009.224	-1167
1009.298	-1528
1009.371	-2008
1009.445	-1472
1009.519	-1294
1009.592	-1919
1009.666	-1807
1009.739	-1341
1009.813	-2561
1009.886	-1558
1009.960	-1688
1010.033	-1055
1010.107	-1210
1010.180	-2648
1010.253	-975
1010.327	-1844
1010.400	-1720
1010.473	-1432
1010.547	-953
1010.620	-1646
1010.693	-1048
1010.766	-2498
1010.840	-1568
1010.913	-2177
1010.986	-1657
1011.059	-1341
1011.132	-1605
1011.205	-1621
1011.278	-1640
1011.351	-1553
1011.424	-1617
1011.497	-2205
1011.570	-2416
1011.643	-1836
1011.716	-2607
1011.789	-1668
1011.862	-1163
1011.934	-1750
1012.007	-2585
1012.080	-1191
1012.153	-1238
1012.225	-266
1012.298	-2423
1012.371	-1263
1012.443	-1557
1012.516	-2431
1012.588	-1534
1012.661	-1549
1012.733	-2127
1012.806	-1194
1012.879	-1036
1012.951	-1674
1013.023	-2079
1013.096	-1603
1013.168	-976
1013.241	-1437
1013.313	-1955
1013.385	-1788
1013.458	-1962
1013.530	-1031
1013.602	-2132
1013.674	-1596
1013.746	-1493
1013.819	-1719
1013.891	-1351
1013.963	-1293
1014.035	-1380
1014.107	-1578
1014.179	-656
1014.251	-2028
1014.323	-789
1014.395	-1822
1014.467	-1328
1014.539	-1195
1014.611	-1754
1014.683	-1379
1014.754	-571
1014.826	-1992
1014.898	-1881
1014.970	-1904
1015.042	-978
1015.113	-2360
1015.185	-1373
1015.257	-1742
1015.328	-955
1015.400	-1191
1015.471	-1300
1015.543	-1966
1015.615	-784
1015.686	-1589
1015.757	-1328
1015.829	-1568
1015.901	-2546
1015.972	-952
1016.043	-1005
1016.115	-2012
1016.186	-985
1016.257	-2021
1016.328	-937
1016.400	-618
1016.471	-2047
1016.542	-1997
1016.613	-1037
1016.685	-1761
1016.756	-818
1016.827	-946
1016.898	-1808
1016.969	-1816
1017.040	-1403
1017.111	-1831
1017.182	-1462
1017.253	-2007
1017.324	-997
1017.395	-1762
1017.466	-796
1017.537	-1428
1017.608	-1604
1017.678	-1620
1017.749	-1714
1017.820	-1862
1017.891	-1252
1017.961	-1243
1018.032	-905
1018.103	-980
1018.173	-1392
1018.244	-2052
1018.315	-964
1018.385	-1441
1018.456	-1676
1018.526	-1988
1018.597	-1808
1018.667	-829
1018.738	-1161
1018.808	-1780
1018.878	-2105
1018.949	-1434
1019.019	-1120
1019.089	-1751
1019.160	-379
1019.230	-2086
1019.300	-1505
1019.371	-2484
1019.441	-881
1019.511	-2087
1019.581	-1676
1019.651	-1614
1019.721	-986
1019.791	-1223
1019.861	-1175
1019.931	-1161
1020.001	-1407
1020.071	-1770
1020.141	-1698
1020.211	-1773
1020.281	-1594
1020.351	-2254
1020.421	-1483
1020.491	-1419
1020.560	-959
1020.630	-1456
1020.700	-628
1020.770	-1864
1020.839	-1699
1020.909	-2055
1020.979	-2254
1021.048	-1980
1021.118	-1601
1021.187	-2011
1021.257	-1568
1021.326	-1171
1021.396	-1796
1021.465	-1951
1021.535	-1663
1021.604	-1747
1021.674	-1432
1021.743	-1494
1021.812	-1191
1021.882	-1468
1021.951	-263
1022.020	-1061
1022.089	-1318
1022.159	-2041
1022.228	-998
1022.297	-1625
1022.366	-1416
1022.435	-1495
1022.504	-1225
1022.573	-1993
1022.642	-1155
1022.711	-1561
1022.781	-997
1022.849	-1088
1022.918	-812
1022.987	-743
1023.056	-1341
1023.125	-1187
1023.194	-944
1023.263	-853
1023.331	-457
1023.400	-1422
1023.469	-1272
1023.538	-2068
1023.606	-1917
1023.675	-660
1023.744	-794
1023.812	-1253
1023.881	-1374
1023.949	-1595
1024.018	-1355
1024.086	-1785
1024.155	-2205
1024.223	-1896
1024.292	-1289
1024.360	-839
1024.429	-2014
1024.497	-1222
1024.565	-1054
1024.634	-1031
1024.702	-908
1024.770	-1554
1024.838	-1237
1024.907	-1128
1024.975	-1320
1025.043	-831
1025.111	-2630
1025.179	-1666
1025.247	-1041
1025.315	-2182
1025.383	-821
1025.451	-1347
1025.519	-1179
1025.587	-1385
1025.655	-743
1025.723	-1649
1025.791	-1275
1025.859	-1412
1025.927	-1409
1025.995	-1843
1026.062	-1302
1026.130	-1001
1026.198	-2041
1026.266	-2068
1026.333	-1149
1026.401	-1378
1026.469	-615
1026.536	-1624
1026.604	-1249
1026.671	-1282
1026.739	-1619
1026.806	-1958
1026.874	-624
1026.941	-1024
1027.009	-1270
1027.076	-1376
1027.144	-1093
1027.211	-2292
1027.278	-1923
1027.345	-1237
1027.413	-1129
1027.480	-1388
1027.547	-1493
1027.614	-1692
1027.682	-1235
1027.749	-1426
1027.816	-2763
1027.883	-1421
1027.950	-1374
1028.017	-1469
1028.084	-830
1028.151	-2079
1028.218	-1360
1028.285	-1617
1028.352	-1417
1028.419	-1653
1028.486	-1733
1028.553	-1896
1028.619	-1144
1028.686	-2066
1028.753	-1256
1028.820	-2504
1028.886	-1740
1028.953	-1851
1029.020	-1853
1029.086	-1335
1029.153	-858
1029.220	-2471
1029.286	-840
1029.353	-1252
1029.419	-1607
1029.486	-2150
1029.552	-1722
1029.619	-1891
1029.685	-1390
1029.751	-2165
1029.818	-1017
1029.884	-2609
1029.951	-617
1030.017	-2127
1030.083	-2498
1030.149	-2081
1030.216	-2391
1030.282	-2032
1030.348	-1303
1030.414	-1813
1030.480	-1640
1030.546	-1505
1030.612	-1458
1030.678	-2044
1030.744	-1838
1030.810	-2040
1030.876	-1097
1030.942	-1934
1031.008	-1361
1031.074	-2388
1031.140	-1401
1031.206	-2313
1031.272	-2043
1031.337	-1685
1031.403	-1345
1031.469	-1796
1031.534	-1452
1031.600	-1878
1031.666	-1959
1031.731	-2574
1031.797	-1159
1031.863	-884
1031.928	-2149
1031.994	-2802
1032.059	-858
1032.125	-1710
1032.190	-2152
1032.256	-2318
1032.321	-2366
1032.386	-2056
1032.452	-988
1032.517	-1903
1032.582	-1700
1032.647	-2198
1032.713	-1618
1032.778	-1656
1032.843	-1789
1032.908	-1977
1032.974	-2124
1033.039	-2071
1033.104	-632
1033.169	-1652
1033.234	-1528
1033.299	-1053
1033.364	-1492
1033.429	-1853
1033.494	-1787
1033.559	-2465
1033.624	-1281
1033.688	-2034
1033.753	-2441
1033.818	-1346
1033.883	-2019
1033.948	-2087
1034.013	-1983
1034.077	-1902
1034.142	-1376
1034.207	-1646
1034.271	-2172
1034.336	-1439
1034.400	-1461
1034.465	-1196
1034.530	-2066
1034.594	-1828
1034.658	-2264
1034.723	-2273
1034.787	-2103
1034.852	-1837
1034.916	-1561
1034.981	-1943
1035.045	-735
1035.109	-2305
1035.173	-1133
1035.238	-3003
1035.302	-1676
1035.366	-1576
1035.430	-1572
1035.495	-1767
1035.559	-1386
1035.623	-2373
1035.687	-1403
1035.751	-1605
1035.815	-2418
1035.879	-2200
1035.943	-1780
1036.007	-1961
1036.071	-1485
1036.135	-1999
1036.198	-1810
1036.262	-2493
1036.326	-1911
1036.390	-2128
1036.454	-1157
1036.517	-2086
1036.581	-1617
1036.645	-2152
1036.709	-1504
1036.772	-2711
1036.836	-1266
1036.900	-2103
1036.963	-2531
1037.026	-2005
1037.090	-2119
1037.154	-2173
1037.217	-1704
1037.280	-1535
1037.344	-2132
1037.407	-1669
1037.471	-1928
1037.534	-2191
1037.597	-1658
1037.661	-2080
1037.724	-2197
1037.787	-1918
1037.850	-1487
1037.913	-1753
1037.977	-1198
1038.040	-2507
1038.103	-1821
1038.166	-2326
1038.229	-2101
1038.292	-1747
1038.355	-1903
1038.418	-1989
1038.481	-965
1038.544	-1704
1038.607	-1532
1038.670	-2496
1038.732	-1584
1038.795	-2953
1038.858	-1814
1038.921	-1647
1038.984	-1838
1039.046	-2514
1039.109	-1769
1039.172	-1852
1039.234	-2160
1039.297	-1652
1039.360	-1725
1039.422	-1838
1039.485	-1327
1039.547	-2336
1039.610	-2083
1039.672	-2390
1039.734	-1852
1039.797	-2184
1039.859	-1513
1039.922	-2455
1039.984	-1728
1040.046	-1369
1040.109	-2073
1040.171	-1981
1040.233	-1223
1040.295	-2503
1040.358	-1762
1040.420	-2024
1040.482	-2331
1040.544	-1150
1040.606	-1249
1040.668	-1865
1040.730	-1964
1040.792	-2562
1040.854	-2448
1040.916	-1965
1040.978	-1736
1041.040	-1595
1041.102	-717
1041.164	-2013
1041.225	-1998
1041.287	-1237
1041.349	-1803
1041.411	-2334
1041.472	-1439
1041.534	-2039
1041.596	-1595
1041.657	-1368
1041.719	-746
1041.781	-2663
1041.842	-2053
1041.904	-1724
1041.965	-2060
1042.027	-2124
1042.088	-2219
1042.150	-2213
1042.211	-1362
1042.272	-1901
1042.334	-1793
1042.395	-2505
1042.456	-1481
1042.518	-1043
1042.579	-2380
1042.640	-2006
1042.701	-1495
1042.763	-2414
1042.824	-1603
1042.885	-2460
1042.946	-1524
1043.007	-2391
1043.068	-1952
1043.129	-2804
1043.190	-1848
1043.251	-1806
1043.312	-1794
1043.373	-1129
1043.434	-2198
1043.495	-2175
1043.556	-1941
1043.616	-1624
1043.677	-2319
1043.738	-1987
1043.799	-1843
1043.859	-2032
1043.920	-1644
1043.981	-2227
1044.041	-2139
1044.102	-2484
1044.162	-868
1044.223	-1751
1044.284	-2107
1044.344	-2354
1044.405	-989
1044.465	-1256
1044.525	-1474
1044.586	-2158
1044.646	-1405
1044.707	-1415
1044.767	-1409
1044.827	-1503
1044.887	-1653
1044.948	-1788
1045.008	-2485
1045.068	-2044
1045.128	-1220
1045.188	-1253
1045.249	-1134
1045.309	-1268
1045.369	-1902
1045.429	-1962
1045.489	-1534
1045.549	-2324
1045.609	-1170
1045.669	-1756
1045.729	-1303
1045.789	-1671
1045.848	-1467
1045.908	-1403
1045.968	-1002
1046.028	-1017
1046.088	-332
1046.147	-1438
1046.207	-1051
1046.267	-1161
1046.326	-931
1046.386	-1281
1046.446	-1191
1046.505	-994
1046.565	-749
1046.624	-948
1046.684	-450
1046.743	-1218
1046.803	-967
1046.862	-72
1046.922	0
