'Start Wavelength	183.907
'End Wavelength	1046.922
'Gate Delay	5.000
'Gate Width (ms)	1.050
'Laser Output Level	0.000
'X Position	0.000
'Y Position	0.000
'Z Position	0.000
'Grid Point Number	1.000
'Shot Number	100.000
183.907	1132.000
183.977	147.000
184.047	-587
184.116	97
184.186	358
184.256	559
184.325	492
184.395	-344
184.465	826
184.534	678
184.604	640
184.674	136
184.743	198
184.813	64
184.883	-31
184.952	186
185.022	1108
185.092	311
185.161	86
185.231	-149
185.301	237
185.370	560
185.440	568
185.509	1049
185.579	785
185.649	231
185.718	326
185.788	294
185.857	80
185.927	572
185.996	808
186.066	-334
186.136	125
186.205	330
186.275	91
186.344	168
186.414	478
186.483	-328
186.553	1255
186.622	148
186.692	53
186.761	-285
186.831	-241
186.900	60
186.970	134
187.039	-36
187.109	732
187.178	165
187.248	-84
187.317	229
187.387	274
187.456	42
187.526	501
187.595	554
187.664	-84
187.734	622
187.803	468
187.873	817
187.942	587
188.012	953
188.081	180
188.150	512
188.220	772
188.289	630
188.358	220
188.428	309
188.497	-24
188.567	759
188.636	-403
188.705	5
188.775	427
188.844	-769
188.913	658
188.983	-42
189.052	259
189.121	-222
189.191	75
189.260	-213
189.329	91
189.399	685
189.468	356
189.537	777
189.606	216
189.676	171
189.745	590
189.814	684
189.883	57
189.953	-355
190.022	449
190.091	925
190.161	1653
190.230	-7
190.299	553
190.368	298
190.437	232
190.507	-363
190.576	-403
190.645	404
190.714	24
190.783	388
190.853	350
190.922	290
190.991	432
191.060	368
191.129	-232
191.198	261
191.268	-324
191.337	180
191.406	607
191.475	323
191.544	360
191.613	256
191.682	241
191.752	-536
191.821	229
191.890	-153
191.959	-442
192.028	-68
192.097	678
192.166	530
192.235	-82
192.304	613
192.373	271
192.442	-434
192.511	351
192.580	-100
192.650	395
192.719	233
192.788	425
192.857	316
192.926	-145
192.995	181
193.064	1475
193.133	803
193.202	975
193.271	820
193.340	840
193.409	844
193.478	1333
193.547	995
193.615	1564
193.684	1140
193.753	1091
193.822	957
193.891	124
193.960	-164
194.029	17
194.098	473
194.167	-178
194.236	636
194.305	-14
194.374	101
194.443	-191
194.512	686
194.580	118
194.649	730
194.718	257
194.787	483
194.856	224
194.925	559
194.994	-112
195.062	367
195.131	245
195.200	903
195.269	527
195.338	295
195.407	883
195.475	591
195.544	423
195.613	507
195.682	-243
195.751	-101
195.819	336
195.888	143
195.957	950
196.026	40
196.094	506
196.163	735
196.232	304
196.301	-191
196.369	837
196.438	-256
196.507	-140
196.576	-205
196.644	91
196.713	751
196.782	135
196.850	-170
196.919	275
196.988	-194
197.056	-403
197.125	180
197.194	385
197.262	120
197.331	382
197.400	-334
197.468	428
197.537	-8
197.606	-294
197.674	-143
197.743	1765
197.812	863
197.880	719
197.949	-30
198.017	1048
198.086	418
198.155	242
198.223	115
198.292	1035
198.360	567
198.429	-113
198.497	565
198.566	1306
198.635	1043
198.703	1290
198.772	621
198.840	1775
198.909	945
198.977	-43
199.046	-300
199.114	665
199.183	61
199.251	86
199.320	-347
199.388	369
199.457	-175
199.525	542
199.594	73
199.662	-305
199.731	287
199.799	6
199.867	347
199.936	309
200.004	-58
200.073	642
200.141	250
200.210	432
200.278	-121
200.346	445
200.415	965
200.483	85
200.552	641
200.620	41
200.688	520
200.757	665
200.825	766
200.893	667
200.962	697
201.030	350
201.098	426
201.167	421
201.235	-203
201.303	-130
201.372	366
201.440	679
201.508	226
201.577	100
201.645	713
201.713	-17
201.781	341
201.850	-162
201.918	-353
201.986	269
202.055	630
202.123	301
202.191	865
202.259	393
202.327	277
202.396	-248
202.464	-84
202.532	131
202.600	977
202.669	347
202.737	-251
202.805	217
202.873	369
202.941	289
203.009	-158
203.078	-27
203.146	252
203.214	968
203.282	-555
203.350	314
203.418	114
203.487	215
203.555	458
203.623	829
203.691	-118
203.759	98
203.827	-116
203.895	608
203.963	-289
204.031	69
204.099	573
204.168	-74
204.236	890
204.304	81
204.372	-2
204.440	113
204.508	-329
204.576	427
204.644	669
204.712	-441
204.780	520
204.848	193
204.916	-174
204.984	291
205.052	-214
205.120	114
205.188	605
205.256	-75
205.324	47
205.392	283
205.460	333
205.528	778
205.596	123
205.664	-136
205.732	307
205.799	1595
205.867	2938
205.935	870
206.003	800
206.071	542
206.139	172
206.207	513
206.275	183
206.343	111
206.411	-325
206.478	830
206.546	657
206.614	-103
206.682	160
206.750	404
206.818	1161
206.885	1331
206.953	-862
207.021	660
207.089	716
207.157	458
207.225	305
207.292	445
207.360	714
207.428	880
207.496	705
207.563	535
207.631	538
207.699	116
207.767	-265
207.834	-462
207.902	800
207.970	-222
208.038	488
208.105	159
208.173	-76
208.241	654
208.309	826
208.376	518
208.444	1180
208.512	862
208.579	357
208.647	751
208.715	871
208.782	452
208.850	302
208.918	222
208.985	254
209.053	252
209.120	-176
209.188	754
209.256	1082
209.323	533
209.391	788
209.459	1330
209.526	-222
209.594	422
209.661	844
209.729	531
209.796	101
209.864	789
209.932	-350
209.999	1005
210.067	231
210.134	-138
210.202	771
210.269	1118
210.337	443
210.404	86
210.472	304
210.539	909
210.607	-132
210.674	541
210.742	166
210.809	492
210.877	736
210.944	1007
211.012	333
211.079	1367
211.146	584
211.214	1152
211.281	1035
211.349	628
211.416	409
211.484	1253
211.551	486
211.618	959
211.686	422
211.753	404
211.821	-211
211.888	792
211.955	520
212.023	813
212.090	134
212.157	806
212.225	1065
212.292	1573
212.359	2623
212.427	7932
212.494	2871
212.561	1340
212.629	561
212.696	1460
212.763	656
212.831	1237
212.898	751
212.965	541
213.032	754
213.100	1181
213.167	435
213.234	1783
213.301	668
213.369	847
213.436	1224
213.503	581
213.570	1080
213.638	1525
213.705	588
213.772	490
213.839	1165
213.906	1118
213.973	1170
214.041	610
214.108	143
214.175	620
214.242	1030
214.309	653
214.376	331
214.444	332
214.511	1971
214.578	1129
214.645	884
214.712	972
214.779	1247
214.846	909
214.913	1763
214.980	1726
215.048	991
215.115	1130
215.182	1211
215.249	635
215.316	244
215.383	945
215.450	1030
215.517	1040
215.584	593
215.651	1169
215.718	412
215.785	785
215.852	47
215.919	817
215.986	1102
216.053	429
216.120	668
216.187	620
216.254	954
216.321	-56
216.388	823
216.455	912
216.522	1080
216.589	1612
216.656	2085
216.722	2243
216.789	1410
216.856	1033
216.923	915
216.990	1915
217.057	688
217.124	1582
217.191	952
217.258	2383
217.324	2524
217.391	2832
217.458	2049
217.525	1937
217.592	1439
217.659	441
217.725	1069
217.792	1841
217.859	1423
217.926	817
217.993	922
218.059	808
218.126	341
218.193	310
218.260	238
218.327	347
218.393	-258
218.460	-176
218.527	717
218.594	794
218.660	649
218.727	1526
218.794	848
218.860	701
218.927	432
218.994	250
219.061	329
219.127	733
219.194	968
219.261	101
219.327	806
219.394	363
219.461	-51
219.527	-70
219.594	500
219.661	467
219.727	-250
219.794	703
219.860	-4
219.927	873
219.994	1122
220.060	2145
220.127	2265
220.193	1648
220.260	1012
220.326	2569
220.393	2944
220.460	5181
220.526	2420
220.593	1612
220.659	2582
220.726	1053
220.792	4989
220.859	4482
220.925	5402
220.992	7193
221.058	6559
221.125	6047
221.191	4668
221.258	2022
221.324	1435
221.391	1212
221.457	539
221.524	1110
221.590	1632
221.657	4649
221.723	2857
221.789	2893
221.856	2862
221.922	2002
221.989	1001
222.055	413
222.121	-97
222.188	1616
222.254	683
222.321	247
222.387	291
222.453	749
222.520	901
222.586	114
222.652	347
222.719	300
222.785	-172
222.851	485
222.918	-351
222.984	470
223.050	546
223.116	-163
223.183	463
223.249	-176
223.315	-695
223.382	154
223.448	36
223.514	-108
223.580	45
223.647	178
223.713	-368
223.779	211
223.845	-189
223.911	499
223.978	-274
224.044	444
224.110	-30
224.176	-74
224.242	-214
224.309	101
224.375	-83
224.441	589
224.507	-551
224.573	-471
224.639	39
224.705	-625
224.772	-664
224.838	478
224.904	388
224.970	-40
225.036	-395
225.102	-25
225.168	-120
225.234	715
225.300	137
225.366	870
225.432	607
225.499	30
225.565	-203
225.631	-73
225.697	518
225.763	782
225.829	277
225.895	1138
225.961	1146
226.027	1389
226.093	968
226.159	2109
226.225	3353
226.291	7910
226.357	10541
226.423	5825
226.489	3183
226.554	1662
226.620	1818
226.686	1893
226.752	3750
226.818	7239
226.884	13632
226.950	11746
227.016	4631
227.082	2787
227.148	1762
227.214	1702
227.279	1462
227.345	731
227.411	888
227.477	1853
227.543	3216
227.609	3320
227.674	2128
227.740	643
227.806	384
227.872	645
227.938	527
228.003	1676
228.069	879
228.135	51
228.201	532
228.267	1068
228.332	155
228.398	289
228.464	718
228.530	-34
228.595	652
228.661	426
228.727	497
228.792	1132
228.858	-166
228.924	-166
228.990	2171
229.055	25
229.121	1163
229.187	156
229.252	134
229.318	252
229.384	-462
229.449	389
229.515	-438
229.581	-1547
229.646	916
229.712	388
229.777	1020
229.843	1444
229.909	1332
229.974	1146
230.040	705
230.105	1091
230.171	279
230.236	887
230.302	2292
230.368	970
230.433	437
230.499	140
230.564	1509
230.630	-118
230.695	85
230.761	924
230.826	-654
230.892	1762
230.957	-428
231.023	-134
231.088	443
231.154	959
231.219	185
231.284	507
231.350	762
231.415	-263
231.481	359
231.546	286
231.612	309
231.677	195
231.742	-143
231.808	766
231.873	48
231.939	-1117
232.004	1923
232.069	1778
232.135	387
232.200	-152
232.265	284
232.331	182
232.396	356
232.461	293
232.527	297
232.592	38
232.657	-53
232.723	681
232.788	229
232.853	689
232.918	14
232.984	89
233.049	-536
233.114	429
233.179	1325
233.245	2100
233.310	2151
233.375	-371
233.440	375
233.506	683
233.571	-330
233.636	154
233.701	-152
233.766	1132
233.832	1400
233.897	140
233.962	-449
234.027	1261
234.092	358
234.157	241
234.222	803
234.288	925
234.353	4251
234.418	3859
234.483	2329
234.548	568
234.613	1304
234.678	689
234.743	748
234.808	5747
234.873	2947
234.938	917
235.004	349
235.069	1054
235.134	571
235.199	323
235.264	222
235.329	-277
235.394	987
235.459	1298
235.524	438
235.589	1189
235.654	256
235.719	-128
235.784	736
235.849	539
235.913	2466
235.978	2348
236.043	2711
236.108	645
236.173	620
236.238	1392
236.303	758
236.368	196
236.433	2152
236.498	3188
236.563	2492
236.627	5193
236.692	16934
236.757	13137
236.822	5788
236.887	3407
236.952	3513
237.017	1927
237.081	2668
237.146	3719
237.211	9019
237.276	18288
237.341	26172
237.405	12523
237.470	5500
237.535	4626
237.600	3000
237.664	2060
237.729	761
237.794	1995
237.859	5706
237.923	3437
237.988	1734
238.053	2668
238.118	1898
238.182	7248
238.247	6877
238.312	2198
238.376	2608
238.441	498
238.506	2253
238.570	-717
238.635	1258
238.700	665
238.764	897
238.829	2673
238.893	3092
238.958	1807
239.023	603
239.087	519
239.152	1107
239.216	148
239.281	858
239.346	1069
239.410	177
239.475	851
239.539	7427
239.604	3431
239.668	1985
239.733	663
239.797	2778
239.862	6806
239.926	6993
239.991	2508
240.055	1260
240.120	-55
240.184	946
240.249	872
240.313	-105
240.378	939
240.442	3764
240.507	6862
240.571	986
240.635	2610
240.700	3399
240.764	727
240.829	289
240.893	-164
240.957	646
241.022	3769
241.086	6706
241.151	2197
241.215	-185
241.279	2724
241.344	3090
241.408	1283
241.472	230
241.537	1905
241.601	1588
241.665	-151
241.730	348
241.794	890
241.858	294
241.922	1070
241.987	-533
242.051	173
242.115	-163
242.179	1592
242.244	-19
242.308	1374
242.372	685
242.436	323
242.501	1506
242.565	100
242.629	-730
242.693	559
242.757	467
242.822	721
242.886	1094
242.950	710
243.014	713
243.078	896
243.142	1015
243.206	541
243.271	951
243.335	735
243.399	2401
243.463	10390
243.527	22545
243.591	6038
243.655	2606
243.719	1152
243.783	1303
243.847	3173
243.911	3124
243.975	3094
244.040	2253
244.104	1686
244.168	915
244.232	1620
244.296	2307
244.360	2700
244.424	1192
244.488	943
244.552	1085
244.615	-597
244.679	755
244.743	349
244.807	258
244.871	898
244.935	916
244.999	-752
245.063	58
245.127	1294
245.191	1479
245.255	1786
245.319	886
245.383	-166
245.446	1358
245.510	-33
245.574	135
245.638	1106
245.702	-291
245.766	2642
245.829	1456
245.893	155
245.957	745
246.021	1274
246.085	1084
246.149	1521
246.212	4875
246.276	5014
246.340	2401
246.404	1249
246.467	2236
246.531	1171
246.595	2265
246.659	1563
246.722	934
246.786	1348
246.850	1794
246.913	2550
246.977	249
247.041	1197
247.104	1012
247.168	768
247.232	3648
247.295	7927
247.359	3361
247.423	1327
247.486	3229
247.550	2021
247.614	421
247.677	1493
247.741	1466
247.804	847
247.868	2324
247.932	2873
247.995	7298
248.059	2650
248.122	501
248.186	2278
248.249	3157
248.313	13259
248.376	12747
248.440	7782
248.503	1538
248.567	3284
248.630	2881
248.694	4304
248.757	6825
248.821	13658
248.884	7556
248.948	7807
249.011	10220
249.075	16083
249.138	12621
249.202	4261
249.265	2629
249.328	4580
249.392	1963
249.455	1887
249.519	1698
249.582	2291
249.645	4265
249.709	2653
249.772	2523
249.835	2226
249.899	2171
249.962	2176
250.025	975
250.089	5317
250.152	6597
250.215	2594
250.279	1872
250.342	2621
250.405	2028
250.468	1852
250.532	3668
250.595	6054
250.658	21738
250.721	32738
250.785	10236
250.848	6057
250.911	2270
250.974	2813
251.038	4362
251.101	8162
251.164	3696
251.227	4352
251.290	4188
251.354	7256
251.417	31129
251.480	26669
251.543	20759
251.606	54924
251.669	37753
251.732	13691
251.795	12696
251.859	14705
251.922	34789
251.985	17583
252.048	7566
252.111	5053
252.174	4268
252.237	8530
252.300	16488
252.363	20616
252.426	41987
252.489	15673
252.552	8733
252.615	5227
252.678	6196
252.741	13567
252.804	19881
252.867	43712
252.930	22321
252.993	11432
253.056	7070
253.119	4905
253.182	3498
253.245	6737
253.308	4400
253.371	3688
253.434	3857
253.497	3743
253.559	7971
253.622	5111
253.685	5567
253.748	5435
253.811	1849
253.874	5256
253.937	2833
254.000	2159
254.062	4629
254.125	7383
254.188	7914
254.251	5013
254.314	1714
254.376	5018
254.439	4968
254.502	4599
254.565	5694
254.628	8542
254.690	4751
254.753	1713
254.816	1888
254.878	2186
254.941	6021
255.004	5553
255.067	1908
255.129	833
255.192	1936
255.255	-476
255.317	792
255.380	147
255.443	667
255.505	467
255.568	285
255.631	321
255.693	1233
255.756	555
255.819	685
255.881	1256
255.944	466
256.006	-357
256.069	758
256.132	538
256.194	1352
256.257	4868
256.319	3706
256.382	3812
256.444	1700
256.507	1221
256.569	373
256.632	1335
256.694	3549
256.757	10680
256.819	28515
256.882	10144
256.944	4040
257.007	2931
257.069	2150
257.132	2357
257.194	2458
257.257	1516
257.319	1109
257.381	1545
257.444	8298
257.506	32571
257.569	34917
257.631	18315
257.693	8108
257.756	3999
257.818	2494
257.880	1654
257.943	1855
258.005	1150
258.067	566
258.130	1514
258.192	1618
258.254	3320
258.317	1624
258.379	1889
258.441	5204
258.503	4732
258.566	7341
258.628	8837
258.690	1168
258.753	2090
258.815	3252
258.877	1165
258.939	1684
259.001	928
259.064	323
259.126	1143
259.188	2157
259.250	2471
259.312	3142
259.375	9253
259.437	4610
259.499	1294
259.561	1360
259.623	1369
259.685	574
259.747	1372
259.809	6894
259.872	12411
259.934	19926
259.996	15936
260.058	4034
260.120	1390
260.182	1275
260.244	1414
260.306	-296
260.368	845
260.430	486
260.492	2930
260.554	7779
260.616	6463
260.678	9105
260.740	11759
260.802	1451
260.864	2393
260.926	439
260.988	1764
261.050	1450
261.112	4689
261.174	14827
261.236	9164
261.298	2580
261.359	5683
261.421	7679
261.483	1105
261.545	2135
261.607	-329
261.669	1400
261.731	3477
261.793	6996
261.854	1717
261.916	2494
261.978	1390
262.040	1133
262.102	1487
262.164	2638
262.225	2353
262.287	928
262.349	2552
262.411	2387
262.472	1347
262.534	2837
262.596	7601
262.658	1921
262.719	209
262.781	3055
262.843	7342
262.904	1954
262.966	2121
263.028	2865
263.090	16691
263.151	37977
263.213	10462
263.275	4903
263.336	2191
263.398	1944
263.459	646
263.521	942
263.583	3683
263.644	1589
263.706	135
263.767	-1012
263.829	882
263.891	107
263.952	341
264.014	214
264.075	2155
264.137	4654
264.198	2278
264.260	185
264.321	361
264.383	2837
264.444	8660
264.506	2090
264.567	896
264.629	3392
264.690	7223
264.752	1858
264.813	1412
264.875	805
264.936	990
264.998	1131
265.059	476
265.120	1549
265.182	1912
265.243	15612
265.305	14588
265.366	3096
265.427	1009
265.489	1329
265.550	445
265.611	868
265.673	500
265.734	105
265.795	1418
265.857	-345
265.918	560
265.979	4682
266.040	25256
266.102	18500
266.163	4843
266.224	2944
266.286	1731
266.347	169
266.408	670
266.469	1223
266.530	668
266.592	146
266.653	2156
266.714	2606
266.775	82
266.836	-169
266.898	-650
266.959	1015
267.020	692
267.081	696
267.142	-415
267.203	269
267.264	-530
267.326	1166
267.387	-604
267.448	-570
267.509	-312
267.570	344
267.631	-208
267.692	-420
267.753	465
267.814	-28
267.875	1448
267.936	3998
267.997	2442
268.058	1636
268.119	-109
268.180	199
268.241	133
268.302	-147
268.363	-136
268.424	152
268.485	557
268.546	-149
268.607	23
268.668	-675
268.729	-22
268.790	-40
268.851	215
268.912	2908
268.972	2329
269.033	634
269.094	-840
269.155	1464
269.216	-35
269.277	275
269.338	801
269.398	120
269.459	10
269.520	1591
269.581	1498
269.642	1566
269.702	592
269.763	397
269.824	-275
269.885	49
269.945	1356
270.006	706
270.067	18
270.128	103
270.188	255
270.249	-340
270.310	210
270.370	1069
270.431	13
270.492	-501
270.553	24
270.613	1773
270.674	4576
270.734	645
270.795	656
270.856	428
270.916	573
270.977	372
271.038	914
271.098	221
271.159	1424
271.219	1021
271.280	672
271.340	-213
271.401	162
271.462	3599
271.522	1812
271.583	344
271.643	426
271.704	-136
271.764	1010
271.825	3333
271.885	12270
271.946	14884
272.006	3916
272.066	7553
272.127	12714
272.187	3946
272.248	2391
272.308	1856
272.369	8823
272.429	5152
272.489	3799
272.550	3221
272.610	3374
272.671	1491
272.731	3692
272.791	4083
272.852	1608
272.912	2274
272.972	1134
273.033	762
273.093	1399
273.153	2263
273.214	1399
273.274	1188
273.334	7322
273.394	12939
273.455	4453
273.515	4818
273.575	11079
273.635	4594
273.696	5930
273.756	12847
273.816	4644
273.876	2518
273.936	7093
273.997	12946
274.057	2356
274.117	999
274.177	3228
274.237	16402
274.297	14724
274.358	9056
274.418	9050
274.478	6577
274.538	2790
274.598	1945
274.658	12098
274.718	14176
274.778	4422
274.838	2140
274.898	6255
274.958	20761
275.018	13937
275.078	8124
275.138	3557
275.198	996
275.258	1309
275.318	2112
275.378	3073
275.438	3318
275.498	2055
275.558	8840
275.618	17712
275.678	8578
275.738	5867
275.798	3759
275.858	2039
275.918	973
275.978	1012
276.038	1334
276.098	598
276.157	2632
276.217	7928
276.277	3209
276.337	2020
276.397	581
276.457	933
276.517	373
276.576	546
276.636	-53
276.696	1422
276.756	5531
276.815	3104
276.875	1491
276.935	1441
276.995	1171
277.055	634
277.114	1559
277.174	1966
277.234	6540
277.293	2410
277.353	1625
277.413	1330
277.472	820
277.532	767
277.592	747
277.651	5699
277.711	9769
277.771	3447
277.830	12949
277.890	10276
277.950	7142
278.009	23604
278.069	7953
278.128	7678
278.188	10697
278.248	4267
278.307	11091
278.367	7042
278.426	2278
278.486	1768
278.545	1228
278.605	1480
278.664	761
278.724	1779
278.783	5970
278.843	13453
278.902	3447
278.962	2158
279.021	2498
279.081	3627
279.140	3268
279.199	2482
279.259	3029
279.318	2798
279.378	4143
279.437	8479
279.496	30263
279.556	79565
279.615	53393
279.675	14508
279.734	9055
279.793	14304
279.853	24004
279.912	8241
279.971	4579
280.031	4004
280.090	10068
280.149	17373
280.208	11892
280.268	53493
280.327	48935
280.386	11085
280.445	8052
280.505	7573
280.564	3842
280.623	2043
280.682	4537
280.742	6383
280.801	1455
280.860	1083
280.919	1104
280.978	1650
281.037	728
281.097	1312
281.156	1148
281.215	1381
281.274	2043
281.333	9471
281.392	6543
281.451	1895
281.510	1026
281.569	998
281.628	810
281.688	1034
281.747	1329
281.806	747
281.865	1465
281.924	-150
281.983	672
282.042	70
282.101	110
282.160	245
282.219	419
282.278	1200
282.337	4253
282.396	3533
282.454	1394
282.513	1600
282.572	7461
282.631	3632
282.690	954
282.749	909
282.808	1625
282.867	1156
282.926	1419
282.985	-41
283.043	-83
283.102	1014
283.161	1217
283.220	4116
283.279	8931
283.338	2054
283.396	816
283.455	922
283.514	1361
283.573	2371
283.631	1856
283.690	1029
283.749	972
283.808	2546
283.866	3692
283.925	861
283.984	708
284.043	1749
284.101	2589
284.160	1275
284.219	1726
284.277	1779
284.336	2951
284.395	10936
284.453	9356
284.512	3314
284.570	3103
284.629	3412
284.688	2872
284.746	3312
284.805	2931
284.863	5006
284.922	5440
284.981	6355
285.039	10437
285.098	20727
285.156	47065
285.215	91250
285.273	86074
285.332	50544
285.390	26632
285.449	16012
285.507	11003
285.566	7793
285.624	6110
285.683	4843
285.741	3951
285.799	2898
285.858	2605
285.916	2733
285.975	1380
286.033	1982
286.091	1551
286.150	1095
286.208	1178
286.267	2059
286.325	1701
286.383	2728
286.442	2768
286.500	570
286.558	1289
286.616	840
286.675	1906
286.733	1287
286.791	1271
286.850	2776
286.908	2352
286.966	4433
287.024	2002
287.083	1929
287.141	1176
287.199	1199
287.257	2046
287.315	2556
287.374	1872
287.432	4854
287.490	2854
287.548	1449
287.606	1444
287.664	2547
287.723	2617
287.781	3786
287.839	2033
287.897	2283
287.955	3646
288.013	5981
288.071	15483
288.129	54153
288.187	128927
288.245	58673
288.303	20310
288.361	11750
288.419	8953
288.477	5698
288.535	4651
288.593	2977
288.651	3315
288.709	2199
288.767	940
288.825	1582
288.883	1388
288.941	1580
288.999	760
289.057	1583
289.115	1192
289.173	953
289.231	1818
289.289	1799
289.346	1436
289.404	1404
289.462	2004
289.520	2293
289.578	1357
289.636	380
289.694	424
289.751	1311
289.809	1253
289.867	1127
289.925	2721
289.983	2105
290.040	1289
290.098	1160
290.156	743
290.214	1973
290.271	808
290.329	1142
290.387	714
290.444	594
290.502	207
290.560	1420
290.617	905
290.675	1129
290.733	665
290.790	1084
290.848	1171
290.906	993
290.963	1129
291.021	1397
291.078	1145
291.136	1632
291.194	5980
291.251	11105
291.309	3778
291.366	1354
291.424	968
291.481	1715
291.539	1504
291.596	1182
291.654	527
291.711	1267
291.769	1785
291.826	2803
291.884	1811
291.941	953
291.999	713
292.056	1158
292.114	1136
292.171	547
292.228	1185
292.286	1675
292.343	2800
292.401	3946
292.458	3195
292.515	1761
292.573	2842
292.630	2283
292.687	2011
292.745	1058
292.802	2822
292.859	8049
292.917	10948
292.974	6786
293.031	2037
293.089	1287
293.146	1316
293.203	1457
293.260	1564
293.318	2948
293.375	4063
293.432	2319
293.489	1205
293.546	2082
293.604	2627
293.661	7636
293.718	18772
293.775	10138
293.832	4456
293.889	4565
293.947	4870
294.004	3311
294.061	3593
294.118	7219
294.175	12912
294.232	17983
294.289	7116
294.346	4564
294.403	3958
294.460	2907
294.517	2085
294.574	2043
294.631	1938
294.688	3236
294.745	7151
294.802	22938
294.859	26568
294.916	11898
294.973	6480
295.030	4022
295.087	2548
295.144	3010
295.201	2372
295.258	2248
295.315	3432
295.372	8224
295.429	15033
295.486	7563
295.542	5401
295.599	12587
295.656	21865
295.713	14200
295.770	15449
295.827	6988
295.883	3215
295.940	3712
295.997	5018
296.054	5253
296.111	3168
296.167	2102
296.224	1806
296.281	1905
296.338	2214
296.394	1819
296.451	2706
296.508	7695
296.564	14002
296.621	10253
296.678	17797
296.734	26384
296.791	11049
296.848	5629
296.904	5264
296.961	11226
297.018	17702
297.074	14736
297.131	6239
297.187	4714
297.244	6572
297.301	18425
297.357	29598
297.414	12495
297.470	5019
297.527	3670
297.583	2604
297.640	3674
297.696	1981
297.753	2262
297.809	2051
297.866	1502
297.922	2614
297.979	1221
298.035	1950
298.092	3811
298.148	9824
298.204	10562
298.261	4969
298.317	9721
298.374	21959
298.430	14335
298.486	6904
298.543	5001
298.599	3960
298.656	5056
298.712	8898
298.768	19391
298.824	14203
298.881	5782
298.937	2887
298.993	3127
299.050	3127
299.106	3758
299.162	2784
299.218	3021
299.275	2736
299.331	3262
299.387	7207
299.443	20099
299.500	26132
299.556	14934
299.612	6881
299.668	6199
299.724	10427
299.780	13309
299.837	7411
299.893	7971
299.949	20357
300.005	26582
300.061	21137
300.117	32645
300.173	16302
300.229	7477
300.285	7715
300.341	8930
300.397	5865
300.453	3977
300.510	3462
300.566	4747
300.622	7510
300.678	19718
300.734	31132
300.790	23834
300.845	23406
300.901	18650
300.957	24353
301.013	17767
301.069	8000
301.125	5401
301.181	5166
301.237	4728
301.293	3262
301.349	2661
301.405	2082
301.461	2573
301.516	3814
301.572	4165
301.628	5790
301.684	5747
301.740	7448
301.796	11929
301.851	9383
301.907	12921
301.963	15257
302.019	23687
302.074	54240
302.130	56277
302.186	27269
302.242	12166
302.297	7288
302.353	7775
302.409	12877
302.464	11907
302.520	10333
302.576	19512
302.631	23376
302.687	13952
302.743	6623
302.798	4272
302.854	3395
302.910	3748
302.965	4583
303.021	7258
303.076	7322
303.132	8452
303.187	9608
303.243	6005
303.299	3797
303.354	3301
303.410	2618
303.465	2921
303.521	3385
303.576	2609
303.632	4237
303.687	7278
303.743	17912
303.798	17570
303.853	8037
303.909	4564
303.964	3783
304.020	5891
304.075	8533
304.130	7280
304.186	11453
304.241	13510
304.297	11212
304.352	6756
304.358	6516
304.407	4576
304.449	5248
304.463	5481
304.518	4323
304.539	4457
304.573	4680
304.629	4374
304.630	4411
304.684	6269
304.720	11947
304.739	14806
304.794	21152
304.811	18849
304.850	13313
304.902	5892
304.905	5411
304.960	4254
304.992	4180
305.015	4120
305.071	3654
305.083	3651
305.126	3631
305.173	2558
305.181	2399
305.236	2209
305.264	2587
305.292	2910
305.347	3328
305.354	3342
305.402	3545
305.445	4026
305.457	4127
305.512	4774
305.535	4774
305.567	4889
305.622	5113
305.626	5343
305.678	9653
305.716	17360
305.733	20267
305.788	22996
305.807	20322
305.843	15684
305.897	17843
305.898	17854
305.953	18619
305.988	13151
306.008	10157
306.063	6601
306.078	6011
306.118	4508
306.168	3289
306.173	3201
306.228	2841
306.259	2663
306.283	2513
306.338	2720
306.349	2750
306.393	2677
306.440	3631
306.448	3841
306.503	3614
306.530	3996
306.558	4785
306.613	9400
306.620	10100
306.668	14329
306.711	17029
306.723	17340
306.778	14681
306.801	11616
306.833	7869
306.888	4545
306.892	4432
306.943	3393
306.982	2782
306.997	2623
307.052	2843
307.072	2979
307.107	3233
307.162	4045
307.163	4066
307.217	6090
307.253	6811
307.272	6911
307.327	7715
307.343	7180
307.381	5767
307.434	5052
307.436	5133
307.491	9220
307.524	13630
307.546	15285
307.600	15436
307.614	14019
307.655	9415
307.704	5743
307.710	5528
307.765	5539
307.795	6946
307.819	8384
307.874	13658
307.885	13713
307.929	11686
307.975	9474
307.984	9475
308.038	13461
308.065	17118
308.093	25748
308.148	51665
308.156	57661
308.202	90516
308.246	109835
308.257	108503
308.312	66229
308.336	48943
308.366	36697
308.421	22619
308.426	21658
308.475	14555
308.517	10916
308.530	9903
308.585	8063
308.607	7593
308.639	7342
308.694	7813
308.697	7891
308.748	11128
308.787	15579
308.803	15922
308.857	13216
308.877	11640
308.912	9773
308.967	8744
308.967	8780
309.021	11243
309.058	14088
309.076	17230
309.130	29881
309.148	36139
309.185	65239
309.238	116031
309.239	116327
309.293	128156
309.328	120400
309.348	106034
309.402	55748
309.418	43003
309.457	30118
309.508	18979
309.511	18410
309.566	14115
309.598	12742
309.620	12659
309.674	13928
309.688	14472
309.729	13658
309.778	11459
309.783	11212
309.837	8827
309.868	7793
309.892	8556
309.946	12037
309.959	13392
310.001	17766
310.049	21511
310.055	21002
310.109	13849
310.139	9277
310.163	6933
310.218	3806
310.229	3343
310.272	3018
310.319	3178
310.326	3086
310.381	2566
310.409	2326
310.435	2199
310.489	2075
310.499	2072
310.543	2087
310.589	2128
310.598	2096
310.652	2144
310.679	1945
310.706	1515
310.760	958
310.769	922
310.814	1136
310.859	1088
310.868	1094
310.923	1382
310.948	1523
310.977	1751
311.031	2239
311.038	2311
311.085	2001
311.128	1664
311.139	1654
311.193	1622
311.218	1658
311.247	1518
311.301	1147
311.308	1134
311.356	1176
311.398	1137
311.410	1089
311.464	908
311.488	863
311.518	829
311.572	696
311.578	705
311.626	1297
311.668	1852
311.680	1796
311.734	1522
311.758	1441
311.788	1828
311.842	2517
311.847	2607
311.896	2282
311.937	1998
311.950	2059
312.004	2459
312.027	2624
312.058	2308
312.112	1797
312.117	1759
312.165	1296
312.207	930
312.297	1272
312.386	1609
312.476	2097
312.566	3064
312.656	2094
312.745	1031
312.835	1157
312.925	1359
313.015	1984
313.104	861
313.194	1301
313.284	937
313.374	1349
313.463	614
313.553	1825
313.643	1275
313.732	929
313.822	658
313.912	804
314.001	1120
314.091	1244
314.180	2356
314.270	1890
314.360	2034
314.449	1283
314.539	584
314.628	1045
314.718	1400
314.808	2197
314.897	1551
314.987	1489
315.076	1760
315.166	2630
315.255	2403
315.345	1502
315.434	1459
315.524	1836
315.613	2794
315.703	4055
315.792	7733
315.881	27397
315.971	9887
316.060	4164
316.150	5740
316.239	6104
316.328	2730
316.418	1521
316.507	1044
316.597	2353
316.686	1669
316.775	2941
316.865	7578
316.954	1741
317.043	1075
317.133	1323
317.222	1360
317.311	1440
317.400	425
317.490	2645
317.579	1920
317.668	2358
317.757	3633
317.847	11567
317.936	48578
318.025	15031
318.114	8705
318.203	4573
318.293	4262
318.382	5545
318.471	4614
318.560	6595
318.649	13596
318.738	3503
318.828	1887
318.917	2134
319.006	2658
319.095	8359
319.184	18609
319.273	9489
319.362	4738
319.451	2403
319.540	1500
319.629	3313
319.718	5840
319.807	3891
319.896	6444
319.985	22640
320.074	8324
320.163	2491
320.252	3819
320.341	2998
320.430	1777
320.519	2649
320.608	1573
320.697	1879
320.786	1774
320.875	2022
320.964	2665
321.053	3882
321.142	5199
321.230	6395
321.319	4391
321.408	9990
321.497	5311
321.586	4999
321.675	6215
321.764	5659
321.852	3949
321.941	6018
322.030	3853
322.119	4239
322.207	11085
322.296	9932
322.385	5068
322.474	5498
322.562	12485
322.651	7246
322.740	5537
322.829	8485
322.917	8498
323.006	4988
323.095	4261
323.183	3584
323.272	4771
323.361	8643
323.449	31140
323.538	11020
323.626	19771
323.715	14190
323.804	5082
323.892	17769
323.981	10184
324.069	3460
324.158	9859
324.246	9287
324.335	2955
324.424	4297
324.512	1821
324.601	1820
324.689	3255
324.778	5134
324.866	6314
324.954	1137
325.043	1484
325.131	3046
325.220	7249
325.308	8492
325.397	5236
325.485	3489
325.574	1262
325.662	1430
325.750	816
325.839	1516
325.927	1364
326.015	1828
326.104	1994
326.192	4525
326.280	1199
326.369	918
326.457	1580
326.545	2679
326.634	1462
326.722	1021
326.810	1616
326.898	808
326.987	1890
327.075	2314
327.163	3514
327.251	2168
327.340	1754
327.428	2016
327.516	646
327.604	1984
327.692	1823
327.781	1950
327.869	2908
327.957	1792
328.045	1554
328.133	1411
328.221	725
328.309	1132
328.397	1039
328.485	1896
328.574	2274
328.662	6405
328.750	4411
328.838	1842
328.926	1279
329.014	1124
329.102	1608
329.190	3940
329.278	2342
329.366	818
329.454	484
329.542	1122
329.630	1053
329.718	574
329.806	1170
329.893	1281
329.981	624
330.069	2731
330.157	10647
330.245	29600
330.333	15802
330.421	2545
330.509	2062
330.597	7310
330.684	4917
330.772	1814
330.860	2316
330.948	3719
331.036	1582
331.123	775
331.211	470
331.299	1576
331.387	2178
331.475	5132
331.562	1075
331.650	928
331.738	1456
331.825	1874
331.913	522
332.001	613
332.089	1278
332.176	3344
332.264	7933
332.352	6576
332.439	1120
332.527	962
332.614	1104
332.702	1706
332.790	1100
332.877	4062
332.965	7368
333.052	1361
333.140	733
333.228	3986
333.315	1025
333.403	1074
333.490	4711
333.578	3870
333.665	3382
333.753	2457
333.840	946
333.928	1943
334.015	5614
334.103	9154
334.190	26490
334.278	7630
334.365	3348
334.452	2631
334.540	1306
334.627	2140
334.715	3520
334.802	7182
334.889	36838
334.977	41829
335.064	6823
335.151	2884
335.239	1986
335.326	2709
335.413	11545
335.501	16819
335.588	2238
335.675	1646
335.762	2410
335.850	4241
335.937	3723
336.024	9978
336.111	40133
336.199	19258
336.286	4770
336.373	1571
336.460	356
336.547	1496
336.635	1209
336.722	982
336.809	1080
336.896	2601
336.983	5565
337.070	16266
337.157	26583
337.245	23392
337.332	16965
337.419	1691
337.506	933
337.593	1391
337.680	4195
337.767	13799
337.854	3929
337.941	5018
338.028	5942
338.115	2697
338.202	2166
338.289	5398
338.376	22100
338.463	7202
338.550	8032
338.637	9850
338.724	2610
338.811	6476
338.898	1415
338.984	454
339.071	328
339.158	1613
339.245	3421
339.332	2064
339.419	3815
339.506	3504
339.593	354
339.679	660
339.766	530
339.853	685
339.940	2799
340.027	398
340.113	240
340.200	1366
340.287	315
340.374	458
340.460	2374
340.547	-96
340.634	1252
340.720	7494
340.807	3861
340.894	798
340.980	792
341.067	374
341.154	691
341.240	1088
341.327	3472
341.414	1223
341.500	564
341.587	251
341.674	232
341.760	1453
341.847	2521
341.933	656
342.020	187
342.106	479
342.193	17
342.279	1738
342.366	700
342.452	1707
342.539	-4
342.625	2672
342.712	7569
342.798	2618
342.885	752
342.971	435
343.058	139
343.144	-206
343.230	558
343.317	388
343.403	492
343.490	551
343.576	35
343.662	345
343.749	586
343.835	1334
343.921	3320
344.008	22740
344.094	52693
344.180	11935
344.267	2541
344.353	10628
344.439	11278
344.525	3034
344.612	1196
344.698	606
344.784	1126
344.870	972
344.957	491
345.043	1576
345.129	163
345.215	1597
345.301	676
345.387	269
345.474	-209
345.560	271
345.646	197
345.732	151
345.818	-41
345.904	364
345.990	613
346.076	1489
346.162	1377
346.249	1377
346.335	463
346.421	1079
346.507	3280
346.593	16950
346.679	2542
346.765	1182
346.851	521
346.937	566
347.023	1291
347.108	384
347.194	6
347.280	376
347.366	1176
347.452	5317
347.538	22792
347.624	15296
347.710	10974
347.796	1129
347.882	832
347.967	538
348.053	513
348.139	396
348.225	-268
348.311	-564
348.397	-77
348.482	541
348.568	463
348.654	74
348.740	1411
348.825	796
348.911	2151
348.997	9131
349.083	20978
349.168	2893
349.254	364
349.340	875
349.425	202
349.511	24
349.597	1383
349.682	2103
349.768	9296
349.854	4518
349.939	594
350.025	850
350.110	138
350.196	-579
350.282	-779
350.367	181
350.453	735
350.538	1315
350.624	-218
350.709	581
350.795	-429
350.880	486
350.966	1260
351.051	810
351.137	-41
351.222	413
351.308	2021
351.393	6672
351.479	1064
351.564	-811
351.649	22
351.735	419
351.820	-497
351.906	-570
351.991	194
352.076	4847
352.162	7229
352.247	813
352.332	348
352.418	1520
352.503	1387
352.588	10550
352.673	8504
352.759	1818
352.844	-237
352.929	479
353.014	1105
353.100	1123
353.185	2797
353.270	2593
353.355	1965
353.441	618
353.526	100
353.611	2501
353.696	1768
353.781	1928
353.866	-189
353.952	520
354.037	1571
354.122	4273
354.207	3071
354.292	1179
354.377	-156
354.462	646
354.547	-186
354.632	1229
354.717	1487
354.802	3987
354.887	1405
354.972	178
355.057	-928
355.142	-640
355.227	114
355.312	861
355.397	2215
355.482	7362
355.567	3456
355.652	2800
355.737	3004
355.822	10968
355.907	9961
355.991	890
356.076	-59
356.161	476
356.246	13
356.331	315
356.416	1851
356.501	23375
356.585	24689
356.670	2907
356.755	1876
356.840	2313
356.924	16593
357.009	61101
357.094	21512
357.179	2845
357.263	1773
357.348	1692
357.433	1185
357.517	1415
357.602	1142
357.687	778
357.771	2387
357.856	5816
357.941	3895
358.025	12101
358.110	58685
358.195	27268
358.279	2779
358.364	1806
358.448	7334
358.533	20876
358.617	14311
358.702	15100
358.787	5106
358.871	1989
358.956	1559
359.040	336
359.125	-454
359.209	324
359.294	1750
359.378	3162
359.462	1558
359.547	1527
359.631	-236
359.716	-80
359.800	275
359.885	1094
359.969	-1
360.053	1285
360.138	478
360.222	1085
360.306	1794
360.391	2155
360.475	2231
360.559	6600
360.644	7380
360.728	4588
360.812	11521
360.896	36608
360.981	12477
361.065	4923
361.149	1546
361.233	1064
361.318	450
361.402	1291
361.486	788
361.570	318
361.654	938
361.739	3150
361.823	21407
361.907	37792
361.991	5332
362.075	2404
362.159	5151
362.243	3985
362.327	4670
362.411	8734
362.495	3373
362.580	1053
362.664	383
362.748	204
362.832	1603
362.916	2866
363.000	14424
363.084	39079
363.168	47949
363.252	10015
363.336	2990
363.420	3298
363.503	15073
363.587	20036
363.671	3049
363.755	512
363.839	2576
363.923	1001
364.007	1869
364.091	3793
364.175	6144
364.258	30075
364.342	24136
364.426	33827
364.510	17693
364.594	5779
364.677	7030
364.761	31631
364.845	23092
364.929	5264
365.013	2263
365.096	3113
365.180	3451
365.264	7227
365.347	27088
365.431	10754
365.515	541
365.598	149
365.682	1176
365.766	1330
365.849	1995
365.933	-179
366.017	1423
366.100	-88
366.184	-197
366.267	893
366.351	136
366.435	107
366.518	-367
366.602	-716
366.685	-441
366.769	160
366.852	764
366.936	2413
367.019	877
367.103	256
367.186	2435
367.270	-19
367.353	-1398
367.436	1007
367.520	-294
367.603	191
367.687	400
367.770	1931
367.853	1349
367.937	8189
368.020	13672
368.104	2190
368.187	1944
368.270	3312
368.353	2376
368.437	4336
368.520	13982
368.603	6645
368.687	7730
368.770	16632
368.853	3207
368.936	2474
369.020	2066
369.103	154
369.186	-614
369.269	-498
369.352	929
369.436	1615
369.519	1003
369.602	-453
369.685	800
369.768	-61
369.851	77
369.934	-357
370.018	-143
370.101	552
370.184	2708
370.267	1004
370.350	1104
370.433	3611
370.516	15532
370.599	24822
370.682	6396
370.765	7332
370.848	9496
370.931	20887
371.014	8280
371.097	556
371.180	387
371.263	-45
371.346	-1555
371.429	38
371.511	-759
371.594	372
371.677	1984
371.760	3253
371.843	2796
371.926	19841
372.009	48133
372.091	14867
372.174	7434
372.257	22139
372.340	7478
372.423	4222
372.505	4593
372.588	1100
372.671	5520
372.754	19391
372.836	10036
372.919	6760
373.002	12924
373.085	2897
373.167	2127
373.250	7295
373.332	19670
373.415	30343
373.498	67480
373.580	23658
373.663	37350
373.746	51593
373.828	8400
373.911	3221
373.993	2653
374.076	13922
374.159	13503
374.241	4144
374.324	15762
374.406	10822
374.489	16848
374.571	53324
374.654	20334
374.736	8158
374.819	31033
374.901	46567
374.983	50125
375.066	8495
375.148	2183
375.231	11606
375.313	21945
375.395	6604
375.478	1029
375.560	973
375.643	1374
375.725	8217
375.807	41336
375.890	33764
375.972	11770
376.054	6171
376.136	10760
376.219	4415
376.301	9472
376.383	32926
376.465	12002
376.548	4194
376.630	6475
376.712	26337
376.794	12367
376.877	1326
376.959	-602
377.041	-267
377.123	1458
377.205	1715
377.287	-29
377.369	112
377.452	60
377.534	302
377.616	-247
377.698	-376
377.780	-1567
377.862	281
377.944	-290
378.026	-539
378.108	-401
378.190	132
378.272	-161
378.354	-524
378.436	-113
378.518	-109
378.600	3469
378.682	3185
378.764	9699
378.846	7806
378.928	1794
379.010	2201
379.091	1576
379.173	650
379.255	-331
379.337	727
379.419	3187
379.501	15354
379.583	5741
379.664	402
379.746	1588
379.828	9840
379.910	12360
379.991	12030
380.073	1484
380.155	1135
380.237	49
380.318	-432
380.400	-371
380.482	1028
380.564	2188
380.645	3501
380.727	2937
380.809	1396
380.890	-194
380.972	572
381.053	1036
381.135	457
381.217	2535
381.298	10681
381.380	4016
381.461	4247
381.543	24948
381.624	34163
381.706	4618
381.787	1804
381.869	2270
381.951	11089
382.032	50293
382.113	32870
382.195	4124
382.276	3479
382.358	7948
382.439	22752
382.521	27265
382.602	48148
382.684	18639
382.765	28765
382.846	25760
382.928	26417
383.009	14153
383.090	9019
383.172	37125
383.253	64544
383.334	24249
383.416	36441
383.497	18167
383.578	4420
383.659	8241
383.741	32617
383.822	99139
383.903	51758
383.984	18865
384.066	40826
384.147	24132
384.228	4342
384.309	1736
384.390	1524
384.471	1631
384.553	590
384.634	2128
384.715	2220
384.796	352
384.877	1655
384.958	9132
385.039	11429
385.120	2688
385.201	1756
385.282	1503
385.363	2317
385.444	1140
385.525	4178
385.606	17841
385.687	17371
385.768	2634
385.849	2681
385.930	20304
386.011	42011
386.092	9822
386.173	1392
386.254	489
386.335	1946
386.416	940
386.496	4713
386.577	9672
386.658	3481
386.739	1034
386.820	1809
386.901	-115
386.981	1248
387.062	988
387.143	2495
387.224	9860
387.304	10655
387.385	3790
387.466	1291
387.547	2760
387.627	1638
387.708	3353
387.789	19221
387.869	25693
387.950	7982
388.031	1146
388.111	-28
388.192	3816
388.273	5704
388.353	2348
388.434	1933
388.514	3131
388.595	23047
388.676	28944
388.756	11028
388.837	9333
388.917	5048
388.998	-640
389.078	837
389.159	-235
389.239	-429
389.320	2703
389.400	-334
389.480	4386
389.561	11493
389.641	6683
389.722	1917
389.802	1653
389.883	4289
389.963	15778
390.043	9332
390.124	1494
390.204	3387
390.284	11537
390.365	6903
390.445	8985
390.525	28703
390.605	25450
390.686	5826
390.766	2314
390.846	1282
390.927	-267
391.007	-207
391.087	1900
391.167	873
391.247	-251
391.328	1734
391.408	3837
391.488	1989
391.568	-624
391.648	812
391.728	1971
391.808	2449
391.888	1471
391.969	5531
392.049	9163
392.129	5399
392.209	4486
392.289	14496
392.369	8677
392.449	6187
392.529	3517
392.609	4582
392.689	4775
392.769	14157
392.849	13444
392.929	10960
393.009	22514
393.089	20514
393.169	24310
393.248	77516
393.328	301428
393.408	343911
393.488	95944
393.568	23661
393.648	11953
393.728	6834
393.807	4398
393.887	4992
393.967	3581
394.047	3721
394.127	3828
394.206	7899
394.286	26689
394.366	128997
394.446	145768
394.525	30748
394.605	7190
394.685	5173
394.764	8897
394.844	15220
394.924	10778
395.003	3612
395.083	2354
395.163	2185
395.242	1736
395.322	2803
395.402	100
395.481	2804
395.561	5561
395.640	17505
395.720	16325
395.799	21277
395.879	15756
395.958	10480
396.038	39160
396.117	169051
396.197	189337
396.276	49857
396.356	14315
396.435	9763
396.515	7911
396.594	8846
396.673	19367
396.753	81831
396.832	277048
396.912	207687
396.991	42184
397.070	11787
397.150	4765
397.229	4420
397.308	5958
397.388	10459
397.467	4665
397.546	1688
397.625	21
397.705	2703
397.784	1249
397.863	911
397.942	523
398.022	1059
398.101	5176
398.180	15458
398.259	7494
398.338	1983
398.417	-110
398.497	-470
398.576	1102
398.655	-852
398.734	111
398.813	963
398.892	4156
398.971	17788
399.050	6937
399.129	76
399.208	-95
399.287	380
399.366	-714
399.445	-1020
399.524	-857
399.603	-1548
399.682	296
399.761	3342
399.840	18911
399.919	14271
399.998	273
400.077	-305
400.156	-1212
400.235	774
400.313	-629
400.392	-346
400.471	3605
400.550	7867
400.629	-232
400.708	897
400.786	30
400.865	1880
400.944	1079
401.023	2443
401.102	-1242
401.180	-917
401.259	-945
401.338	-564
401.416	-286
401.495	-577
401.574	-133
401.652	-879
401.731	593
401.810	-256
401.888	-729
401.967	-311
402.046	-180
402.124	-248
402.203	-815
402.281	-608
402.360	-466
402.438	3244
402.517	739
402.596	14
402.674	-1020
402.753	-987
402.831	636
402.910	254
402.988	4598
403.066	24120
403.145	14429
403.223	5852
403.302	19619
403.380	15447
403.459	15094
403.537	4411
403.615	926
403.694	-1388
403.772	216
403.850	-1041
403.929	-1048
404.007	-746
404.085	2204
404.164	1673
404.242	-217
404.320	1762
404.398	5152
404.477	8062
404.555	34868
404.633	32020
404.711	6815
404.789	2176
404.868	-577
404.946	-976
405.024	-1085
405.102	-1256
405.180	-1382
405.258	-1988
405.336	-195
405.415	-1740
405.493	-11
405.571	1789
405.649	-1408
405.727	-1632
405.805	423
405.883	-261
405.961	-229
406.039	-562
406.117	-1735
406.195	393
406.273	4730
406.351	26774
406.429	15955
406.507	496
406.585	-969
406.663	-1101
406.740	-387
406.818	-1307
406.896	-1042
406.974	-263
407.052	-167
407.130	12456
407.208	20179
407.285	3050
407.363	-1444
407.441	-451
407.519	-998
407.596	-207
407.674	3537
407.752	20309
407.830	18604
407.907	3276
407.985	-414
408.063	-205
408.141	-1228
408.218	512
408.296	-957
408.373	-480
408.451	-1067
408.529	-904
408.606	-1171
408.684	-1234
408.762	-834
408.839	-1452
408.917	-1634
408.994	-1419
409.072	-1314
409.149	-1288
409.227	-26
409.304	449
409.382	216
409.459	103
409.537	1113
409.614	751
409.692	-217
409.769	-541
409.846	854
409.924	2420
410.001	-616
410.079	-684
410.156	307
410.233	-127
410.311	-1267
410.388	-1339
410.465	-614
410.543	-785
410.620	-828
410.697	-1187
410.775	-1254
410.852	-1668
410.929	-169
411.006	39
411.083	-1048
411.161	-797
411.238	70
411.315	-207
411.392	-1260
411.469	-596
411.547	-605
411.624	-2319
411.701	-1581
411.778	-1264
411.855	-327
411.932	-857
412.009	-1491
412.086	-1480
412.163	-1199
412.240	-1500
412.317	-1141
412.394	-1089
412.471	-1093
412.548	-1916
412.625	-1506
412.702	-873
412.779	104
412.856	-938
412.933	-2005
413.010	-901
413.087	-957
413.164	2686
413.241	6246
413.318	-711
413.395	-405
413.471	-969
413.548	-838
413.625	92
413.702	-1181
413.779	-973
413.855	-1216
413.932	-2347
414.009	-2835
414.086	-2150
414.162	-1823
414.239	-233
414.316	2899
414.393	9548
414.469	1738
414.546	-1298
414.623	-1486
414.699	-1243
414.776	-1915
414.853	-1723
414.929	-1379
415.006	-1776
415.082	-1183
415.159	-1061
415.236	-1421
415.312	-725
415.389	-678
415.465	-657
415.542	-1578
415.618	-1694
415.695	-44
415.771	-1518
415.848	-972
415.924	-1578
416.000	-1629
416.077	-1331
416.153	-2525
416.230	-2773
416.306	-1800
416.383	-2441
416.459	-1205
416.535	-2061
416.612	-2122
416.688	-2083
416.764	-2192
416.841	-2250
416.917	-1981
416.993	-1484
417.069	-1443
417.146	-1438
417.222	-1433
417.298	-1314
417.374	-1723
417.451	-1226
417.527	-1980
417.603	-1210
417.679	-1403
417.755	-1717
417.831	-1959
417.908	-1628
417.984	-1931
418.060	-2730
418.136	-974
418.212	-617
418.288	-1029
418.364	-1328
418.440	-1825
418.516	-60
418.592	-526
418.668	300
418.744	1135
418.820	159
418.896	-1455
418.972	-1889
419.048	-1441
419.124	183
419.200	-1134
419.276	-1453
419.352	-2007
419.428	-1555
419.504	-1949
419.579	-1129
419.655	-1482
419.731	-1131
419.807	-168
419.883	1104
419.959	775
420.034	-1082
420.110	-346
420.186	4039
420.262	4398
420.337	-265
420.413	-947
420.489	-1641
420.565	-635
420.640	-1896
420.716	-596
420.792	-2570
420.867	-669
420.943	-1864
421.019	-1036
421.094	-1135
421.170	-192
421.245	-1048
421.321	313
421.397	-1316
421.472	2245
421.548	11236
421.623	6188
421.699	490
421.774	-220
421.850	-566
421.925	1080
422.001	1291
422.076	922
422.152	597
422.227	2552
422.302	5595
422.378	8979
422.453	16127
422.529	39765
422.604	107252
422.679	169018
422.755	118522
422.830	48580
422.905	19036
422.981	10020
423.056	5794
423.131	4241
423.207	3303
423.282	1732
423.357	2247
423.432	918
423.508	1560
423.583	2750
423.658	2139
423.733	-10
423.808	211
423.883	257
423.959	159
424.034	-652
424.109	-235
424.184	-1200
424.259	-1103
424.334	-1471
424.409	-1407
424.484	-2272
424.559	-798
424.634	-1708
424.709	-884
424.784	-159
424.859	-625
424.934	-1098
425.009	1910
425.084	6493
425.159	1652
425.234	-105
425.309	-1471
425.384	94
425.459	663
425.534	-196
425.609	-1441
425.683	-857
425.758	-1308
425.833	-1691
425.908	-917
425.983	514
426.058	7427
426.132	2861
426.207	-1427
426.282	-289
426.357	-880
426.431	-1877
426.506	-1165
426.581	-1428
426.655	-569
426.730	-514
426.805	-2300
426.879	-719
426.954	-1030
427.029	242
427.103	5870
427.178	22315
427.253	10675
427.327	140
427.402	-388
427.476	1742
427.551	142
427.625	-592
427.700	-884
427.774	-1962
427.849	-1235
427.923	-2282
427.998	-1301
428.072	-1636
428.147	1344
428.221	8874
428.296	36538
428.370	22773
428.444	1696
428.519	-20
428.593	2044
428.667	1478
428.742	2397
428.816	2199
428.890	19441
428.965	37516
429.039	11761
429.113	2167
429.188	428
429.262	-1006
429.336	-212
429.410	2526
429.485	1641
429.559	1060
429.633	1217
429.707	-927
429.781	2380
429.855	19727
429.930	36570
430.004	15767
430.078	17278
430.152	19370
430.226	48445
430.300	57476
430.374	10819
430.448	2029
430.522	4301
430.596	16059
430.670	12452
430.744	34096
430.818	55234
430.892	12509
430.966	-59
431.040	98
431.114	-1767
431.188	-1606
431.262	-1607
431.336	-1338
431.410	804
431.484	1700
431.557	2307
431.631	-645
431.705	277
431.779	4382
431.853	32530
431.927	28496
432.000	3715
432.074	-16
432.148	-1249
432.222	-546
432.295	-975
432.369	-1291
432.443	-1187
432.516	6841
432.590	25419
432.664	10780
432.737	-470
432.811	-883
432.885	-1601
432.958	-1017
433.032	-1532
433.106	-1873
433.179	-1921
433.253	-1677
433.326	-1651
433.400	-1789
433.473	-1207
433.547	-2863
433.620	-1753
433.694	-942
433.767	-527
433.841	-1357
433.914	-1569
433.988	-1830
434.061	-1169
434.134	-1122
434.208	-2352
434.281	-1715
434.355	-2343
434.428	-1296
434.501	-2189
434.575	-1675
434.648	-1739
434.721	-1476
434.795	-1174
434.868	-1925
434.941	-2110
435.014	-1716
435.088	-1360
435.161	-1862
435.234	-540
435.307	-541
435.381	-920
435.454	-482
435.527	-263
435.600	57
435.673	-164
435.746	-685
435.819	-554
435.892	-860
435.966	-1415
436.039	-1468
436.112	-1224
436.185	-2636
436.258	-1841
436.331	-2325
436.404	-2403
436.477	-1664
436.550	-1428
436.623	-1682
436.696	-1747
436.769	-964
436.842	-976
436.915	-783
436.987	-1138
437.060	-1952
437.133	-1244
437.206	-2281
437.279	-906
437.352	-1580
437.425	-1345
437.498	-866
437.570	-872
437.643	-638
437.716	-1412
437.789	-1753
437.861	-781
437.934	701
438.007	113
438.080	-1515
438.152	-649
438.225	343
438.298	11123
438.370	43338
438.443	22178
438.516	2994
438.588	-356
438.661	-902
438.734	-1171
438.806	-1969
438.879	-450
438.951	-1100
439.024	-698
439.096	-1226
439.169	-930
439.241	-1235
439.314	-1840
439.386	-569
439.459	-523
439.531	257
439.604	-130
439.676	-744
439.749	-1666
439.821	-2440
439.893	-1480
439.966	-983
440.038	-1385
440.110	-993
440.183	-1448
440.255	-1606
440.327	-609
440.400	2259
440.472	22250
440.544	20753
440.617	1699
440.689	364
440.761	1068
440.833	593
440.905	1040
440.978	-1273
441.050	-1700
441.122	-1351
441.194	-1759
441.266	-1241
441.338	-1285
441.411	-1122
441.483	4762
441.555	10449
441.627	2851
441.699	-61
441.771	469
441.843	-917
441.915	-1240
441.987	-1099
442.059	-836
442.131	-888
442.203	-398
442.275	-86
442.347	1087
442.419	2400
442.491	18142
442.563	59081
442.635	38147
442.706	10109
442.778	5826
442.850	673
442.922	-230
442.994	5
443.066	119
443.137	1582
443.209	1101
443.281	2049
443.353	6148
443.425	24574
443.496	96865
443.568	123352
443.640	60427
443.711	14220
443.783	3847
443.855	1218
443.926	-19
443.998	-698
444.070	-170
444.141	64
444.213	387
444.285	1443
444.356	567
444.428	366
444.499	49
444.571	-1009
444.642	-284
444.714	-1296
444.785	82
444.857	1048
444.928	2990
445.000	2755
445.071	2602
445.143	4062
445.214	4025
445.285	5673
445.357	17273
445.428	61801
445.500	158769
445.571	129403
445.642	78562
445.714	30917
445.785	14437
445.856	5385
445.928	2899
445.999	1975
446.070	710
446.141	842
446.213	1450
446.284	795
446.355	177
446.426	-356
446.497	-86
446.569	-127
446.640	1330
446.711	594
446.782	-336
446.853	-325
446.924	1125
446.995	-322
447.066	-324
447.138	-146
447.209	437
447.280	-926
447.351	-430
447.422	-805
447.493	-472
447.564	-446
447.635	243
447.706	-413
447.777	87
447.847	-1431
447.918	-2299
447.989	-1386
448.060	-637
448.131	1012
448.202	1228
448.273	206
448.344	49
448.414	-533
448.485	-571
448.556	-570
448.627	-559
448.698	-693
448.768	-1447
448.839	-1318
448.910	-468
448.981	462
449.051	20
449.122	-768
449.193	-1428
449.263	-1571
449.334	-739
449.405	-888
449.475	-84
449.546	1069
449.616	882
449.687	709
449.758	100
449.828	-1491
449.899	-525
449.969	-727
450.040	-1675
450.110	-1443
450.181	-68
450.251	-498
450.322	-401
450.392	-709
450.463	-875
450.533	-1559
450.604	-510
450.674	-1708
450.744	-568
450.815	-1103
450.885	-337
450.955	-408
451.026	-851
451.096	-1122
451.166	-790
451.237	-103
451.307	4675
451.377	1681
451.447	-430
451.518	-1147
451.588	-310
451.658	-1064
451.728	279
451.799	3289
451.869	6318
451.939	489
452.009	-487
452.079	-1320
452.149	-163
452.219	163
452.289	4355
452.360	5369
452.430	1583
452.500	-492
452.570	448
452.640	2467
452.710	7154
452.780	11614
452.850	9351
452.920	5803
452.990	3209
453.060	1130
453.129	465
453.199	904
453.269	5806
453.339	19756
453.409	33752
453.479	24322
453.549	38574
453.619	40768
453.688	22604
453.758	3740
453.828	-253
453.898	6
453.968	-588
454.037	-525
454.087	-509
454.107	-572
454.168	-850
454.177	-971
454.247	-556
454.249	-497
454.316	-675
454.330	-300
454.386	833
454.411	1731
454.456	2308
454.492	4345
454.525	5899
454.574	3699
454.595	2773
454.655	1230
454.665	978
454.734	1562
454.736	1733
454.804	3686
454.817	4913
454.873	7335
454.898	8480
454.943	9529
454.979	6416
455.013	4127
455.060	2777
455.082	2660
455.141	3730
455.152	3791
455.221	9483
455.222	9848
455.291	18053
455.303	19589
455.360	24038
455.384	30410
455.430	36318
455.465	31994
455.499	28385
455.546	17639
455.569	12150
455.627	8162
455.638	7653
455.707	2964
455.708	3030
455.777	2146
455.789	2321
455.846	2743
455.869	2703
455.916	2550
455.950	2776
455.985	2778
456.031	2760
456.054	2624
456.112	2693
456.124	2685
456.193	2891
456.193	2825
456.262	3088
456.274	3384
456.332	4188
456.355	4227
456.401	3892
456.436	4013
456.470	3948
456.516	3063
456.540	2723
456.597	3234
456.609	3229
456.678	3179
456.678	3119
456.747	3319
456.759	3384
456.817	3581
456.840	3722
456.886	3742
456.920	4277
456.955	4742
457.001	4987
457.024	5028
457.082	5107
457.093	5122
457.162	6572
457.163	6640
457.232	7189
457.243	7250
457.301	6709
457.324	6415
457.370	6456
457.405	7307
457.439	7721
457.485	7302
457.508	7251
457.566	8671
457.577	9067
457.646	11773
457.647	11880
457.715	19880
457.727	21773
457.784	36540
457.808	44130
457.853	54489
457.889	64189
457.922	58748
457.969	47118
457.991	50304
458.050	57728
458.060	60985
458.129	91899
458.130	93052
458.198	88049
458.211	85782
458.267	55919
458.292	40282
458.336	31648
458.372	27492
458.405	33662
458.453	45402
458.474	58159
458.533	98208
458.543	102785
458.611	149155
458.614	151176
458.680	99147
458.694	84939
458.749	50718
458.775	34860
458.818	24543
458.855	19305
458.887	16957
458.936	15023
458.955	14447
459.016	12971
459.024	12877
459.093	12852
459.097	12887
459.162	12701
459.177	12731
459.230	12897
459.257	13206
459.299	13806
459.338	14376
459.368	15001
459.418	16403
459.437	15687
459.499	13140
459.505	13077
459.574	12344
459.579	12379
459.643	11997
459.659	11724
459.711	11911
459.740	12507
459.780	13012
459.820	13097
459.849	13213
459.900	13911
459.917	13865
459.981	14065
459.986	14054
460.054	13680
460.061	13710
460.123	14697
460.141	15064
460.191	16368
460.222	16951
460.260	17426
460.302	18504
460.328	18639
460.382	18860
460.397	19143
460.462	20071
460.465	20556
460.534	32897
460.543	34539
460.602	92271
460.623	112982
460.671	180265
460.703	229774
460.739	201097
460.783	165602
460.808	129633
460.864	31350
460.876	28584
460.944	17831
460.945	17726
461.013	16055
461.024	15823
461.081	15433
461.104	15393
461.150	15038
461.184	14895
461.218	14930
461.264	14666
461.286	14851
461.345	15315
461.355	15182
461.423	15358
461.425	15347
461.491	16065
461.505	16320
461.559	22213
461.585	24922
461.628	34275
461.665	42728
461.696	46948
461.745	55298
461.764	47817
461.825	21171
461.832	20969
461.901	16905
461.905	16815
461.969	16773
461.985	16778
462.037	16789
462.065	16571
462.105	17345
462.145	18456
462.173	22259
462.225	29423
462.241	31763
462.305	41444
462.310	40546
462.378	26300
462.385	24582
462.446	19733
462.465	18214
462.514	18273
462.545	18293
462.582	18344
462.625	18946
462.650	19093
462.705	19038
462.718	19205
462.785	19974
462.786	20037
462.854	23266
462.865	23850
462.922	27726
462.945	29168
462.990	24113
463.025	20151
463.058	19652
463.104	18371
463.126	18182
463.184	18430
463.194	18547
463.262	18786
463.264	18787
463.330	19454
463.344	19562
463.398	20842
463.424	21413
463.466	20743
463.504	20263
463.533	20655
463.583	20953
463.601	21202
463.663	22185
463.669	22415
463.737	24980
463.743	25174
463.805	32419
463.823	34456
463.873	47323
463.903	55249
463.940	59389
463.982	64331
464.008	53790
464.062	30497
464.076	29227
464.142	22125
464.144	22124
464.211	21742
464.221	21709
464.279	22479
464.301	22739
464.347	24244
464.381	25234
464.414	25891
464.461	26899
464.482	27717
464.540	29648
464.550	29212
464.617	25754
464.620	25596
464.685	27652
464.699	28077
464.753	31798
464.779	33582
464.820	37318
464.859	40682
464.888	39453
464.938	37191
464.956	37370
465.018	37738
465.023	37548
465.091	34285
465.098	33872
465.158	34110
465.177	34100
465.226	33905
465.257	33867
465.293	34266
465.336	34361
465.361	35312
465.416	37408
465.428	38920
465.495	46795
465.496	47003
465.563	66199
465.575	69461
465.631	83926
465.654	89956
465.698	63501
465.734	41256
465.765	38769
465.813	34461
465.833	34666
465.893	35634
465.900	35756
465.968	36098
465.972	36058
466.035	36354
466.052	36316
466.102	37282
466.131	37748
466.170	38468
466.210	39011
466.237	39460
466.290	40136
466.304	40630
466.369	42335
466.372	42463
466.439	43708
466.449	43781
466.506	45950
466.528	46642
466.573	53548
466.607	58560
466.641	73490
466.687	93998
466.708	103306
466.766	128448
466.775	121066
466.842	63527
466.845	60656
466.909	52581
466.925	50523
466.977	50314
467.004	50094
467.044	51707
467.083	53083
467.111	55979
467.163	61070
467.178	62599
467.242	68238
467.245	68087
467.312	61676
467.321	60682
467.379	60087
467.400	59672
467.446	62291
467.480	63936
467.559	58680
467.638	52488
467.717	52146
467.796	53053
467.875	55932
467.955	54910
468.034	65020
468.113	108922
468.192	156556
468.271	73027
468.350	59970
468.429	62240
468.508	63723
468.588	56367
468.667	52155
468.746	53382
468.825	51640
468.904	45223
468.983	47212
469.062	57546
469.141	66987
469.220	42757
469.299	40352
469.378	46533
469.456	53143
469.535	49715
469.614	47847
469.693	46728
469.772	52260
469.851	60834
469.930	51769
470.009	43125
470.088	41543
470.166	43208
470.245	42813
470.324	45843
470.403	45038
470.482	42331
470.560	40870
470.639	41854
470.718	44073
470.797	41338
470.875	44065
470.954	53553
471.033	58115
471.111	37638
471.190	37981
471.269	36111
471.347	36587
471.426	38371
471.505	43132
471.583	46961
471.662	44318
471.740	40615
471.819	40324
471.898	38675
471.976	39207
472.055	38362
472.133	43745
472.212	52294
472.290	51124
472.369	39722
472.447	37419
472.526	36138
472.604	38942
472.683	40468
472.761	39740
472.839	37575
472.918	36727
472.996	36750
473.075	39698
473.153	39812
473.231	36210
473.310	38578
473.388	39830
473.466	36919
473.545	40556
473.623	45093
473.701	43793
473.780	38308
473.858	39479
473.936	41401
474.014	37917
474.093	41539
474.171	50884
474.249	60252
474.327	46967
474.405	36223
474.484	35701
474.562	35925
474.640	36596
474.718	38168
474.796	41232
474.874	39795
474.952	37681
475.030	38160
475.108	40457
475.187	44287
475.265	47987
475.343	60751
475.421	69719
475.499	42566
475.577	40329
475.655	42718
475.733	60754
475.811	91472
475.889	84836
475.966	68531
476.044	40413
476.122	46105
476.200	56700
476.278	47702
476.356	35674
476.434	38075
476.512	42474
476.590	53223
476.667	49254
476.745	34362
476.823	35337
476.901	34992
476.979	34394
477.056	33770
477.134	36173
477.212	37349
477.290	35413
477.367	32381
477.445	33505
477.523	32779
477.601	32199
477.678	32629
477.756	35786
477.834	39799
477.911	33132
477.989	32997
478.066	32872
478.144	37143
478.222	43303
478.299	63825
478.377	67774
478.454	37774
478.532	31697
478.609	32708
478.687	33353
478.764	30571
478.842	32122
478.919	33079
478.997	31014
479.074	30222
479.152	33181
479.229	37866
479.307	31505
479.384	29632
479.461	28944
479.539	30264
479.616	34542
479.694	31273
479.771	32458
479.848	33413
479.926	39495
480.003	42267
480.080	29828
480.157	29991
480.235	28573
480.312	29570
480.389	33006
480.467	41142
480.544	49393
480.621	36274
480.698	33576
480.775	36000
480.853	35697
480.930	33822
481.007	34432
481.084	42347
481.161	55819
481.238	45203
481.315	32397
481.392	31337
481.470	31951
481.547	33365
481.624	32975
481.701	32461
481.778	33290
481.855	34840
481.932	42381
482.009	60664
482.086	51588
482.163	36749
482.240	47416
482.317	76770
482.393	67883
482.470	35725
482.547	34352
482.624	33406
482.701	33255
482.778	34054
482.855	31522
482.932	31905
483.009	31479
483.085	37456
483.162	46851
483.239	44516
483.316	34511
483.393	32598
483.469	31908
483.546	34359
483.623	36267
483.699	31780
483.776	33111
483.853	35764
483.930	44279
484.006	79374
484.083	132295
484.160	91321
484.236	130697
484.313	107393
484.389	84737
484.466	75478
484.543	74471
484.619	75352
484.696	75500
484.772	76558
484.849	78359
484.925	69679
485.002	67390
485.078	70983
485.155	73093
485.231	65946
485.308	64914
485.384	64892
485.461	71143
485.537	92421
485.614	108488
485.690	64359
485.766	58924
485.843	61138
485.919	67990
485.995	71796
486.072	58121
486.148	57975
486.224	56513
486.301	58381
486.377	64713
486.453	67531
486.530	65376
486.606	79443
486.682	90367
486.758	92324
486.835	102363
486.911	87596
486.987	111566
487.063	108205
487.139	120862
487.215	108895
487.292	82089
487.368	73762
487.444	83636
487.520	102332
487.596	122218
487.672	165134
487.748	357328
487.824	595887
487.900	338740
487.976	139220
488.052	96615
488.128	92826
488.204	76210
488.280	65354
488.356	71345
488.432	99380
488.508	141469
488.584	70243
488.660	56285
488.736	55606
488.812	56389
488.888	64923
488.964	70897
489.039	97534
489.115	138862
489.191	105595
489.267	60781
489.343	56280
489.418	50467
489.494	50183
489.570	47937
489.646	51064
489.722	49921
489.797	51594
489.873	61397
489.949	104601
490.024	99614
490.100	48164
490.176	49396
490.251	50638
490.327	56708
490.403	46251
490.478	47307
490.554	42230
490.629	44612
490.705	41809
490.781	45628
490.856	43032
490.932	47720
491.007	44092
491.083	47509
491.158	43642
491.234	50722
491.309	81219
491.385	89615
491.460	45171
491.536	46086
491.611	43188
491.686	42373
491.762	49317
491.837	65686
491.913	100886
491.988	121305
492.063	156251
492.139	71708
492.214	54636
492.289	39324
492.365	36536
492.440	42549
492.515	40256
492.590	42910
492.666	35510
492.741	42340
492.816	55954
492.891	41103
492.967	37860
493.042	36840
493.117	41825
493.192	41506
493.267	59075
493.342	147415
493.418	219783
493.493	58433
493.568	34843
493.643	35681
493.718	39009
493.793	45495
493.868	50029
493.943	37760
494.018	35808
494.093	33914
494.168	33974
494.243	33247
494.318	31203
494.393	31525
494.468	32392
494.543	30730
494.618	33510
494.693	32529
494.768	31930
494.842	35197
494.917	30119
494.992	33331
495.067	31449
495.142	32511
495.217	34038
495.292	32657
495.366	37394
495.441	43361
495.516	47984
495.591	54046
495.665	105329
495.740	233148
495.815	129552
495.890	49490
495.964	42399
496.039	47404
496.114	48069
496.188	61518
496.263	58125
496.338	44166
496.412	45894
496.487	51928
496.561	49050
496.636	52472
496.710	48222
496.785	51999
496.860	56285
496.934	49565
497.009	50133
497.083	51934
497.158	54153
497.232	57779
497.307	66274
497.381	65391
497.455	68900
497.530	81758
497.604	73071
497.679	75977
497.753	94827
497.827	116338
497.902	115589
497.976	125028
498.050	177802
498.125	493356
498.199	561334
498.273	149043
498.348	124250
498.422	115380
498.496	108571
498.570	101284
498.645	90950
498.719	85950
498.793	86774
498.867	100997
498.941	115642
499.016	209343
499.090	541897
499.164	234973
499.238	62788
499.312	54742
499.386	60085
499.460	57412
499.534	53130
499.609	57490
499.683	73022
499.757	68540
499.831	103018
499.905	343728
499.979	370108
500.053	77427
500.127	71002
500.201	54301
500.275	45574
500.349	43852
500.422	48092
500.496	55770
500.570	84936
500.644	190508
500.718	394334
500.792	109144
500.866	44129
500.940	51592
501.013	45856
501.087	44235
501.161	61778
501.235	74926
501.309	125986
501.382	337827
501.456	321822
501.530	79905
501.603	132634
501.677	63056
501.751	37324
501.825	40628
501.898	59539
501.972	150801
502.046	110053
502.119	41197
502.193	68936
502.266	162919
502.340	91006
502.413	74889
502.487	142755
502.561	88623
502.634	40774
502.708	33343
502.781	31188
502.855	28953
502.928	28249
503.002	29032
503.075	28468
503.149	30694
503.222	30937
503.295	33589
503.369	38749
503.442	46367
503.516	103693
503.589	267540
503.662	191527
503.736	72789
503.809	138185
503.882	129451
503.956	173231
504.029	196160
504.102	193898
504.175	278188
504.249	157183
504.322	85273
504.395	58785
504.468	42106
504.542	37524
504.615	32279
504.688	30067
504.761	27954
504.834	30815
504.907	31508
504.980	41741
505.053	30893
505.127	33248
505.200	37536
505.273	36660
505.346	29053
505.419	26061
505.492	24365
505.565	21436
505.638	22930
505.711	22497
505.784	23160
505.857	21659
505.930	23664
506.003	23437
506.076	25870
506.149	28715
506.221	35527
506.294	31837
506.367	58993
506.440	189866
506.513	112546
506.586	35935
506.659	26041
506.731	23188
506.804	24526
506.877	29811
506.950	27038
507.022	21707
507.095	26946
507.168	30167
507.241	23840
507.313	20478
507.386	22565
507.459	24873
507.531	21102
507.604	20051
507.677	21432
507.749	20573
507.822	25435
507.894	39255
507.967	54383
508.040	37955
508.112	33440
508.185	31538
508.257	30438
508.330	36046
508.402	30598
508.475	30894
508.547	31791
508.620	29579
508.692	41660
508.765	31407
508.837	27798
508.909	26560
508.982	26369
509.054	27407
509.127	25777
509.199	25608
509.271	25852
509.344	24415
509.416	25585
509.488	25443
509.560	25981
509.633	26254
509.705	28026
509.777	29299
509.849	33308
509.922	30792
509.994	28227
510.066	28664
510.138	30604
510.210	50887
510.283	48105
510.355	41610
510.427	36134
510.499	33644
510.571	32665
510.643	32981
510.715	40764
510.787	38655
510.859	33432
510.931	35632
511.003	40994
511.076	39987
511.148	31647
511.219	32067
511.291	42318
511.363	48192
511.435	32891
511.507	30332
511.579	31197
511.651	29948
511.723	29123
511.795	28166
511.867	29720
511.939	30876
512.010	46818
512.082	43573
512.154	29204
512.226	30259
512.298	39341
512.369	54164
512.441	42176
512.513	37854
512.585	34200
512.656	35041
512.728	37594
512.800	31341
512.871	29614
512.943	30351
513.015	28183
513.086	30404
513.158	30626
513.230	30017
513.301	34970
513.373	35145
513.444	31323
513.516	30029
513.588	28737
513.659	29167
513.731	32751
513.802	29825
513.874	40041
513.945	58422
514.016	35540
514.088	28967
514.159	29989
514.231	35067
514.302	46971
514.374	39109
514.445	37560
514.516	55615
514.588	48573
514.659	37058
514.730	56132
514.802	46802
514.873	47111
514.944	51197
515.016	45913
515.087	45151
515.158	48979
515.229	62726
515.301	50447
515.372	67836
515.443	57457
515.514	46311
515.585	38806
515.656	35446
515.728	32720
515.799	30341
515.870	32613
515.941	31488
516.012	31952
516.083	37530
516.154	39269
516.225	38576
516.296	38922
516.367	36045
516.438	38874
516.509	42449
516.580	51326
516.651	95950
516.722	306833
516.793	181265
516.864	59487
516.935	57137
517.006	58730
517.077	68574
517.148	117233
517.219	279531
517.289	517080
517.360	247213
517.431	102166
517.502	43572
517.573	40016
517.643	39467
517.714	45228
517.785	44342
517.856	42653
517.926	48478
517.997	51833
518.068	56995
518.138	67812
518.209	82894
518.280	197375
518.350	693355
518.421	359552
518.492	83814
518.562	72522
518.633	82137
518.703	100481
518.774	165021
518.845	320949
518.915	317200
518.986	142204
519.056	86086
519.127	83332
519.197	99171
519.268	205977
519.338	151490
519.408	53901
519.479	52678
519.549	42842
519.620	36530
519.690	32617
519.760	33967
519.831	32157
519.901	32749
519.971	30747
520.042	33891
520.112	35488
520.182	36175
520.253	37638
520.323	33963
520.393	40237
520.463	55301
520.534	41448
520.604	71883
520.674	42521
520.744	41777
520.814	75530
520.885	71516
520.955	69903
521.025	233583
521.095	106661
521.165	34911
521.235	31144
521.305	29275
521.375	27870
521.445	30412
521.515	33095
521.585	35986
521.655	34710
521.725	31956
521.795	30978
521.865	27253
521.935	36519
522.005	35389
522.075	26694
522.145	30792
522.215	33155
522.285	38533
522.355	43640
522.424	68629
522.494	66521
522.564	40211
522.634	49712
522.704	122918
522.774	61992
522.843	29838
522.913	29376
522.983	31262
523.053	28361
523.122	28766
523.192	31163
523.262	60383
523.331	68729
523.401	31265
523.471	24880
523.540	26637
523.610	23940
523.680	24639
523.749	26145
523.819	30855
523.888	33567
523.958	26078
524.027	26049
524.097	28553
524.166	26192
524.236	25775
524.305	28696
524.375	24128
524.444	25299
524.514	28642
524.583	28200
524.653	30864
524.722	32256
524.791	27046
524.861	27618
524.930	25578
524.999	25532
525.069	31642
525.138	30380
525.207	33009
525.277	29367
525.346	29093
525.415	30377
525.484	30551
525.554	35701
525.623	38156
525.692	43267
525.761	46218
525.830	51408
525.900	62454
525.969	90245
526.038	143958
526.107	253657
526.176	722455
526.245	654283
526.314	219410
526.383	372883
526.452	546970
526.522	722605
526.591	804586
526.660	197571
526.729	120133
526.797	124248
526.867	178795
526.935	543663
527.004	1212644
527.073	886481
527.142	148491
527.211	68921
527.280	50111
527.349	44169
527.418	33397
527.487	31780
527.555	29158
527.624	27862
527.693	25868
527.762	27494
527.831	25473
527.899	25581
527.968	25763
528.037	24336
528.106	26625
528.174	32400
528.243	33114
528.312	35451
528.380	42948
528.449	27367
528.518	25174
528.586	21197
528.655	22644
528.723	22468
528.792	23412
528.861	25035
528.929	22604
528.998	25670
529.066	30747
529.135	45846
529.203	42060
529.272	52671
529.340	64381
529.409	57638
529.477	54679
529.545	57158
529.614	61386
529.682	69774
529.751	77616
529.819	78575
529.887	87654
529.956	78324
530.024	73565
530.092	69552
530.161	68683
530.229	74169
530.297	79011
530.365	73556
530.434	79008
530.502	81707
530.570	72080
530.638	64983
530.707	62990
530.775	60875
530.843	60743
530.911	70047
530.979	65124
531.047	76964
531.115	75048
531.183	67416
531.252	64952
531.320	62598
531.388	62370
531.456	70089
531.524	72558
531.592	74909
531.660	84221
531.728	76757
531.796	73979
531.864	72174
531.932	75283
532.000	72269
532.067	79434
532.135	83478
532.203	86031
532.271	95392
532.339	95508
532.407	114306
532.475	101723
532.542	88428
532.610	86719
532.678	97171
532.746	152868
532.814	303415
532.881	135590
532.949	90062
533.017	82372
533.084	78340
533.152	76460
533.220	75928
533.287	78888
533.355	81986
533.423	79728
533.490	82501
533.558	79530
533.625	77180
533.693	75102
533.761	74911
533.828	72432
533.896	73006
533.963	86559
534.031	92777
534.098	107875
534.166	87683
534.233	78634
534.300	76263
534.368	76031
534.435	72315
534.503	73495
534.570	79557
534.637	82710
534.705	88569
534.772	92570
534.840	116209
534.907	331400
534.974	460992
535.041	102752
535.109	71695
535.176	62267
535.243	63640
535.310	61454
535.378	61923
535.445	56986
535.512	55028
535.579	54285
535.646	53151
535.714	53963
535.781	57985
535.848	58156
535.915	60466
535.982	62232
536.049	61895
536.116	59063
536.183	54237
536.250	52653
536.317	51092
536.384	51911
536.451	52615
536.518	54865
536.585	51052
536.652	57207
536.719	58011
536.786	52599
536.853	49821
536.920	54844
536.987	60009
537.053	59652
537.120	137608
537.187	133195
537.254	50025
537.321	46395
537.388	47724
537.454	42321
537.521	41138
537.588	41771
537.654	43844
537.721	45852
537.788	45558
537.855	42086
537.921	43129
537.988	43519
538.055	41790
538.121	38690
538.188	37677
538.254	41367
538.321	47845
538.388	43643
538.454	40351
538.521	38939
538.587	39757
538.654	39706
538.720	38188
538.787	38461
538.853	38420
538.920	38878
538.986	38486
539.053	36899
539.119	36558
539.185	36470
539.252	39944
539.318	44736
539.385	45650
539.451	45525
539.517	44293
539.583	41685
539.650	57579
539.716	112407
539.782	49304
539.849	35732
539.915	36921
539.981	36632
540.047	38367
540.114	37329
540.180	37926
540.246	38060
540.312	41165
540.378	48272
540.444	49562
540.510	54283
540.576	119447
540.643	55758
540.709	36508
540.775	36418
540.841	35981
540.907	38725
540.973	48330
541.039	41133
541.105	40177
541.171	36536
541.237	35660
541.303	35749
541.369	38111
541.435	38346
541.500	43096
541.566	36688
541.632	32575
541.698	32371
541.764	32627
541.830	31806
541.896	32697
541.961	33334
542.027	35106
542.093	34848
542.159	36092
542.224	35043
542.290	41336
542.356	43513
542.421	44865
542.487	36866
542.553	34459
542.618	37654
542.684	33142
542.750	34000
542.815	36168
542.881	44828
542.947	99524
543.012	82237
543.078	33744
543.143	32107
543.209	33622
543.274	33151
543.340	36599
543.405	50581
543.471	73059
543.536	35235
543.602	34009
543.667	31725
543.732	32673
543.798	30811
543.863	33661
543.928	32200
543.994	30623
544.059	31253
544.124	32809
544.190	31657
544.255	33703
544.320	33462
544.386	33707
544.451	37385
544.516	38023
544.581	38169
544.646	68830
544.712	101481
544.777	40429
544.842	37795
544.907	39545
544.972	36500
545.037	37413
545.102	40188
545.168	38695
545.233	40790
545.298	41347
545.363	43535
545.428	45991
545.493	52846
545.558	88976
545.623	53666
545.688	41471
545.753	40675
545.818	41733
545.883	43214
545.947	41934
546.012	43524
546.077	44874
546.142	44864
546.207	46089
546.272	47919
546.337	49973
546.401	48967
546.466	50223
546.531	48835
546.596	53806
546.661	53651
546.725	54076
546.790	55404
546.855	58912
546.919	61285
546.984	67228
547.049	71747
547.113	80916
547.178	84509
547.243	93920
547.307	105465
547.372	117246
547.436	118955
547.501	119327
547.565	127888
547.630	120782
547.695	117033
547.759	119096
547.823	118104
547.888	116777
547.952	120786
548.017	125768
548.081	136478
548.146	136732
548.210	131982
548.274	136828
548.339	133889
548.403	122021
548.468	116813
548.532	115010
548.596	117763
548.660	117898
548.725	128195
548.789	138734
548.853	136317
548.917	129805
548.982	130862
549.046	122542
549.110	106206
549.174	106825
549.238	121640
549.303	131197
549.367	135122
549.431	130627
549.495	124411
549.559	124199
549.623	141360
549.687	156135
549.751	156801
549.815	177274
549.879	178007
549.943	168936
550.007	177554
550.071	178460
550.135	166171
550.199	155162
550.263	153039
550.327	145605
550.391	156070
550.455	166950
550.519	170139
550.582	178358
550.646	206570
550.710	210074
550.774	199469
550.838	204168
550.901	207514
550.965	222288
551.029	231407
551.093	248157
551.156	267624
551.220	297707
551.284	298774
551.347	245492
551.411	251818
551.475	253822
551.538	218407
551.602	199391
551.666	188629
551.729	177561
551.793	173122
551.856	172584
551.920	169796
551.983	170707
552.047	166424
552.110	167004
552.174	169863
552.237	171665
552.301	160778
552.364	156536
552.428	151057
552.491	156428
552.554	158010
552.618	157683
552.681	160683
552.745	154801
552.808	161379
552.871	172903
552.934	167071
552.998	159156
553.061	158157
553.124	153705
553.187	154301
553.251	161836
553.314	165545
553.377	166904
553.440	193536
553.503	307463
553.567	434888
553.630	195504
553.693	167768
553.756	164810
553.819	159840
553.882	154391
553.945	153818
554.008	153101
554.071	152643
554.134	156476
554.197	148568
554.260	144337
554.323	147488
554.386	148872
554.449	154164
554.512	154697
554.575	146625
554.638	145826
554.701	145502
554.764	144012
554.827	138718
554.889	135173
554.952	127016
555.015	127181
555.078	126509
555.141	130887
555.203	125396
555.266	125430
555.329	126392
555.391	121054
555.454	118684
555.517	117295
555.580	112473
555.642	108963
555.705	107548
555.768	105773
555.830	105441
555.893	99644
555.955	98481
556.018	96025
556.080	96683
556.143	99804
556.206	96548
556.268	96480
556.330	94690
556.393	92444
556.455	90894
556.518	94362
556.580	93107
556.643	83562
556.705	83025
556.767	81389
556.830	79646
556.892	79544
556.955	81893
557.017	78926
557.079	75893
557.142	74305
557.204	75192
557.266	82789
557.328	78472
557.391	66819
557.453	66109
557.515	66748
557.577	69359
557.639	67992
557.701	66998
557.764	68257
557.826	69364
557.888	74525
557.950	75669
558.012	81503
558.074	98027
558.136	183923
558.198	443306
558.260	187916
558.322	84634
558.384	82213
558.446	88195
558.508	97035
558.570	112504
558.632	135679
558.694	171663
558.756	237860
558.818	575410
558.880	1271943
558.942	582756
559.003	483484
559.065	268928
559.127	118453
559.189	112358
559.251	120050
559.312	155934
559.374	315104
559.436	932572
559.498	558393
559.559	141677
559.621	115378
559.683	120809
559.744	179176
559.806	482137
559.868	762662
559.929	199931
559.991	121633
560.052	160346
560.114	416217
560.176	298093
560.237	235933
560.299	402600
560.360	112789
560.422	56931
560.483	50936
560.545	45966
560.606	44581
560.667	43113
560.729	41731
560.790	40652
560.852	40934
560.913	39705
560.974	39251
561.036	39190
561.097	38524
561.158	37803
561.220	38904
561.281	37353
561.342	37493
561.403	39530
561.465	40631
561.526	52600
561.587	63244
561.648	40159
561.709	36555
561.771	34968
561.832	35107
561.893	34925
561.954	34795
562.015	34509
562.076	34380
562.137	34923
562.198	33638
562.259	33736
562.320	34654
562.381	35230
562.442	38644
562.503	36370
562.564	34421
562.625	33035
562.686	32889
562.747	34636
562.808	33921
562.869	33653
562.930	37901
562.991	36598
563.051	35696
563.112	33158
563.173	33523
563.234	31720
563.294	33674
563.355	32030
563.416	32348
563.477	31768
563.537	32084
563.598	33774
563.659	32916
563.720	31408
563.780	32775
563.841	33240
563.901	32870
563.962	32167
564.023	32932
564.083	31961
564.144	32717
564.204	31796
564.265	32938
564.325	34331
564.386	44688
564.446	43667
564.507	33144
564.567	31944
564.628	32993
564.688	32111
564.749	33161
564.809	33592
564.869	35621
564.930	33604
564.990	33349
565.050	32628
565.111	32666
565.171	31764
565.231	32165
565.292	32728
565.352	31873
565.412	33327
565.472	33477
565.532	33928
565.593	32786
565.653	33164
565.713	34037
565.773	35125
565.833	36140
565.893	38788
565.953	36009
566.013	34351
566.074	36980
566.134	41115
566.194	47321
566.254	49383
566.314	43116
566.374	39835
566.434	42417
566.494	41695
566.554	43702
566.614	44544
566.673	45826
566.733	47510
566.793	49562
566.853	50701
566.913	51628
566.973	53207
567.033	53004
567.092	52121
567.152	52181
567.212	53441
567.272	53621
567.331	56119
567.391	57549
567.451	58452
567.511	61537
567.570	63205
567.630	55346
567.690	53424
567.749	54999
567.809	57625
567.868	62954
567.928	69433
567.988	77104
568.047	86890
568.107	102043
568.166	125417
568.226	170709
568.285	223385
568.345	220326
568.404	197947
568.464	180967
568.523	173283
568.582	174135
568.642	183526
568.701	209741
568.761	263663
568.820	356613
568.879	378088
568.939	326735
568.998	269261
569.057	224909
569.116	190537
569.176	161083
569.235	138512
569.294	123562
569.353	108226
569.413	96765
569.472	88527
569.531	79866
569.590	73654
569.649	69408
569.708	63324
569.767	60973
569.827	60949
569.886	55125
569.945	50963
570.004	49975
570.063	47502
570.122	46780
570.181	45609
570.240	45863
570.299	44718
570.358	44572
570.417	40222
570.475	39589
570.534	39213
570.593	38016
570.652	38361
570.711	39286
570.770	36757
570.829	37989
570.887	35187
570.946	36534
571.005	33950
571.064	34526
571.122	34525
571.181	35388
571.240	32068
571.299	32085
571.357	32063
571.416	33586
571.475	34452
571.533	35102
571.592	31974
571.650	33248
571.709	31659
571.768	31710
571.826	32435
571.885	31983
571.943	30702
572.002	30726
572.060	30365
572.119	29215
572.177	28917
572.236	29340
572.294	28291
572.352	28644
572.411	29661
572.469	29795
572.528	28802
572.586	28663
572.644	30223
572.703	32813
572.761	30755
572.819	28656
572.877	27968
572.936	27247
572.994	27041
573.052	26943
573.110	27557
573.169	26603
573.227	26696
573.285	27300
573.343	27626
573.401	27512
573.459	27647
573.517	27082
573.576	28062
573.634	27112
573.692	27401
573.750	27431
573.808	26590
573.866	27803
573.924	29168
573.982	29402
574.040	26342
574.098	26968
574.155	24789
574.213	25995
574.271	25159
574.329	27370
574.387	25720
574.445	26683
574.503	24685
574.560	24398
574.618	25167
574.676	24377
574.734	24103
574.792	25071
574.849	25326
574.907	23488
574.965	23429
575.022	23242
575.080	23884
575.138	23191
575.195	23847
575.253	23943
575.311	24205
575.368	23555
575.426	23241
575.483	22564
575.541	24089
575.598	23862
575.656	23509
575.713	24907
575.771	24205
575.828	24111
575.886	23848
575.943	25607
576.001	23879
576.058	24107
576.115	24899
576.173	26692
576.230	28126
576.287	26791
576.345	26102
576.402	25045
576.459	24823
576.517	25242
576.574	25634
576.631	25045
576.688	23998
576.746	25030
576.803	24216
576.860	23538
576.917	25009
576.974	25167
577.031	24631
577.089	25317
577.146	23581
577.203	24153
577.260	24470
577.317	25274
577.374	25224
577.431	24542
577.488	24843
577.545	24987
577.602	24490
577.659	25978
577.716	25990
577.773	28713
577.830	28333
577.886	26515
577.943	26492
578.000	26065
578.057	26055
578.114	28011
578.171	30059
578.227	33620
578.284	34949
578.341	32611
578.398	30290
578.454	29755
578.511	27547
578.568	27966
578.625	26873
578.681	26403
578.738	26105
578.794	25908
578.851	26878
578.908	26266
578.964	26823
579.021	26608
579.077	26233
579.134	26144
579.190	25423
579.247	25689
579.303	24454
579.360	25872
579.416	24992
579.473	25636
579.529	25502
579.586	26159
579.642	27396
579.698	27071
579.755	28092
579.811	28287
579.867	27442
579.924	29667
579.980	30657
580.036	33004
580.093	36677
580.149	44648
580.205	50265
580.261	43969
580.317	38537
580.374	37606
580.430	35347
580.486	34227
580.542	32496
580.598	31972
580.619	31895
580.654	31815
580.692	31201
580.710	30972
580.765	30890
580.767	30937
580.823	31207
580.838	31335
580.879	31857
580.911	30946
580.935	30361
580.984	29992
580.991	29994
581.047	31780
581.057	31882
581.103	32534
581.130	32518
581.159	32624
581.203	34925
581.215	35593
581.270	35825
581.276	35601
581.326	33922
581.349	33635
581.382	33306
581.422	33184
581.438	33195
581.494	32868
581.494	32815
581.550	31179
581.567	31719
581.606	32976
581.640	32784
581.661	32779
581.713	33598
581.717	33696
581.773	31563
581.786	31587
581.829	31760
581.859	32564
581.885	33367
581.932	33121
581.940	33097
581.996	33884
582.004	33766
582.052	33321
582.077	33082
582.107	32891
582.150	33076
582.163	33175
582.219	33134
582.223	33212
582.274	34436
582.296	34181
582.330	33784
582.368	34321
582.386	34668
582.441	34660
582.441	34682
582.497	33721
582.514	34447
582.552	36334
582.587	36915
582.608	37209
582.659	36516
582.663	36487
582.719	35690
582.732	35660
582.774	35749
582.805	36491
582.830	37085
582.877	38132
582.885	38308
582.941	39124
582.950	39693
582.996	42583
583.023	43824
583.052	45460
583.095	46951
583.107	47262
583.162	46044
583.168	46101
583.218	46639
583.240	45079
583.273	42956
583.313	41047
583.328	40293
583.384	39506
583.385	39463
583.439	38104
583.458	37534
583.494	36665
583.531	35980
583.549	35558
583.603	36482
583.605	36504
583.660	34679
583.676	34869
583.715	35375
583.748	35352
583.770	35284
583.820	35685
583.825	35706
583.881	34608
583.893	34520
583.936	34305
583.965	34352
583.991	34399
584.038	34614
584.046	34585
584.101	34988
584.110	35038
584.156	35289
584.183	35116
584.211	34825
584.255	35113
584.266	35184
584.321	35713
584.328	35782
584.376	36181
584.400	36175
584.431	36013
584.472	36579
584.486	36676
584.541	37029
584.545	37075
584.596	37212
584.617	36995
584.651	36783
584.689	37107
584.706	37118
584.761	38537
584.762	38578
584.816	37998
584.834	38093
584.871	38144
584.906	38895
584.926	39251
584.978	39291
584.980	39241
585.035	40476
585.051	40818
585.090	41256
585.123	42185
585.145	42771
585.195	43597
585.200	43612
585.254	46595
585.267	47498
585.309	50030
585.340	53466
585.364	55868
585.412	58081
585.419	58331
585.473	62234
585.484	63990
585.528	70612
585.556	79574
585.583	88820
585.628	120557
585.637	127606
585.692	219821
585.700	242064
585.747	356741
585.772	302570
585.801	229769
585.845	118528
585.856	92562
585.910	64382
585.917	63004
585.965	54396
585.989	52455
586.019	49829
586.061	48738
586.074	48366
586.128	46983
586.133	47166
586.183	47187
586.205	46633
586.237	45609
586.277	46155
586.292	46225
586.346	45504
586.349	45671
586.401	46034
586.421	46517
586.455	46868
586.493	47727
586.509	47907
586.564	50013
586.565	50315
586.618	56248
586.637	56738
586.672	56557
586.709	53120
586.727	51291
586.781	53151
586.781	52962
586.835	52486
586.853	52425
586.889	51539
586.925	51808
586.944	51799
586.996	52657
586.998	52465
587.052	54743
587.068	55356
587.106	55799
587.140	56522
587.161	56620
587.212	58572
587.215	58383
587.269	60660
587.284	61336
587.323	62125
587.356	63880
587.377	64593
587.427	67094
587.431	66940
587.485	69631
587.499	71040
587.539	73369
587.571	75288
587.593	76044
587.643	80716
587.648	80738
587.702	84746
587.715	86682
587.755	89777
587.786	92343
587.810	93875
587.858	101163
587.864	101265
587.917	108432
587.930	110800
587.971	116151
588.001	122888
588.025	126656
588.073	136020
588.079	136290
588.133	148762
588.145	153263
588.187	164876
588.217	175163
588.241	181557
588.288	201783
588.295	202931
588.348	225357
588.360	232946
588.402	254534
588.431	274895
588.456	288503
588.503	323748
588.510	326123
588.564	371672
588.575	385249
588.617	424740
588.646	461817
588.671	489323
588.718	552845
588.725	559137
588.778	633802
588.789	647455
588.832	705298
588.861	719949
588.886	743719
588.932	746896
588.939	734467
588.993	701999
589.004	734409
589.047	761965
589.075	771348
589.100	762360
589.147	668681
589.154	657095
589.207	570257
589.218	558982
589.261	512942
589.290	501139
589.314	489428
589.361	499632
589.368	498888
589.421	546027
589.433	558450
589.475	622607
589.504	642791
589.528	658036
589.576	676070
589.582	656623
589.635	654259
589.647	652953
589.689	591637
589.718	499881
589.742	450798
589.790	353182
589.795	340209
589.849	270641
589.861	260670
589.902	220196
589.932	200306
589.955	181715
590.004	156126
590.009	151448
590.062	129742
590.075	126996
590.115	112422
590.146	106032
590.168	98967
590.218	89048
590.222	86776
590.275	77626
590.289	76518
590.328	69837
590.360	67169
590.381	63403
590.431	58912
590.435	57607
590.488	52993
590.503	52610
590.541	48768
590.574	47494
590.594	45180
590.645	42231
590.647	41339
590.700	39187
590.716	39137
590.753	36361
590.787	35557
590.806	34290
590.859	33304
590.859	32612
590.912	30174
590.930	30032
590.965	28114
591.001	27604
591.018	26463
591.071	24764
591.072	25316
591.124	24022
591.143	24322
591.177	22579
591.214	21767
591.230	20976
591.283	20743
591.285	21214
591.336	19972
591.356	20322
591.389	19592
591.427	19656
591.442	18681
591.495	16818
591.498	17150
591.547	16135
591.569	16267
591.600	15206
591.640	14858
591.653	14425
591.706	14455
591.711	14902
591.759	13757
591.782	13680
591.811	12907
591.853	13007
591.864	12586
591.917	12509
591.924	12888
591.969	11810
591.995	11859
592.022	11124
592.066	11032
592.075	10649
592.127	10690
592.137	11108
592.180	10583
592.208	10868
592.233	10083
592.279	9645
592.285	9226
592.338	9064
592.350	9398
592.390	8708
592.421	8889
592.443	8226
592.491	7974
592.495	7568
592.548	7179
592.562	7446
592.600	6899
592.633	7128
592.653	6628
592.704	6263
592.705	6306
592.775	7181
592.846	6773
592.916	5803
592.987	6470
593.058	5566
593.128	6684
593.199	6482
593.270	6326
593.341	6017
593.411	6441
593.482	6589
593.553	6495
593.623	5699
593.694	6983
593.764	6336
593.835	6762
593.906	6324
593.976	6256
594.047	6073
594.117	7218
594.188	7540
594.258	6670
594.329	7123
594.399	6812
594.470	6884
594.540	7281
594.611	7447
594.681	7003
594.751	6608
594.822	8228
594.892	7667
594.963	7795
595.033	7235
595.103	8052
595.174	7992
595.244	8288
595.314	9707
595.384	8395
595.455	7595
595.525	8746
595.595	8361
595.665	8202
595.736	8968
595.806	8573
595.876	9203
595.946	9028
596.016	8898
596.087	8634
596.157	8949
596.227	9393
596.297	9975
596.367	9403
596.437	10568
596.507	11797
596.577	11979
596.647	10845
596.717	10981
596.787	10749
596.857	10773
596.927	11901
596.997	11307
597.067	12349
597.137	13148
597.207	12277
597.277	11434
597.347	11636
597.417	11551
597.487	11198
597.557	12349
597.626	11899
597.696	12583
597.766	12283
597.836	12337
597.906	11454
597.975	10755
598.045	10070
598.115	11006
598.185	11421
598.254	12420
598.324	14538
598.394	13582
598.464	13844
598.533	14474
598.603	12778
598.672	13409
598.742	13172
598.812	12739
598.881	13076
598.951	13082
599.020	13092
599.090	13673
599.159	15158
599.229	14389
599.299	12726
599.368	13520
599.437	13493
599.507	12792
599.576	12405
599.646	12624
599.715	12894
599.785	11742
599.854	11314
599.924	11421
599.993	11574
600.062	12108
600.132	11752
600.201	11967
600.270	14282
600.340	14499
600.409	14605
600.478	15542
600.547	14785
600.617	13497
600.686	12190
600.755	11309
600.824	10141
600.894	11088
600.963	10052
601.032	10070
601.101	9491
601.170	9781
601.239	9794
601.308	10511
601.378	10204
601.447	10395
601.516	9666
601.585	9806
601.654	10981
601.723	11013
601.792	10748
601.861	11029
601.930	12574
601.999	11734
602.068	10582
602.137	12412
602.206	12850
602.275	11944
602.343	12348
602.412	12792
602.481	12201
602.550	12381
602.619	12487
602.688	12403
602.756	12900
602.825	13824
602.894	13253
602.963	12361
603.032	13607
603.100	13066
603.169	13516
603.238	13179
603.307	12356
603.375	14094
603.444	13691
603.513	13682
603.581	13823
603.650	15148
603.719	13072
603.787	12804
603.856	13920
603.924	12856
603.993	13723
604.061	14359
604.130	14899
604.198	15956
604.267	15149
604.335	15831
604.404	16440
604.472	16119
604.541	17257
604.609	17189
604.678	17451
604.746	16854
604.815	18288
604.883	17316
604.951	18216
605.020	18028
605.088	18335
605.156	17751
605.225	18488
605.293	18091
605.361	17872
605.429	18756
605.498	18949
605.566	19625
605.634	19789
605.702	19999
605.771	20914
605.839	20802
605.907	21424
605.975	19456
606.043	19662
606.111	19677
606.180	19468
606.248	18623
606.316	19631
606.384	18287
606.452	18716
606.520	18058
606.588	19059
606.656	19093
606.724	18510
606.792	18018
606.860	15663
606.928	13690
606.996	13392
607.064	13233
607.132	12759
607.200	14020
607.267	14433
607.335	15681
607.403	15843
607.471	15566
607.539	14316
607.607	15657
607.674	14382
607.742	12721
607.810	12012
607.878	13787
607.946	13573
608.013	13301
608.081	14068
608.149	13963
608.216	14538
608.284	15773
608.352	14690
608.419	14404
608.487	15516
608.555	14738
608.622	14633
608.690	15722
608.757	17800
608.825	18558
608.893	17503
608.960	17335
609.028	16009
609.095	17018
609.163	14812
609.230	14073
609.298	13177
609.365	12683
609.432	14300
609.500	15021
609.567	17859
609.635	20298
609.702	22239
609.769	21137
609.837	16741
609.904	13584
609.971	13873
610.039	17616
610.106	21401
610.173	39262
610.241	91614
610.308	73587
610.375	27277
610.442	16385
610.509	14157
610.577	14961
610.644	15289
610.711	15644
610.778	14753
610.845	16837
610.912	17377
610.980	18330
611.047	18362
611.114	18862
611.181	16660
611.248	15564
611.315	18813
611.382	17111
611.449	18358
611.516	19167
611.583	19173
611.650	18437
611.717	18864
611.784	18880
611.851	22351
611.918	23371
611.984	27148
612.051	39182
612.118	77856
612.185	191539
612.252	161816
612.319	39486
612.386	26935
612.452	24323
612.519	22563
612.586	21481
612.653	21554
612.719	22588
612.786	21799
612.853	19159
612.919	18702
612.986	20388
613.053	18008
613.120	16615
613.186	16087
613.253	18575
613.319	17348
613.386	16369
613.453	18028
613.519	17167
613.586	16389
613.652	18737
613.719	18118
613.785	18288
613.852	18304
613.918	17899
613.985	19239
614.051	20186
614.118	25625
614.184	27029
614.250	18554
614.317	18089
614.383	17614
614.449	17143
614.516	17923
614.582	17413
614.648	17841
614.715	17233
614.781	17297
614.847	16970
614.914	16581
614.980	15801
615.046	16016
615.112	17213
615.179	16999
615.245	18059
615.311	18183
615.377	20129
615.443	21911
615.509	19156
615.575	18794
615.642	18104
615.708	19856
615.774	19626
615.840	22147
615.906	25113
615.972	32222
616.038	52097
616.104	102356
616.170	231362
616.236	251444
616.302	61719
616.368	35132
616.434	25824
616.500	23502
616.565	24860
616.631	29168
616.697	25371
616.763	26430
616.829	35138
616.895	63356
616.961	65929
617.026	31081
617.092	20227
617.158	18894
617.224	16278
617.289	17115
617.355	15849
617.421	14784
617.487	14502
617.552	14945
617.618	13830
617.684	13253
617.749	15271
617.815	13474
617.880	13178
617.946	13371
618.012	13380
618.077	13440
618.143	12883
618.208	13760
618.274	14688
618.339	14763
618.405	12355
618.470	12505
618.536	11941
618.601	12277
618.667	11315
618.732	11146
618.798	10303
618.863	10640
618.928	9737
618.994	10404
619.059	10178
619.124	11283
619.190	11020
619.255	10794
619.320	9917
619.386	9746
619.451	9682
619.516	9874
619.581	9660
619.647	10330
619.712	9310
619.777	9388
619.842	8869
619.907	9877
619.972	10780
620.038	10950
620.103	9602
620.168	9441
620.233	10996
620.298	9515
620.363	9825
620.428	10347
620.493	9934
620.558	10752
620.623	10512
620.688	10720
620.753	10534
620.818	10410
620.883	11602
620.948	10511
621.013	10402
621.078	10990
621.143	9768
621.207	11556
621.272	10677
621.337	10467
621.402	10844
621.467	10627
621.532	11359
621.596	9701
621.661	10662
621.726	10161
621.791	10220
621.855	9777
621.920	9363
621.985	9783
622.049	10573
622.114	11022
622.179	10078
622.243	11464
622.308	10090
622.373	12503
622.437	11902
622.502	10748
622.566	10487
622.631	9474
622.695	11615
622.760	9765
622.824	10012
622.889	10018
622.953	10178
623.018	12317
623.082	12359
623.147	12036
623.211	11149
623.276	11675
623.340	10434
623.404	9821
623.469	9438
623.533	10391
623.597	10807
623.662	9603
623.726	9236
623.790	8749
623.854	7900
623.919	8900
623.983	8332
624.047	8474
624.111	8511
624.176	9660
624.240	8850
624.304	9289
624.368	8719
624.432	9689
624.496	9605
624.560	10086
624.625	9518
624.689	9450
624.753	10162
624.817	10240
624.881	8793
624.945	8431
625.009	8452
625.073	8091
625.137	7749
625.201	9212
625.265	9325
625.329	8282
625.393	9287
625.456	8886
625.520	9087
625.584	9072
625.648	10416
625.712	10676
625.776	14735
625.839	15255
625.903	9850
625.967	6971
626.031	10107
626.095	11917
626.158	10116
626.222	6536
626.286	5737
626.349	4951
626.413	4838
626.477	6342
626.540	5574
626.604	5016
626.668	6218
626.731	5419
626.795	4387
626.858	5513
626.922	4469
626.986	4537
627.049	4124
627.113	5519
627.176	5983
627.240	4477
627.303	5308
627.366	4820
627.430	5074
627.493	4431
627.557	4249
627.620	5669
627.684	5580
627.747	5487
627.810	4202
627.874	4427
627.937	3167
628.000	5364
628.064	4692
628.127	3063
628.190	4005
628.253	4125
628.317	3210
628.380	3054
628.443	3557
628.506	3324
628.569	3386
628.632	2969
628.696	2795
628.759	3371
628.822	2675
628.885	2929
628.948	2407
629.011	3377
629.074	2731
629.137	2750
629.200	1855
629.263	2833
629.326	1632
629.389	1686
629.452	1743
629.515	2670
629.578	2407
629.641	3043
629.704	1783
629.767	2379
629.830	2104
629.892	2260
629.955	1744
630.018	3378
630.081	2321
630.144	2995
630.207	1482
630.269	2894
630.332	1452
630.395	1850
630.458	2248
630.520	1749
630.583	3168
630.646	2390
630.708	2248
630.771	1257
630.834	2690
630.896	1980
630.959	1671
631.021	2138
631.084	1345
631.146	1818
631.209	2471
631.272	2117
631.334	2073
631.397	1612
631.459	1209
631.522	2865
631.584	2172
631.646	3199
631.709	2991
631.771	2794
631.834	2382
631.896	2735
631.958	1826
632.021	2278
632.083	1459
632.145	2035
632.208	1632
632.270	1962
632.332	1034
632.395	1470
632.457	2673
632.519	1785
632.581	2341
632.643	1370
632.706	2195
632.768	1027
632.830	1870
632.892	1288
632.954	702
633.016	2526
633.078	1420
633.141	1640
633.203	2087
633.265	2022
633.327	2362
633.389	692
633.451	2180
633.513	2339
633.575	2102
633.637	2309
633.698	1135
633.760	2348
633.822	2111
633.884	2223
633.946	1779
634.008	1805
634.070	2760
634.132	2572
634.193	2292
634.255	3123
634.317	2229
634.379	3704
634.441	2172
634.502	2242
634.564	2217
634.626	1690
634.687	2404
634.749	2033
634.811	1932
634.873	805
634.934	1728
634.996	1435
635.057	694
635.119	1526
635.181	1728
635.242	2244
635.304	245
635.365	2878
635.427	1737
635.488	1591
635.550	973
635.611	2283
635.673	405
635.734	2408
635.796	1757
635.857	3265
635.918	2413
635.980	3080
636.041	2510
636.102	3068
636.164	2358
636.225	3013
636.286	1987
636.348	3363
636.409	1723
636.470	798
636.531	1275
636.593	1426
636.654	1035
636.715	1894
636.776	1645
636.838	1138
636.899	1409
636.960	402
637.021	1348
637.082	945
637.143	1144
637.204	612
637.265	235
637.326	2095
637.387	511
637.448	73
637.509	1614
637.570	449
637.631	1877
637.692	777
637.753	398
637.814	765
637.875	808
637.936	1827
637.997	275
638.058	605
638.119	1715
638.179	733
638.240	43
638.301	419
638.362	-10
638.423	-290
638.483	1328
638.544	16
638.605	634
638.666	-75
638.726	711
638.787	1606
638.848	629
638.908	568
638.969	794
639.030	773
639.090	-87
639.151	742
639.211	1323
639.272	1693
639.332	1452
639.393	1237
639.453	670
639.514	956
639.574	1118
639.635	560
639.695	1319
639.756	-227
639.816	941
639.877	156
639.937	1804
639.997	2023
640.058	615
640.118	-172
640.178	990
640.239	387
640.299	866
640.359	292
640.420	711
640.480	830
640.540	1050
640.600	1192
640.661	804
640.721	-286
640.781	1783
640.841	220
640.901	761
640.961	372
641.021	-409
641.082	785
641.142	1447
641.202	855
641.262	-855
641.322	1628
641.382	-187
641.442	666
641.502	651
641.562	1700
641.622	212
641.682	210
641.742	572
641.802	666
641.861	476
641.921	295
641.981	1794
642.041	922
642.101	749
642.161	-794
642.221	-491
642.280	405
642.340	757
642.400	-456
642.460	1461
642.519	440
642.579	94
642.639	845
642.698	-2068
642.758	2203
642.818	471
642.877	221
642.937	160
642.997	855
643.056	682
643.116	-86
643.175	1018
643.235	211
643.294	1206
643.354	444
643.414	1668
643.473	1572
643.532	1567
643.592	2930
643.651	6747
643.711	13365
643.770	25622
643.830	60471
643.889	157974
643.948	59710
644.008	7060
644.067	3025
644.126	1714
644.186	1367
644.245	1831
644.304	-104
644.363	1999
644.423	-350
644.482	629
644.541	115
644.600	-922
644.659	2476
644.719	1301
644.778	2228
644.837	5559
644.896	12608
644.955	32459
645.014	16854
645.073	3298
645.132	468
645.191	1249
645.250	106
645.309	1651
645.368	967
645.427	2010
645.486	1571
645.545	5996
645.604	1812
645.663	1040
645.722	943
645.781	1317
645.840	1586
645.898	1572
645.957	3523
646.016	4660
646.075	12416
646.134	24687
646.192	59203
646.251	118803
646.310	26305
646.369	4290
646.427	2629
646.486	1223
646.545	1702
646.603	1113
646.662	456
646.721	568
646.779	456
646.838	-291
646.896	2054
646.955	1945
647.014	4201
647.072	6225
647.131	18760
647.189	14319
647.248	1210
647.306	680
647.365	432
647.423	-1028
647.481	899
647.540	-1271
647.598	154
647.657	-543
647.715	568
647.773	-826
647.832	1002
647.890	-1334
647.948	-471
648.007	392
648.065	-659
648.123	-755
648.181	940
648.240	333
648.298	-422
648.356	-847
648.414	399
648.472	-604
648.531	287
648.589	-800
648.647	-183
648.705	-400
648.763	-491
648.821	283
648.879	24
648.937	118
648.995	667
649.053	592
649.111	2047
649.169	4588
649.227	8723
649.285	17782
649.343	55889
649.401	43536
649.459	5474
649.516	3332
649.574	151
649.632	3867
649.690	5458
649.748	2304
649.806	1722
649.863	5703
649.921	12495
649.979	13221
650.037	1711
650.094	-1606
650.152	-176
650.210	-905
650.268	28
650.325	-158
650.383	-261
650.440	-1247
650.498	19
650.556	-649
650.613	-1069
650.671	229
650.728	-926
650.786	157
650.843	-617
650.901	-1335
650.958	-534
651.016	-297
651.073	-797
651.131	-1301
651.188	-2119
651.246	-589
651.303	-1082
651.360	671
651.418	-1017
651.475	-860
651.532	-1050
651.590	-358
651.647	-1464
651.704	-1233
651.762	-807
651.819	-512
651.876	-928
651.933	-546
651.990	-849
652.048	-2132
652.105	-800
652.162	-541
652.219	-1171
652.276	-48
652.333	-582
652.390	-1357
652.448	-412
652.505	-1468
652.562	-151
652.619	-342
652.676	-642
652.733	768
652.790	-373
652.847	-1445
652.904	-464
652.961	-1805
653.017	-963
653.074	180
653.131	-591
653.188	-2501
653.245	-127
653.302	-1100
653.359	-630
653.415	-280
653.472	-1649
653.529	-1164
653.586	-1485
653.642	-466
653.699	-512
653.756	-1780
653.813	-1222
653.869	458
653.926	-1302
653.983	-1053
654.039	-103
654.096	-769
654.152	-748
654.209	-2352
654.266	-192
654.322	-1878
654.379	-312
654.435	-1170
654.492	-653
654.548	-975
654.605	-581
654.661	207
654.717	-409
654.774	-68
654.830	-551
654.887	-1029
654.943	-922
655.000	-505
655.056	-834
655.112	-1866
655.168	-1470
655.225	-1567
655.281	-197
655.337	-1213
655.394	-1455
655.450	-675
655.506	-693
655.562	-154
655.618	176
655.675	-1438
655.731	-117
655.787	-1767
655.843	-63
655.899	-1692
655.955	-20
656.011	-73
656.067	-1712
656.123	-634
656.179	-952
656.235	290
656.291	-1551
656.347	196
656.403	-1011
656.459	-599
656.515	-1195
656.571	-709
656.627	-882
656.683	-932
656.739	24
656.795	-793
656.850	-525
656.906	-1475
656.962	45
657.018	-1385
657.074	-1483
657.129	-713
657.185	-363
657.241	698
657.297	282
657.352	-734
657.408	-1863
657.464	38
657.519	-867
657.575	-1966
657.630	-687
657.686	-1282
657.742	-1301
657.797	-1220
657.853	-861
657.908	541
657.964	-1435
658.019	-1125
658.075	-1325
658.130	-645
658.186	-1376
658.241	-544
658.297	-856
658.352	-2280
658.407	-1038
658.463	-1469
658.518	-1033
658.573	-913
658.629	-1553
658.684	-818
658.739	-323
658.795	-1463
658.850	-753
658.905	-1087
658.960	-1073
659.016	-2001
659.071	-457
659.126	-686
659.181	-1205
659.236	72
659.291	-556
659.346	-258
659.401	-491
659.457	-111
659.512	-1099
659.567	392
659.622	-986
659.677	-953
659.732	-1873
659.787	-915
659.842	-1012
659.897	-1129
659.952	-606
660.007	-856
660.061	-1821
660.116	-1492
660.171	-1146
660.226	-698
660.281	316
660.336	-1413
660.391	146
660.445	-1135
660.500	-1130
660.555	-861
660.610	-1755
660.664	-719
660.719	-735
660.774	-623
660.828	-823
660.883	-162
660.938	-759
660.992	-2345
661.047	691
661.101	-628
661.156	-1105
661.211	-1546
661.265	-1274
661.320	-1118
661.374	-674
661.429	-1465
661.483	-686
661.538	-1051
661.592	-796
661.647	-1489
661.701	-847
661.755	-653
661.810	322
661.864	-1909
661.919	-842
661.973	-384
662.027	-848
662.081	-559
662.136	-766
662.190	-122
662.244	-483
662.299	-1313
662.353	-732
662.407	-761
662.461	-1010
662.515	-623
662.569	-1514
662.624	-187
662.678	-1112
662.732	-1349
662.786	-1303
662.840	-221
662.894	-1334
662.948	-1021
663.002	-915
663.056	-646
663.110	-757
663.164	-964
663.218	-853
663.272	-733
663.326	314
663.380	-752
663.434	-854
663.488	-1459
663.542	-456
663.595	-1092
663.649	-1591
663.703	-559
663.757	-561
663.811	-1593
663.864	-249
663.918	-535
663.972	-920
664.026	-615
664.079	-901
664.133	-204
664.187	-1148
664.240	-498
664.294	-396
664.348	-363
664.401	-677
664.455	-960
664.508	-630
664.562	-1065
664.615	-365
664.669	-1591
664.722	-526
664.776	-432
664.829	-1118
664.883	-1501
664.936	-1363
664.990	-452
665.043	-444
665.097	-746
665.150	151
665.203	-1216
665.257	-644
665.310	-730
665.363	-793
665.417	-841
665.470	-586
665.523	-447
665.576	-611
665.630	-1156
665.683	-345
665.736	-790
665.789	-257
665.842	-853
665.895	-817
665.949	-413
666.002	-1545
666.055	-153
666.108	-345
666.161	-440
666.214	-885
666.267	-71
666.320	-637
666.373	-210
666.426	-1216
666.479	-735
666.532	-577
666.585	-751
666.638	-84
666.691	-538
666.744	-166
666.796	-146
666.849	-1544
666.902	-203
666.955	-353
667.008	-1482
667.060	-253
667.113	-1750
667.166	-390
667.219	-664
667.271	-630
667.324	-1009
667.377	-736
667.430	-522
667.482	-485
667.535	59
667.587	-505
667.640	-508
667.693	-905
667.745	131
667.798	439
667.850	-397
667.903	-469
667.955	-112
668.008	-554
668.060	11
668.113	-637
668.165	-100
668.218	-444
668.270	65
668.322	-384
668.375	-543
668.427	864
668.479	-209
668.532	-814
668.584	-1400
668.636	84
668.689	137
668.741	-881
668.793	-205
668.845	-338
668.898	-314
668.950	-713
669.002	-412
669.054	-672
669.106	-1129
669.158	285
669.211	-208
669.263	-877
669.315	310
669.367	-13
669.419	-1288
669.471	-304
669.523	241
669.575	511
669.627	-325
669.679	-605
669.731	472
669.783	-453
669.835	-689
669.886	183
669.938	-965
669.990	-163
670.042	-95
670.094	534
670.146	38
670.197	1026
670.249	86
670.301	455
670.353	1568
670.404	2282
670.456	2735
670.508	4131
670.560	8177
670.611	14882
670.663	29446
670.715	72111
670.766	167485
670.818	103388
670.869	18993
670.921	7286
670.972	3922
671.024	2027
671.075	1480
671.127	1200
671.178	276
671.230	1049
671.281	727
671.333	631
671.384	156
671.436	979
671.487	1256
671.538	1316
671.590	1830
671.641	3935
671.692	6273
671.744	15151
671.795	16837
671.846	7988
671.897	2887
671.949	2092
672.000	1074
672.051	287
672.102	630
672.153	-136
672.204	140
672.256	500
672.307	1011
672.358	-111
672.409	397
672.460	-127
672.511	-207
672.562	-114
672.613	-21
672.664	-416
672.715	-1
672.766	169
672.817	17
672.868	-545
672.919	144
672.970	-263
673.021	10
673.071	-481
673.122	68
673.173	380
673.224	-102
673.275	378
673.326	-15
673.376	-264
673.427	-913
673.478	-593
673.528	-599
673.579	-564
673.630	-488
673.680	-257
673.731	154
673.782	-67
673.832	-443
673.883	-462
673.934	369
673.984	-246
674.035	-177
674.085	98
674.136	115
674.186	211
674.237	-237
674.287	440
674.338	783
674.388	268
674.438	-647
674.489	20
674.539	-31
674.589	314
674.640	459
674.690	-463
674.740	-325
674.791	836
674.841	358
674.891	247
674.942	-542
674.992	-258
675.042	-508
675.092	-531
675.142	581
675.193	27
675.243	239
675.293	586
675.343	-327
675.393	-127
675.443	1412
675.493	-715
675.543	-333
675.593	355
675.643	197
675.693	479
675.743	231
675.793	502
675.843	29
675.893	247
675.943	361
675.993	-354
676.043	-674
676.093	998
676.142	-325
676.192	5
676.242	-245
676.292	-265
676.341	-1176
676.391	-237
676.441	-242
676.491	24
676.540	200
676.590	-610
676.640	170
676.689	-177
676.739	-510
676.789	-56
676.838	126
676.888	401
676.937	-158
676.987	-610
677.037	267
677.086	-801
677.136	35
677.185	-25
677.235	-507
677.284	-447
677.333	-233
677.383	-398
677.432	-1391
677.482	182
677.531	-945
677.580	-322
677.630	-181
677.679	-358
677.728	-426
677.778	-639
677.827	-604
677.876	-50
677.925	-1023
677.975	-329
678.024	-600
678.073	-178
678.122	-166
678.171	-459
678.220	-643
678.269	64
678.319	-482
678.368	-80
678.417	-846
678.466	693
678.515	178
678.564	477
678.613	-627
678.662	-543
678.711	59
678.760	-151
678.809	386
678.857	-462
678.906	368
678.955	-870
679.004	-20
679.053	-709
679.102	-130
679.151	-483
679.199	-523
679.248	-391
679.297	421
679.346	-130
679.394	-523
679.443	107
679.492	-722
679.540	211
679.589	304
679.638	-331
679.686	-260
679.735	37
679.784	70
679.832	-584
679.881	-755
679.929	-637
679.978	-581
680.026	-148
680.075	-452
680.123	-83
680.172	-468
680.220	-185
680.268	-314
680.317	-467
680.365	-1000
680.414	-71
680.462	-630
680.510	336
680.559	-836
680.607	-246
680.655	-543
680.703	-519
680.752	-381
680.800	157
680.848	-565
680.896	-108
680.945	-790
680.993	-337
681.041	-625
681.089	-241
681.137	-415
681.185	-584
681.233	-298
681.258	-288
681.281	-290
681.329	-1145
681.377	-228
681.380	-215
681.425	-125
681.473	492
681.502	147
681.521	-111
681.569	282
681.617	-443
681.624	-322
681.665	393
681.713	-134
681.745	117
681.761	226
681.809	-461
681.857	840
681.867	568
681.904	-405
681.952	166
681.989	-206
682.000	-338
682.048	-583
682.096	-443
682.111	-410
682.143	-361
682.191	-356
682.233	67
682.239	124
682.286	-271
682.334	-356
682.354	-333
682.382	-318
682.430	-208
682.476	196
682.477	196
682.525	-849
682.572	-365
682.598	173
682.620	633
682.667	-7
682.715	157
682.720	221
682.763	693
682.810	-305
682.841	-229
682.857	-196
682.905	647
682.952	467
682.963	447
683.000	358
683.047	-348
683.085	350
683.095	538
683.142	516
683.190	469
683.206	252
683.237	-208
683.284	662
683.328	-502
683.332	-603
683.379	473
683.426	-193
683.449	106
683.473	384
683.521	539
683.568	370
683.571	359
683.615	201
683.662	454
683.693	479
683.709	461
683.757	621
683.804	218
683.814	279
683.851	469
683.898	207
683.936	153
683.945	136
683.992	323
684.039	491
684.057	709
684.086	1097
684.133	995
684.179	259
684.180	225
684.227	1008
684.274	846
684.300	1109
684.321	1306
684.368	665
684.415	861
684.422	796
684.462	345
684.509	372
684.543	502
684.556	577
684.603	883
684.649	800
684.665	730
684.696	539
684.743	841
684.786	621
684.790	598
684.837	758
684.883	1134
684.908	1274
684.930	1397
684.977	1068
685.023	424
685.029	475
685.070	755
685.117	1052
685.150	987
685.164	991
685.210	950
685.257	1831
685.272	1731
685.303	1471
685.350	1359
685.393	1784
685.396	1810
685.443	1392
685.490	1674
685.514	1150
685.536	730
685.583	1250
685.629	1230
685.636	1153
685.675	509
685.722	1357
685.757	1080
685.768	1066
685.815	804
685.861	1322
685.878	1501
685.908	1576
685.954	990
686.000	1998
686.000	2018
686.047	1062
686.093	1286
686.121	1665
686.139	1799
686.185	1595
686.232	1538
686.242	1617
686.278	1909
686.324	1391
686.363	1196
686.370	1167
686.416	1296
686.463	1507
686.484	1634
686.509	1789
686.555	1577
686.601	1906
686.606	1846
686.647	1192
686.693	1618
686.727	1729
686.739	1827
686.785	1694
686.831	1909
686.848	1913
686.877	1777
686.923	1234
686.969	1485
686.969	1487
687.015	1573
687.061	2022
687.090	2011
687.107	1871
687.153	2010
687.199	1188
687.211	1242
687.245	1602
687.291	1504
687.332	1693
687.336	1702
687.382	1234
687.428	1754
687.453	1778
687.474	1853
687.520	1605
687.565	2228
687.574	2199
687.611	1878
687.657	1581
687.695	1622
687.702	1723
687.748	2039
687.794	2949
687.816	3164
687.839	3038
687.885	2461
687.931	2117
687.937	2025
687.976	1651
688.022	2412
688.058	2261
688.067	2221
688.113	2055
688.158	1719
688.179	1766
688.204	1884
688.249	1945
688.295	2363
688.300	2338
688.340	2141
688.386	2106
688.421	1822
688.431	1771
688.477	1822
688.522	2339
688.542	2495
688.567	2630
688.613	2336
688.658	1822
688.663	1772
688.703	1427
688.749	2030
688.784	2490
688.794	2617
688.839	1873
688.884	2200
688.905	2047
688.930	1856
688.975	1671
689.020	1945
689.026	1979
689.065	2250
689.110	1847
689.146	1814
689.155	1846
689.201	2128
689.246	2277
689.267	2241
689.291	2127
689.336	2681
689.381	2284
689.388	2310
689.426	2485
689.471	2313
689.509	2347
689.516	2340
689.561	2477
689.606	2181
689.630	2221
689.651	2418
689.696	2573
689.741	2910
689.750	2979
689.785	3039
689.830	2962
689.871	2413
689.875	2350
689.920	2484
689.965	2463
689.992	2188
690.010	2075
690.054	2434
690.099	2204
690.112	2142
690.144	2185
690.189	2435
690.233	2495
690.233	2499
690.278	2576
690.323	2646
690.354	2480
690.367	2527
690.412	2403
690.457	2624
690.474	2897
690.501	3196
690.546	2825
690.590	2864
690.595	2821
690.635	2443
690.680	2822
690.716	2605
690.724	2636
690.769	3175
690.813	3600
690.836	3658
690.857	3842
690.902	4517
690.946	5126
690.957	5336
690.991	6792
691.035	8565
691.077	11661
691.080	11775
691.124	11507
691.168	10884
691.198	10832
691.213	10114
691.257	7737
691.301	5685
691.318	4960
691.346	4754
691.390	4241
691.434	3460
691.439	3392
691.478	3160
691.522	3338
691.559	2825
691.567	2799
691.611	3611
691.655	3538
691.680	3740
691.699	3690
691.743	3313
691.787	3017
691.800	2817
691.831	2528
691.875	2558
691.919	2576
691.921	2567
691.964	2652
692.008	3039
692.041	2741
692.052	2748
692.096	3254
692.139	3937
692.162	4038
692.183	3654
692.227	3293
692.271	2748
692.282	2572
692.315	2624
692.359	2932
692.402	3311
692.403	3319
692.447	3077
692.490	3114
692.523	2526
692.534	2515
692.578	3114
692.622	3512
692.643	3796
692.666	3660
692.709	3037
692.753	2782
692.763	2670
692.797	2890
692.840	3000
692.884	3194
692.884	3203
692.928	3232
692.971	3045
693.004	3382
693.015	3507
693.059	3408
693.102	3380
693.124	3431
693.146	3494
693.189	3200
693.233	2988
693.245	3075
693.276	3508
693.320	3583
693.363	3842
693.365	3845
693.407	4076
693.450	4138
693.485	4234
693.493	4367
693.537	5006
693.580	5610
693.605	6050
693.624	6570
693.667	7385
693.710	8496
693.725	8869
693.753	11687
693.797	16722
693.840	21944
693.845	22466
693.883	22575
693.926	21216
693.966	20606
693.970	20218
694.013	15951
694.056	11833
694.086	9022
694.099	8632
694.142	7018
694.185	5859
694.206	5306
694.229	5175
694.272	4596
694.315	4188
694.326	4070
694.358	4066
694.401	3947
694.444	4104
694.446	4093
694.487	4302
694.530	4184
694.566	4393
694.573	4321
694.616	3621
694.659	3281
694.686	2827
694.702	2854
694.745	3086
694.787	3074
694.806	3129
694.830	3266
694.873	3490
694.916	3573
694.926	3643
694.959	3841
695.002	3944
695.044	3957
695.046	3955
695.087	4109
695.130	4057
695.166	4092
695.172	4129
695.215	4212
695.258	4197
695.286	4287
695.301	4183
695.343	3751
695.386	3373
695.406	3144
695.428	3207
695.471	3528
695.514	3621
695.526	3666
695.556	3846
695.599	4028
695.641	4311
695.646	4302
695.684	4173
695.726	4108
695.766	4165
695.769	4178
695.811	4093
695.854	4131
695.886	4042
695.896	4052
695.938	3993
695.981	3952
696.005	3989
696.023	4070
696.065	4197
696.108	4249
696.125	4272
696.150	4321
696.192	4411
696.235	4503
696.245	4504
696.277	4475
696.319	4332
696.361	4317
696.365	4289
696.404	4323
696.446	4566
696.485	4692
696.488	4683
696.530	4320
696.572	3902
696.604	3790
696.614	3898
696.656	4025
696.698	4211
696.724	4352
696.740	4388
696.783	4277
696.825	4340
696.844	4399
696.867	4528
696.909	4525
696.951	4611
696.964	4643
696.992	4567
697.034	4277
697.076	4035
697.083	3988
697.118	4191
697.160	4447
697.202	4729
697.203	4719
697.244	4261
697.286	3836
697.323	3462
697.327	3525
697.369	3908
697.411	4403
697.442	4682
697.453	4687
697.494	4683
697.536	4693
697.562	4726
697.578	4792
697.620	4821
697.661	4802
697.682	4851
697.703	4911
697.744	4940
697.786	4966
697.801	4968
697.828	5307
697.869	5776
697.911	6198
697.921	6308
697.952	5918
697.994	5271
698.035	4722
698.040	4637
698.077	4914
698.118	5191
698.160	5461
698.160	5445
698.201	5029
698.243	4595
698.279	4183
698.284	4215
698.325	4386
698.367	4580
698.399	4687
698.408	4740
698.449	4928
698.491	5128
698.518	5231
698.532	5228
698.573	5184
698.614	5153
698.638	5103
698.656	5039
698.697	4871
698.738	4705
698.757	4609
698.779	4713
698.820	4895
698.862	5059
698.877	5109
698.903	5340
698.944	5677
698.985	6029
698.996	6109
699.026	5864
699.067	5503
699.116	5060
699.235	4795
699.354	5817
699.474	4880
699.593	5520
699.713	5194
699.832	5803
699.951	5152
700.070	6180
700.190	5265
700.309	5737
700.428	5317
700.547	4556
700.667	4636
700.786	5063
700.905	4695
701.024	5096
701.143	4126
701.262	4691
701.381	5054
701.500	4957
701.619	5191
701.738	4043
701.857	4270
701.976	4893
702.095	4135
702.214	4981
702.333	4342
702.452	5307
702.571	5091
702.690	4816
702.809	3543
702.928	3697
703.047	4312
703.165	4701
703.284	4602
703.403	4642
703.522	4038
703.640	4836
703.759	5140
703.878	5938
703.997	4171
704.115	4575
704.234	4699
704.353	4309
704.471	4498
704.590	3756
704.708	3813
704.827	4149
704.946	3676
705.064	3784
705.183	3695
705.301	4278
705.420	5199
705.538	4798
705.656	4577
705.775	4930
705.893	8918
706.012	14106
706.130	5072
706.249	4332
706.367	4311
706.485	4824
706.604	4140
706.722	4285
706.840	5430
706.958	7764
707.077	5936
707.195	3867
707.313	3577
707.431	4127
707.549	3715
707.668	3715
707.786	3713
707.904	4012
708.022	3758
708.140	4343
708.258	4050
708.376	3591
708.494	3641
708.612	4663
708.730	5249
708.848	5134
708.966	4838
709.084	4670
709.202	4389
709.320	4112
709.438	4079
709.556	4418
709.674	4322
709.791	4233
709.909	3684
710.027	3697
710.145	3725
710.263	4928
710.380	3987
710.498	4373
710.616	3740
710.733	3936
710.851	4203
710.969	3561
711.086	3925
711.204	4179
711.322	3957
711.439	3733
711.557	3826
711.674	3669
711.792	3574
711.909	3692
712.027	5050
712.144	3829
712.262	3535
712.379	4300
712.497	5575
712.614	5171
712.732	3725
712.849	4990
712.966	4943
713.084	5930
713.201	5053
713.318	5007
713.436	4353
713.553	4755
713.670	5552
713.787	5080
713.905	4937
714.022	5174
714.139	4854
714.256	6664
714.373	9296
714.490	16276
714.608	39178
714.725	182177
714.842	303396
714.959	23656
715.076	7399
715.193	6198
715.310	5558
715.427	3719
715.544	4295
715.661	4711
715.778	3468
715.895	4960
716.011	4548
716.128	4384
716.245	3918
716.362	4535
716.479	4007
716.596	3468
716.713	3539
716.829	3825
716.946	3809
717.063	2988
717.180	2901
717.296	3417
717.413	3353
717.530	3414
717.646	2993
717.763	3258
717.880	2299
717.996	2978
718.113	2848
718.229	2517
718.346	2286
718.462	3361
718.579	3452
718.695	6862
718.812	5269
718.928	4239
719.045	3698
719.161	3082
719.277	3205
719.394	4028
719.510	3858
719.626	3701
719.743	4073
719.859	6498
719.975	13288
720.092	49061
720.208	160149
720.324	29653
720.440	4294
720.557	4045
720.673	5125
720.789	6186
720.905	11793
721.021	6185
721.137	3532
721.253	3192
721.369	2879
721.486	3183
721.602	4263
721.718	2667
721.834	1553
721.950	3256
722.066	1777
722.181	2260
722.297	2688
722.413	3098
722.529	2130
722.645	2536
722.761	2296
722.877	2435
722.993	2484
723.108	3512
723.224	2909
723.340	2316
723.456	2413
723.571	2986
723.687	2135
723.803	2067
723.918	2091
724.034	2585
724.150	2670
724.265	2120
724.381	3555
724.497	7649
724.612	2475
724.728	1759
724.843	1815
724.959	2735
725.074	3479
725.190	5702
725.305	2247
725.421	2181
725.536	1099
725.651	1596
725.767	961
725.882	2558
725.997	1648
726.113	1889
726.228	1850
726.343	1676
726.459	1620
726.574	1894
726.689	1272
726.804	1753
726.920	1401
727.035	1937
727.150	1632
727.265	2068
727.380	1415
727.495	2184
727.610	2245
727.725	1419
727.841	2015
727.956	4618
728.071	4154
728.186	1731
728.301	1295
728.416	1809
728.531	1063
728.645	2136
728.760	1073
728.875	2352
728.990	1774
729.105	2020
729.220	1935
729.335	1407
729.449	1804
729.564	1619
729.679	564
729.794	1677
729.908	1867
730.023	2298
730.138	1824
730.253	1644
730.367	1442
730.482	713
730.596	1140
730.711	2592
730.826	2268
730.940	2211
731.055	1611
731.169	1569
731.284	1591
731.398	687
731.513	1323
731.627	1679
731.742	1698
731.856	1925
731.970	1643
732.085	3008
732.199	3884
732.313	8027
732.428	19969
732.542	70076
732.656	63362
732.771	9299
732.885	3663
732.999	3743
733.113	3125
733.227	2096
733.342	2504
733.456	1845
733.570	1204
733.684	2535
733.798	1987
733.912	1746
734.026	2015
734.140	1288
734.254	2006
734.368	1838
734.482	4071
734.596	1982
734.710	824
734.824	2152
734.938	1536
735.052	1560
735.166	1124
735.280	1580
735.393	1918
735.507	1185
735.621	2275
735.735	3515
735.849	1372
735.962	1886
736.076	1749
736.190	1741
736.303	1287
736.417	2974
736.531	1489
736.644	1871
736.758	1387
736.872	2029
736.985	1018
737.099	2194
737.212	931
737.326	1571
737.439	973
737.553	1784
737.666	1667
737.780	1364
737.893	667
738.007	1061
738.120	362
738.233	1675
738.347	1364
738.460	2245
738.573	1481
738.687	803
738.800	890
738.913	2317
739.026	1169
739.140	1992
739.253	1102
739.366	1682
739.479	398
739.592	1147
739.705	947
739.818	933
739.932	1116
740.045	849
740.158	1265
740.271	1677
740.384	494
740.497	1818
740.610	1631
740.723	846
740.836	1706
740.949	881
741.062	1537
741.174	2193
741.287	1120
741.400	846
741.513	1297
741.626	1410
741.739	1368
741.851	1541
741.964	1041
742.077	1067
742.189	1326
742.302	1987
742.415	2368
742.527	1954
742.640	921
742.753	857
742.865	894
742.978	737
743.090	1127
743.203	1092
743.316	895
743.428	596
743.541	784
743.653	1867
743.766	822
743.878	1573
743.990	1043
744.103	1746
744.215	2285
744.327	1306
744.440	2218
744.552	3421
744.664	1748
744.777	1714
744.889	328
745.001	1336
745.113	13
745.226	337
745.338	943
745.450	780
745.562	507
745.674	836
745.786	1005
745.898	1015
746.010	481
746.122	440
746.234	399
746.347	1483
746.459	1573
746.570	734
746.682	533
746.794	1887
746.906	1447
747.018	806
747.130	1075
747.242	1056
747.354	598
747.466	1056
747.577	-4
747.689	1243
747.801	508
747.913	1089
748.024	-33
748.136	515
748.248	68
748.359	670
748.471	1086
748.583	1071
748.694	-603
748.806	1994
748.918	884
749.029	1671
749.141	589
749.252	752
749.364	622
749.475	2457
749.587	1203
749.698	261
749.809	491
749.921	873
750.032	615
750.144	-11
750.255	201
750.366	339
750.478	183
750.589	205
750.700	-8
750.811	1239
750.923	254
751.034	1697
751.145	2836
751.256	720
751.367	494
751.479	1062
751.590	160
751.701	672
751.812	-222
751.923	538
752.034	376
752.145	1377
752.256	711
752.367	882
752.478	-289
752.589	960
752.700	-363
752.811	20
752.922	333
753.032	562
753.143	484
753.254	778
753.365	480
753.476	363
753.586	316
753.697	1024
753.808	556
753.919	472
754.029	327
754.140	744
754.251	363
754.361	596
754.472	67
754.582	325
754.693	256
754.804	844
754.914	-739
755.025	729
755.135	430
755.246	647
755.356	554
755.466	343
755.577	261
755.687	847
755.798	-471
755.908	861
756.018	69
756.129	484
756.239	52
756.349	872
756.460	138
756.570	786
756.680	668
756.790	377
756.900	1258
757.011	762
757.121	-71
757.231	1005
757.341	-275
757.451	343
757.561	-1
757.671	430
757.781	-640
757.891	699
758.001	1033
758.111	1689
758.221	-13
758.331	944
758.441	377
758.551	1335
758.661	128
758.771	945
758.880	797
758.990	1110
759.100	155
759.210	1091
759.320	1157
759.429	700
759.539	715
759.649	797
759.758	926
759.868	1482
759.978	757
760.087	2267
760.197	2090
760.307	2146
760.416	1666
760.526	1079
760.635	1291
760.745	515
760.854	1117
760.964	2018
761.073	1599
761.182	2066
761.292	1621
761.401	1666
761.511	1203
761.620	1420
761.729	1650
761.839	1455
761.948	613
762.057	1746
762.166	501
762.276	637
762.385	1403
762.494	1533
762.603	1471
762.712	1657
762.822	1232
762.931	729
763.040	930
763.149	2025
763.258	1591
763.367	2535
763.476	1013
763.585	1637
763.694	1480
763.803	1459
763.912	2362
764.021	2197
764.130	1059
764.238	1878
764.347	2004
764.456	2772
764.565	2327
764.674	3050
764.783	2672
764.891	2460
765.000	3405
765.109	5268
765.217	4558
765.326	6914
765.435	7726
765.543	8947
765.652	10383
765.761	13885
765.869	19337
765.978	28560
766.086	46246
766.195	81474
766.303	162950
766.412	302161
766.520	309285
766.629	192708
766.737	83578
766.846	44841
766.954	29384
767.062	21268
767.171	16769
767.279	12311
767.387	8894
767.496	7846
767.604	6341
767.712	5509
767.820	5355
767.928	4579
768.037	4850
768.145	4591
768.253	4179
768.361	4417
768.469	3742
768.577	4457
768.685	4453
768.793	4445
768.901	4720
769.009	5516
769.117	5586
769.225	8492
769.333	11531
769.441	18734
769.549	31495
769.657	64079
769.765	151439
769.873	277721
769.981	193691
770.088	68799
770.196	31400
770.304	19174
770.412	12578
770.519	9744
770.627	6607
770.735	6143
770.842	4370
770.950	4562
771.058	3431
771.165	4047
771.273	2558
771.380	3297
771.488	2582
771.595	2270
771.703	2368
771.810	2392
771.918	2682
772.025	2090
772.133	2198
772.240	2112
772.348	2225
772.455	2426
772.562	2098
772.670	1217
772.777	1578
772.884	1464
772.991	1516
773.099	1739
773.206	821
773.313	1163
773.420	961
773.528	979
773.635	987
773.742	1282
773.849	1294
773.956	2006
774.063	718
774.170	1208
774.277	1481
774.384	1210
774.491	651
774.598	964
774.705	708
774.812	2098
774.919	663
775.026	720
775.133	1371
775.239	1280
775.346	-16
775.453	1071
775.560	584
775.667	91
775.773	585
775.880	150
775.987	307
776.093	867
776.200	424
776.307	1237
776.413	55
776.520	2
776.627	414
776.733	570
776.840	-434
776.946	1951
777.053	1351
777.159	3169
777.266	1826
777.372	3662
777.478	3162
777.585	2037
777.691	489
777.798	780
777.904	1427
778.010	1731
778.117	1121
778.223	848
778.329	-61
778.435	448
778.542	639
778.648	-42
778.754	755
778.860	158
778.966	188
779.072	1009
779.178	-179
779.284	5
779.391	-112
779.497	45
779.603	2144
779.708	613
779.815	3146
779.920	9353
780.026	29096
780.132	7160
780.238	-455
780.344	544
780.450	796
780.556	1085
780.661	-111
780.767	527
780.873	1074
780.979	769
781.085	104
781.190	-367
781.296	-57
781.402	50
781.507	-398
781.613	413
781.719	-14
781.824	494
781.930	460
782.035	-17
782.141	232
782.246	-169
782.352	-120
782.457	618
782.563	127
782.668	486
782.773	185
782.879	-354
782.984	378
783.090	1291
783.195	308
783.300	146
783.405	54
783.511	227
783.616	483
783.721	942
783.826	-392
783.932	1190
784.037	-323
784.142	0
784.247	130
784.352	235
784.457	-723
784.562	19
784.667	120
784.772	730
784.877	-387
784.982	720
785.087	-752
785.192	765
785.297	-335
785.402	-136
785.507	3
785.611	282
785.716	-218
785.821	237
785.926	24
786.031	-444
786.135	-162
786.240	297
786.345	-500
786.450	742
786.554	-501
786.659	290
786.763	-1112
786.868	677
786.973	-28
787.077	449
787.182	-549
787.286	-134
787.391	-671
787.495	-210
787.600	-390
787.704	-486
787.809	-383
787.913	-1045
788.017	-967
788.122	-494
788.226	-121
788.330	60
788.435	-654
788.539	233
788.643	-961
788.747	624
788.852	-763
788.956	-84
789.060	47
789.164	-328
789.268	-435
789.372	367
789.476	-599
789.580	-482
789.684	-1183
789.788	-259
789.892	-633
789.996	83
790.100	-304
790.204	-185
790.308	-666
790.412	-1
790.516	-117
790.620	-171
790.724	-351
790.828	176
790.931	-1424
791.035	292
791.139	-17
791.242	-345
791.346	-58
791.450	-153
791.554	-90
791.657	-872
791.761	-772
791.864	147
791.968	-551
792.072	32
792.175	-722
792.279	-396
792.382	-500
792.486	-128
792.589	-326
792.693	-117
792.796	-531
792.899	33
793.003	-1063
793.106	-1263
793.209	-1072
793.313	617
793.416	-1440
793.519	773
793.623	-341
793.726	688
793.829	-996
793.932	-390
794.035	-974
794.138	37
794.242	-168
794.345	488
794.448	840
794.551	1217
794.654	5107
794.757	14228
794.860	3155
794.963	-79
795.066	-112
795.169	111
795.272	-765
795.375	-442
795.477	-608
795.580	650
795.683	-1322
795.786	61
795.889	-1347
795.991	-110
796.094	-604
796.197	-821
796.300	-173
796.402	-769
796.505	-355
796.608	-268
796.710	-552
796.813	-385
796.915	-682
797.018	-160
797.120	-299
797.223	-492
797.326	39
797.428	-64
797.530	-797
797.633	-520
797.735	-174
797.838	45
797.940	-51
798.042	-509
798.145	-1528
798.247	-322
798.349	-768
798.452	-382
798.554	-1228
798.656	-371
798.758	-983
798.860	-561
798.962	-414
799.065	-70
799.167	-1015
799.269	-228
799.371	-543
799.473	118
799.575	-1426
799.677	-573
799.779	820
799.881	-1029
799.983	65
800.085	162
800.187	-894
800.289	-1703
800.390	-886
800.492	-1533
800.594	-466
800.696	-836
800.798	-753
800.899	-927
801.001	-482
801.103	-1083
801.205	-512
801.306	9
801.408	-1825
801.509	-94
801.611	-1292
801.713	-209
801.814	-1239
801.916	-1158
802.017	-987
802.119	-921
802.220	-923
802.322	-1698
802.423	460
802.525	-500
802.626	-349
802.727	-633
802.829	-424
802.930	-1932
803.031	81
803.133	-639
803.234	-803
803.335	-244
803.436	-1518
803.538	-65
803.639	-1829
803.740	130
803.841	-1826
803.942	-666
804.043	-1020
804.144	-1618
804.245	-1235
804.346	-482
804.447	-1918
804.548	-1407
804.649	-88
804.750	-831
804.851	-778
804.952	-691
805.053	-1743
805.154	-869
805.255	-859
805.355	-637
805.456	-1210
805.557	-719
805.658	-1590
805.758	-132
805.859	-916
805.960	-958
806.061	-1192
806.161	-1709
806.262	-971
806.362	-1176
806.463	-788
806.564	-834
806.664	-991
806.765	-240
806.865	-1047
806.966	-855
807.066	-1788
807.166	-243
807.267	-639
807.367	-889
807.468	-567
807.568	-1636
807.668	-934
807.769	-432
807.869	-1270
807.969	-374
808.069	-628
808.170	-666
808.270	-1061
808.370	-713
808.470	-558
808.570	-872
808.670	-1116
808.770	-623
808.870	-1576
808.970	-476
809.070	-1420
809.170	-1008
809.271	-543
809.370	-1312
809.470	-757
809.570	-939
809.670	-1421
809.770	-937
809.870	-1512
809.970	-217
810.070	-1079
810.169	-688
810.269	-2309
810.369	348
810.469	-1418
810.568	-1267
810.668	-1365
810.768	-569
810.867	-1502
810.967	-419
811.066	-975
811.166	-1132
811.265	-1280
811.365	-1164
811.464	-1250
811.564	-598
811.663	-688
811.763	-1714
811.862	-910
811.962	-1520
812.061	-1206
812.160	-972
812.260	-739
812.359	-1264
812.458	-927
812.557	573
812.657	145
812.756	402
812.855	-1160
812.954	-587
813.053	-470
813.153	-208
813.252	-1613
813.351	-906
813.450	-932
813.549	-551
813.648	-499
813.747	-556
813.846	-381
813.945	-1530
814.044	-1681
814.143	-880
814.242	-695
814.341	-1158
814.439	-1218
814.538	182
814.637	-1690
814.736	-986
814.835	-1026
814.933	-731
815.032	-166
815.131	-628
815.229	-699
815.328	-354
815.427	-833
815.525	114
815.624	-1161
815.722	-144
815.821	-258
815.919	-216
816.018	-327
816.116	221
816.215	-98
816.313	-165
816.412	-360
816.510	677
816.609	845
816.707	-111
816.805	199
816.904	-526
817.002	741
817.100	1271
817.198	539
817.296	236
817.395	743
817.493	2534
817.591	1568
817.689	3351
817.787	4228
817.885	6707
817.983	12747
818.081	26637
818.179	64578
818.277	161063
818.375	190879
818.473	63256
818.571	21728
818.669	12787
818.767	9485
818.865	10103
818.963	10467
819.061	16093
819.158	26129
819.256	53014
819.354	118122
819.452	261655
819.549	233603
819.647	80673
819.745	30107
819.842	17116
819.940	10515
820.038	7389
820.135	4621
820.233	4113
820.330	3474
820.428	2476
820.525	1723
820.623	1044
820.720	876
820.818	1526
820.915	452
821.012	891
821.110	-149
821.207	1088
821.304	211
821.402	441
821.499	1344
821.596	872
821.693	420
821.791	797
821.888	-505
821.985	907
822.082	227
822.179	1370
822.276	-516
822.373	400
822.470	-688
822.567	-81
822.664	-1239
822.761	1588
822.858	-1031
822.955	277
823.052	-857
823.149	-189
823.246	-998
823.343	-1210
823.440	91
823.536	-876
823.633	-643
823.730	-775
823.827	-1150
823.923	-445
824.020	-216
824.117	-487
824.213	-865
824.310	673
824.407	-928
824.503	47
824.600	-517
824.696	-921
824.793	-922
824.889	-596
824.986	-1709
825.082	-708
825.179	-374
825.275	-1032
825.371	-1198
825.468	523
825.564	-2025
825.660	-122
825.757	-1084
825.853	-484
825.949	-1657
826.045	-1162
826.142	-1544
826.238	-1319
826.334	-131
826.430	-1883
826.526	-480
826.622	-848
826.718	-1017
826.814	-765
826.910	-458
827.006	-735
827.102	-1881
827.198	-332
827.294	-1143
827.390	-51
827.486	-1395
827.582	-1341
827.678	-2772
827.774	-530
827.869	-2136
827.965	85
828.061	-1042
828.157	-1032
828.252	-963
828.348	-1966
828.444	-612
828.539	-1745
828.635	-1494
828.731	49
828.826	-1799
828.922	-65
829.017	-1841
829.113	-768
829.208	-1061
829.304	-1506
829.399	-105
829.495	-1498
829.590	-16
829.685	-910
829.781	-986
829.876	-591
829.971	-818
830.066	-2045
830.162	-1835
830.257	-1296
830.352	-2251
830.447	-252
830.543	-1605
830.638	-1544
830.733	-27
830.828	-779
830.923	-793
831.018	-1321
831.113	-1573
831.208	-1453
831.303	-1653
831.398	-1885
831.493	-1086
831.588	-281
831.683	-1691
831.778	-1013
831.873	-1097
831.967	-583
832.062	-1437
832.157	-1269
832.252	-865
832.346	-1332
832.441	-1301
832.536	-645
832.631	-850
832.725	481
832.820	-1108
832.914	-1042
833.009	-1496
833.104	-752
833.198	-845
833.293	-880
833.387	-1295
833.482	-760
833.576	-2318
833.670	-672
833.765	-1555
833.859	-1819
833.954	-893
834.048	310
834.142	-1047
834.237	-1500
834.331	-1729
834.425	-471
834.519	-1623
834.613	-554
834.708	-1733
834.802	-396
834.896	-2140
834.990	-1318
835.084	-1310
835.178	-1402
835.272	-1474
835.366	-740
835.460	-1548
835.554	-1861
835.648	-1217
835.742	-735
835.836	-812
835.930	-1151
836.024	-1654
836.117	-1015
836.211	-1439
836.305	-1167
836.399	-978
836.493	-2040
836.586	-800
836.680	-1341
836.774	-1379
836.867	-361
836.961	-1761
837.055	-1643
837.148	-1067
837.242	-650
837.335	-1737
837.429	-1234
837.522	-1447
837.616	-1285
837.709	-302
837.803	-675
837.896	-1192
837.989	-1416
838.083	-652
838.176	-639
838.269	-1301
838.363	-683
838.456	-850
838.549	-441
838.642	-1340
838.735	121
838.829	-756
838.922	-545
839.015	-1121
839.108	-872
839.201	-1721
839.294	-457
839.387	-1045
839.480	-1511
839.573	-1118
839.666	-1370
839.759	-1143
839.852	-1022
839.945	-1302
840.038	-922
840.131	-1656
840.223	-1759
840.316	-1516
840.409	-1237
840.502	-1648
840.594	-1024
840.687	-1294
840.780	-1273
840.873	-1316
840.965	-1729
841.058	-1503
841.150	-488
841.243	-1297
841.336	-236
841.428	-696
841.521	-1280
841.613	-1350
841.706	-1173
841.798	-1917
841.890	-1688
841.983	-2389
842.075	-1551
842.167	-1121
842.260	-715
842.352	-1565
842.444	-847
842.537	-728
842.629	-22
842.721	-1324
842.813	-843
842.905	-2105
842.997	-1109
843.090	-1667
843.182	-678
843.274	-961
843.366	1129
843.458	2683
843.550	3139
843.642	-1015
843.734	-787
843.826	-1978
843.918	-380
844.009	-1295
844.101	-1742
844.193	-1596
844.285	-1484
844.377	-1419
844.469	-566
844.560	-1122
844.652	-557
844.744	-622
844.835	-771
844.927	-1452
845.019	-1201
845.110	-1141
845.202	-1413
845.293	-1169
845.385	-1396
845.476	-1132
845.568	-484
845.659	-1509
845.751	-842
845.842	-2302
845.934	-1243
846.025	-1393
846.116	-996
846.208	-1537
846.299	-1219
846.390	-1614
846.482	-1008
846.573	-941
846.664	-654
846.755	-1275
846.846	-1119
846.937	-2900
847.029	-1543
847.120	-1673
847.211	-1337
847.302	-599
847.393	-2107
847.484	-2108
847.575	-1147
847.666	-1206
847.757	-1110
847.847	-1803
847.938	-888
848.029	-1994
848.120	-1836
848.211	-1275
848.302	-558
848.392	-1411
848.483	-1147
848.574	-1399
848.664	-1260
848.755	-1680
848.846	-1578
848.936	-2073
849.027	-740
849.118	-1267
849.208	-1363
849.299	-1441
849.389	-244
849.480	716
849.570	5594
849.661	11644
849.751	27244
849.841	13673
849.932	518
850.022	-1655
850.112	-917
850.203	-1784
850.293	-1364
850.383	-1590
850.474	-1438
850.564	-1758
850.654	-1019
850.744	-1720
850.834	-905
850.924	-946
851.014	-1008
851.104	-1818
851.194	-2030
851.284	-1546
851.374	-343
851.464	-1374
851.554	-903
851.644	-1259
851.734	-666
851.824	-1390
851.914	-1612
852.004	-950
852.094	270
852.183	-571
852.273	-1113
852.363	-1862
852.452	-478
852.542	-1197
852.632	-1137
852.721	-325
852.811	-1465
852.901	-1114
852.990	-1014
853.080	-770
853.169	-706
853.259	-1179
853.348	-651
853.438	-607
853.527	843
853.617	795
853.706	3584
853.795	6518
853.885	18925
853.974	39661
854.063	69320
854.152	133688
854.242	71487
854.331	10939
854.420	3069
854.509	1273
854.598	961
854.687	-276
854.777	200
854.866	-968
854.955	439
855.044	-1124
855.133	-1206
855.222	-746
855.311	-1321
855.400	-1194
855.488	-1168
855.577	-1559
855.666	-895
855.755	-932
855.844	-348
855.933	-1066
856.021	-462
856.110	-1418
856.199	-1218
856.288	-1950
856.376	-993
856.465	-2339
856.554	-818
856.642	-1472
856.731	-1309
856.819	-1516
856.908	-1279
856.996	-1249
857.085	-1770
857.173	-1260
857.262	-1433
857.350	-1521
857.438	-1950
857.527	-1933
857.615	-1399
857.703	-1781
857.792	-1185
857.880	-2254
857.968	-1694
858.056	-1475
858.145	-954
858.233	-1799
858.321	-1183
858.409	-1262
858.497	-1346
858.585	-2594
858.673	-1014
858.761	-2071
858.849	-1881
858.937	-2361
859.025	-1656
859.113	-926
859.201	-1192
859.289	-1376
859.377	-2030
859.465	-1081
859.552	-1156
859.640	-1500
859.728	-1084
859.816	-1570
859.903	-841
859.991	-1513
860.079	-1448
860.166	-1390
860.254	-1274
860.342	-2115
860.429	-1773
860.517	-2224
860.604	-1318
860.692	-2124
860.779	-1743
860.867	-1250
860.954	-1073
861.042	-1476
861.129	-1675
861.216	-823
861.304	-1446
861.391	-1832
861.478	-1254
861.565	-1727
861.653	-793
861.740	-2027
861.827	-1573
861.914	-1512
862.001	-2066
862.089	-2098
862.176	-1767
862.263	-1718
862.350	-1039
862.437	-1671
862.524	-1505
862.611	-1614
862.698	-833
862.785	-1163
862.871	-743
862.958	-1434
863.045	-1207
863.132	-1119
863.219	-1924
863.306	-2382
863.392	-1591
863.479	-1532
863.566	-1159
863.652	-1690
863.739	-920
863.826	-1846
863.912	-1215
863.999	-1364
864.086	-1263
864.172	-1563
864.259	-1189
864.345	-1383
864.432	-159
864.518	-2128
864.604	-1148
864.691	-2313
864.777	-1161
864.863	-976
864.950	-774
865.036	-1423
865.122	-832
865.209	280
865.295	-256
865.381	-881
865.467	251
865.553	276
865.639	1338
865.726	3474
865.812	9419
865.898	20477
865.984	32097
866.070	55069
866.156	80913
866.242	27761
866.328	4472
866.414	518
866.499	1059
866.585	-9
866.671	123
866.757	-483
866.843	93
866.928	-999
867.014	-360
867.100	335
867.186	-355
867.271	-792
867.357	41
867.442	-595
867.528	-187
867.614	-728
867.699	-263
867.785	-62
867.870	-67
867.956	629
868.041	1264
868.127	-411
868.212	245
868.297	-536
868.383	-1284
868.468	-390
868.553	-425
868.639	121
868.724	-162
868.809	1139
868.894	-757
868.979	-1393
869.065	-654
869.150	-1989
869.235	-734
869.320	-1547
869.405	-735
869.490	-1138
869.575	-628
869.660	-334
869.745	-105
869.830	-721
869.915	-1098
870.000	-1175
870.085	-960
870.169	-893
870.254	-315
870.339	-1508
870.424	-659
870.509	-1664
870.593	-370
870.678	-1263
870.763	-660
870.847	-1160
870.932	-1551
871.016	-859
871.101	-1471
871.186	-1390
871.270	-388
871.355	-1423
871.439	-619
871.523	-904
871.608	-1135
871.692	-1236
871.777	278
871.861	-1115
871.945	-1387
872.030	-410
872.114	-1022
872.198	-1277
872.282	-1530
872.367	-1356
872.451	-1610
872.535	-1415
872.619	-1002
872.703	-2377
872.787	-154
872.871	-938
872.955	-481
873.039	-1740
873.123	-1405
873.207	-1051
873.291	-631
873.375	-1619
873.459	-1080
873.543	-1396
873.627	-756
873.711	-891
873.794	-431
873.878	-1327
873.962	-1431
874.045	-1227
874.129	-1100
874.137	-1109
874.213	-1193
874.245	-1086
874.296	-923
874.352	-1687
874.380	-2057
874.460	-1371
874.464	-1346
874.547	-959
874.568	-976
874.631	-1012
874.676	-1081
874.714	-1158
874.784	-1164
874.798	-1164
874.881	-799
874.892	-816
874.965	-908
874.999	-919
875.048	-947
875.107	-496
875.131	-311
875.215	-498
875.215	-498
875.298	-1537
875.323	-1542
875.381	-1527
875.430	-808
875.465	-304
875.538	-756
875.548	-826
875.631	-970
875.646	-1086
875.714	-1551
875.753	-1206
875.798	-829
875.861	-961
875.881	-1002
875.964	-1077
875.968	-1075
876.047	-1072
876.076	-996
876.130	-807
876.183	-978
876.213	-1093
876.291	201
876.296	292
876.379	-838
876.398	-683
876.462	-213
876.506	-660
876.545	-1053
876.613	-1027
876.628	-1004
876.711	-1459
876.721	-1316
876.794	-293
876.828	-582
876.877	-1096
876.935	-1021
876.960	-906
877.043	-539
877.043	-540
877.125	-535
877.150	-494
877.208	-436
877.258	-585
877.291	-729
877.365	-754
877.374	-741
877.456	-36
877.472	-218
877.539	-1022
877.579	-637
877.622	-138
877.687	-511
877.704	-668
877.787	-190
877.794	-281
877.869	-1090
877.901	-828
877.952	-440
878.008	-698
878.034	-827
878.115	-178
878.117	-163
878.199	-739
878.222	-716
878.282	-534
878.329	-147
878.364	14
878.437	-232
878.447	-247
878.529	-1325
878.544	-1058
878.611	42
878.651	-88
878.694	-70
878.758	70
878.776	56
878.858	-1204
878.865	-1156
878.941	-247
878.972	-201
879.023	-452
879.078	-675
879.105	-622
879.185	-695
879.187	-701
879.269	-263
879.292	-587
879.351	-998
879.399	-340
879.433	-100
879.506	-345
879.516	-322
879.598	-454
879.613	-444
879.680	-661
879.720	-466
879.762	-135
879.827	-368
879.844	-522
879.926	-736
879.933	-770
880.007	-433
880.040	-336
880.089	-384
880.147	-144
880.171	15
880.253	618
880.254	615
880.335	219
880.360	258
880.417	964
880.467	1332
880.499	1468
880.574	1931
880.580	1951
880.662	905
880.680	764
880.744	-205
880.787	-358
880.825	-28
880.893	214
880.907	179
880.989	-363
881.000	-340
881.070	229
881.106	104
881.152	-198
881.213	82
881.233	192
881.315	75
881.319	81
881.396	111
881.426	-252
881.478	-665
881.532	32
881.559	352
881.639	-489
881.641	-506
881.722	233
881.745	182
881.803	98
881.852	-127
881.885	-260
881.958	-5
881.966	-6
882.047	-276
882.064	-342
882.129	159
882.171	279
882.210	-120
882.277	-216
882.291	-59
882.372	364
882.383	419
882.454	263
882.489	175
882.535	69
882.596	-308
882.616	-357
882.697	279
882.702	263
882.778	-83
882.808	5
882.859	1
882.914	-236
882.940	-108
883.020	6
883.021	9
883.102	18
883.127	44
883.183	425
883.233	518
883.264	246
883.339	11
883.345	23
883.426	-531
883.445	-474
883.507	-88
883.551	-17
883.587	134
883.657	353
883.668	381
883.749	460
883.763	484
883.830	340
883.869	278
883.910	255
883.975	296
883.991	369
884.072	273
884.081	316
884.152	877
884.187	835
884.233	526
884.292	645
884.314	661
884.394	291
884.398	264
884.475	159
884.504	185
884.555	175
884.610	213
884.636	277
884.716	-39
884.716	-32
884.797	485
884.821	502
884.877	592
884.927	728
884.958	839
885.033	780
885.038	763
885.118	598
885.139	479
885.199	255
885.244	413
885.279	590
885.350	584
885.359	612
885.439	674
885.456	699
885.520	952
885.561	1366
885.600	1262
885.667	593
885.680	581
885.760	517
885.773	511
885.840	737
885.878	915
885.920	862
885.984	615
886.000	610
886.080	672
886.089	644
886.160	719
886.195	943
886.240	859
886.300	457
886.320	514
886.400	1030
886.406	1035
886.480	614
886.511	498
886.560	651
886.616	810
886.640	745
886.720	424
886.722	411
886.800	1158
886.827	1463
886.879	1251
886.932	860
886.959	1065
887.038	1799
887.039	1804
887.119	1227
887.143	1127
887.198	1247
887.248	1260
887.278	1034
887.354	385
887.358	430
887.437	1208
887.459	1443
887.517	1408
887.564	1318
887.596	1310
887.669	1251
887.676	1210
887.755	595
887.774	472
887.835	1367
887.880	1940
887.914	1561
887.985	754
887.994	776
888.073	910
888.090	946
888.153	1131
888.195	1183
888.232	1085
888.300	1010
888.311	1046
888.391	1119
888.405	1134
888.470	608
888.510	251
888.549	345
888.615	593
888.628	654
888.708	839
888.720	878
888.787	1759
888.825	2235
888.866	1706
888.930	856
888.945	851
889.024	764
889.035	753
889.103	1451
889.140	1787
889.182	1439
889.245	947
889.261	1001
889.340	1189
889.349	1209
889.419	747
889.454	485
889.498	828
889.559	1316
889.577	1240
889.656	869
889.664	829
889.735	1403
889.768	1667
889.814	1434
889.873	1114
889.978	1385
890.083	1181
890.187	2247
890.292	902
890.397	1534
890.501	450
890.606	1737
890.710	1035
890.815	1563
890.919	1283
891.024	1982
891.128	604
891.233	905
891.337	2008
891.442	1699
891.546	982
891.650	1188
891.755	335
891.859	1786
891.963	909
892.068	1560
892.172	715
892.276	565
892.380	785
892.484	930
892.589	1283
892.693	1278
892.797	895
892.901	1190
893.005	601
893.109	970
893.213	1682
893.317	1638
893.421	1205
893.525	931
893.629	698
893.733	1396
893.837	723
893.941	1175
894.045	2128
894.148	1291
894.252	2481
894.356	3610
894.460	2045
894.564	1445
894.667	1265
894.771	432
894.875	942
894.978	1288
895.082	891
895.186	868
895.289	2301
895.393	1210
895.496	1758
895.600	1862
895.703	973
895.807	1066
895.910	344
896.014	1750
896.117	1074
896.221	1484
896.324	1324
896.427	1803
896.531	542
896.634	1189
896.737	1482
896.840	423
896.944	713
897.047	1450
897.150	1207
897.253	894
897.356	-35
897.460	765
897.563	1151
897.666	1158
897.769	788
897.872	1676
897.975	337
898.078	293
898.181	986
898.284	786
898.387	248
898.490	1613
898.593	216
898.695	706
898.798	-50
898.901	1068
899.004	1073
899.107	310
899.209	-48
899.312	1163
899.415	988
899.518	1368
899.620	349
899.723	755
899.826	779
899.928	1328
900.031	623
900.133	430
900.236	579
900.338	742
900.441	258
900.543	878
900.646	383
900.748	1398
900.851	858
900.953	251
901.055	-17
901.158	729
901.260	719
901.362	441
901.465	28
901.567	525
901.669	1348
901.771	409
901.873	-44
901.976	550
902.078	-219
902.180	710
902.282	562
902.384	518
902.486	797
902.588	1098
902.690	726
902.792	840
902.894	1125
902.996	617
903.098	-36
903.200	307
903.302	593
903.404	480
903.505	632
903.607	1091
903.709	899
903.811	1225
903.913	749
904.014	52
904.116	339
904.218	633
904.319	956
904.421	1555
904.523	580
904.624	664
904.726	1203
904.827	441
904.929	786
905.030	688
905.132	447
905.233	1122
905.335	556
905.436	1199
905.537	-100
905.639	715
905.740	581
905.841	179
905.943	625
906.044	-148
906.145	674
906.247	1074
906.348	220
906.449	961
906.550	690
906.651	607
906.752	655
906.854	391
906.955	-104
907.056	386
907.157	612
907.258	1012
907.359	490
907.460	967
907.561	638
907.662	707
907.762	316
907.863	956
907.964	170
908.065	1566
908.166	1058
908.267	332
908.367	1151
908.468	1012
908.569	522
908.670	1010
908.770	938
908.871	916
908.971	352
909.072	1482
909.173	383
909.273	230
909.374	651
909.474	773
909.575	696
909.675	128
909.776	784
909.876	266
909.977	481
910.077	1207
910.177	1071
910.278	1045
910.378	812
910.478	-121
910.579	607
910.679	95
910.779	790
910.879	488
910.980	-24
911.080	523
911.180	558
911.280	351
911.380	1085
911.480	847
911.580	783
911.680	313
911.780	650
911.880	926
911.980	37
912.080	-179
912.180	793
912.280	770
912.380	63
912.480	347
912.580	777
912.679	1061
912.779	686
912.879	634
912.979	237
913.078	744
913.178	743
913.278	216
913.377	362
913.477	174
913.577	498
913.676	1122
913.776	514
913.875	1075
913.975	35
914.074	664
914.174	1572
914.273	96
914.373	883
914.472	-318
914.572	206
914.671	1339
914.770	1383
914.870	327
914.969	1027
915.068	470
915.167	1076
915.267	715
915.366	-123
915.465	654
915.564	154
915.663	1088
915.763	280
915.862	681
915.961	280
916.060	528
916.159	483
916.258	219
916.357	195
916.456	1530
916.555	537
916.654	443
916.752	498
916.851	675
916.950	-451
917.049	178
917.148	188
917.247	1480
917.345	937
917.444	635
917.543	715
917.642	835
917.740	665
917.839	980
917.937	1756
918.036	1382
918.135	1056
918.233	657
918.332	940
918.430	724
918.529	335
918.627	378
918.726	1646
918.824	1515
918.923	134
919.021	401
919.119	982
919.218	973
919.316	553
919.414	1344
919.512	939
919.611	1044
919.709	13
919.807	1145
919.905	448
920.003	1016
920.102	1381
920.200	1010
920.298	632
920.396	2344
920.494	602
920.592	625
920.690	1312
920.788	755
920.886	984
920.984	319
921.082	216
921.180	1398
921.277	463
921.375	1706
921.473	1320
921.571	985
921.669	1810
921.766	1754
921.864	1399
921.962	1207
922.060	1368
922.157	968
922.255	1876
922.352	2071
922.450	2038
922.548	1888
922.645	1238
922.743	2040
922.840	2694
922.938	4324
923.035	3951
923.133	2472
923.230	3799
923.327	3889
923.425	4254
923.522	3951
923.619	2912
923.717	3909
923.814	2514
923.911	2819
924.008	4134
924.106	3290
924.203	3430
924.300	3824
924.397	1561
924.494	3752
924.591	3084
924.688	2653
924.786	2809
924.883	2893
924.979	2994
925.077	3055
925.173	2457
925.270	3469
925.367	3079
925.464	3615
925.561	3088
925.658	3785
925.755	2255
925.852	3290
925.948	3195
926.045	3552
926.142	3315
926.239	3479
926.335	3045
926.432	3003
926.529	3855
926.625	3487
926.722	2432
926.818	2377
926.915	2831
927.011	3378
927.108	2401
927.204	2321
927.301	3062
927.397	2898
927.494	2832
927.590	2789
927.687	2545
927.783	3721
927.879	2626
927.976	2677
928.072	2662
928.168	2596
928.264	2695
928.361	2391
928.457	2261
928.553	2933
928.649	2210
928.745	2663
928.841	2689
928.937	2505
929.033	3276
929.129	2871
929.225	2628
929.321	3443
929.417	2434
929.513	2600
929.609	2173
929.705	2124
929.801	3457
929.897	2566
929.993	2363
930.089	2921
930.184	1881
930.280	2525
930.376	2630
930.471	2358
930.567	3011
930.663	2445
930.758	2797
930.854	1825
930.950	1300
931.045	1926
931.141	2919
931.236	2551
931.332	2713
931.427	1846
931.523	2407
931.618	2675
931.714	1364
931.809	1691
931.905	1865
932.000	1978
932.095	1209
932.191	2147
932.286	2159
932.381	2825
932.476	2215
932.572	2010
932.667	2042
932.762	2622
932.857	2119
932.952	2371
933.047	2981
933.142	3056
933.237	1396
933.332	2302
933.427	2697
933.522	1998
933.617	1350
933.712	1799
933.807	1552
933.902	3125
933.997	3130
934.092	2037
934.187	1658
934.282	3099
934.376	1637
934.471	2363
934.566	2606
934.661	2232
934.755	2075
934.850	2858
934.945	1649
935.039	1322
935.134	1947
935.228	1230
935.323	2685
935.417	2318
935.512	1745
935.606	1393
935.701	2282
935.795	2039
935.890	1842
935.984	1998
936.079	901
936.173	1740
936.267	1861
936.362	1372
936.456	2284
936.550	2708
936.644	1723
936.738	1850
936.833	1482
936.927	1717
937.021	1981
937.115	2518
937.209	1405
937.303	3322
937.397	1427
937.491	1946
937.585	1135
937.679	1425
937.773	1074
937.867	1443
937.961	1619
938.055	2217
938.149	2234
938.243	2091
938.337	555
938.430	402
938.524	2096
938.618	1504
938.712	1683
938.805	1117
938.899	1054
938.993	2097
939.086	1765
939.180	1697
939.274	1626
939.367	2182
939.461	2173
939.554	1202
939.648	1291
939.741	2097
939.835	1218
939.928	1953
940.022	1928
940.115	2012
940.208	1705
940.302	2163
940.395	1688
940.488	2271
940.582	1373
940.675	1464
940.768	1097
940.861	972
940.954	2374
941.048	1337
941.141	898
941.234	1448
941.327	2373
941.420	2300
941.513	2574
941.606	2207
941.699	1709
941.792	1543
941.885	1922
941.978	1473
942.071	897
942.164	1545
942.257	1742
942.349	1740
942.442	1072
942.535	2003
942.628	1202
942.721	1421
942.813	798
942.906	958
942.999	1212
943.091	1429
943.184	650
943.277	2131
943.369	1388
943.462	783
943.554	1076
943.647	695
943.739	1151
943.832	2728
943.924	893
944.017	867
944.109	590
944.201	1232
944.294	889
944.386	1594
944.478	623
944.571	912
944.663	712
944.755	1030
944.847	1719
944.940	1887
945.032	929
945.124	1204
945.216	1716
945.308	836
945.400	1431
945.492	780
945.584	1417
945.676	1640
945.768	1000
945.860	1345
945.952	836
946.044	953
946.136	852
946.228	1360
946.320	818
946.412	1089
946.503	1295
946.595	1720
946.687	428
946.779	930
946.870	611
946.962	1418
947.054	961
947.145	1572
947.237	883
947.329	662
947.420	607
947.512	947
947.603	455
947.695	698
947.786	806
947.878	1079
947.969	60
948.061	1390
948.152	339
948.243	657
948.335	-411
948.426	54
948.517	85
948.609	1203
948.700	679
948.791	322
948.882	957
948.973	683
949.065	-125
949.156	1786
949.247	651
949.338	610
949.429	361
949.520	621
949.611	155
949.702	1602
949.793	523
949.884	1157
949.975	1368
950.066	541
950.157	812
950.247	752
950.338	315
950.429	724
950.520	654
950.611	1071
950.701	653
950.792	1552
950.883	970
950.973	1351
951.064	639
951.155	1444
951.245	1136
951.336	978
951.427	479
951.517	545
951.608	813
951.698	1086
951.788	228
951.879	777
951.969	554
952.060	915
952.150	255
952.240	1275
952.331	-498
952.421	1285
952.511	478
952.602	425
952.692	81
952.782	739
952.872	611
952.962	659
953.052	1163
953.143	249
953.233	961
953.323	1254
953.413	95
953.503	1320
953.593	1051
953.683	1046
953.773	223
953.863	-133
953.953	352
954.042	-12
954.132	244
954.222	1488
954.312	843
954.402	643
954.492	793
954.581	1872
954.671	934
954.761	962
954.850	1980
954.940	417
955.030	832
955.119	317
955.209	262
955.298	336
955.388	252
955.477	1436
955.567	193
955.656	886
955.746	941
955.835	1051
955.925	842
956.014	1262
956.103	877
956.193	1019
956.282	1151
956.371	1410
956.461	857
956.550	604
956.639	519
956.728	1216
956.817	238
956.906	1156
956.995	1570
957.085	1028
957.174	687
957.263	-127
957.352	509
957.441	939
957.530	35
957.619	1019
957.708	539
957.796	13
957.885	410
957.974	244
958.063	624
958.152	32
958.241	1195
958.329	1116
958.418	160
958.507	1082
958.596	1209
958.684	-344
958.773	676
958.861	1710
958.950	858
959.039	1415
959.127	891
959.216	814
959.304	507
959.393	1319
959.481	934
959.570	1651
959.658	532
959.746	1673
959.835	1255
959.923	2260
960.011	983
960.100	663
960.188	1405
960.276	821
960.365	466
960.453	658
960.541	295
960.629	823
960.717	588
960.805	-36
960.893	134
960.981	562
961.069	1479
961.158	1749
961.245	1580
961.333	1163
961.421	-96
961.509	1429
961.597	1087
961.685	-102
961.773	-34
961.861	233
961.949	1008
962.036	1019
962.124	331
962.212	259
962.299	93
962.387	1106
962.475	896
962.562	582
962.650	300
962.738	912
962.825	37
962.913	865
963.000	517
963.088	798
963.175	346
963.263	367
963.350	-355
963.438	-182
963.525	220
963.612	1453
963.700	1277
963.787	6055
963.874	4290
963.962	618
964.049	374
964.136	646
964.223	-116
964.310	80
964.398	-31
964.485	346
964.572	1108
964.659	1805
964.746	2061
964.833	914
964.920	-209
965.007	-84
965.094	13
965.181	447
965.268	337
965.355	785
965.441	-467
965.528	-169
965.615	-35
965.702	-196
965.789	-195
965.875	236
965.962	-93
966.049	-395
966.136	550
966.222	1089
966.309	397
966.395	495
966.482	634
966.569	883
966.655	283
966.742	455
966.828	218
966.915	-226
967.001	-323
967.087	301
967.174	249
967.260	321
967.347	646
967.433	1837
967.519	5074
967.605	2768
967.692	512
967.778	542
967.864	-143
967.950	397
968.036	480
968.123	611
968.209	-584
968.295	212
968.381	769
968.467	1395
968.553	-250
968.639	726
968.725	-171
968.811	1486
968.897	1122
968.983	1620
969.069	-203
969.154	815
969.240	311
969.326	313
969.412	-59
969.497	425
969.583	-55
969.669	585
969.755	261
969.840	760
969.926	786
970.012	1133
970.097	1035
970.183	1165
970.268	846
970.354	1150
970.439	388
970.525	3392
970.610	1598
970.696	1559
970.781	854
970.866	-470
970.952	189
971.037	796
971.122	-255
971.208	201
971.293	202
971.378	-965
971.463	-12
971.549	305
971.634	-248
971.719	378
971.804	-121
971.889	1003
971.974	-943
972.059	-380
972.144	369
972.229	840
972.314	525
972.399	777
972.484	-998
972.569	936
972.654	-638
972.739	1155
972.824	2012
972.908	109
972.993	-117
973.078	-261
973.163	694
973.247	459
973.332	-689
973.417	1018
973.501	-111
973.586	387
973.671	134
973.755	-458
973.840	693
973.924	320
974.009	26
974.093	-80
974.178	1131
974.262	961
974.346	1126
974.431	160
974.515	-61
974.600	548
974.684	528
974.768	472
974.852	760
974.937	476
975.021	111
975.105	943
975.189	880
975.273	163
975.358	610
975.442	163
975.526	364
975.610	186
975.694	-832
975.778	377
975.862	-72
975.946	-1516
976.030	421
976.114	514
976.198	-338
976.281	-132
976.365	398
976.449	-7
976.533	172
976.617	218
976.700	-520
976.784	449
976.868	-89
976.951	-112
977.035	308
977.119	559
977.202	-743
977.286	-464
977.369	257
977.453	1089
977.536	255
977.620	162
977.703	558
977.787	-483
977.870	664
977.953	1381
978.037	-680
978.120	1070
978.203	794
978.287	320
978.370	744
978.453	633
978.536	-163
978.620	520
978.703	843
978.786	673
978.869	-405
978.952	-3
979.035	1345
979.118	679
979.201	532
979.284	575
979.367	-515
979.450	620
979.533	-241
979.616	219
979.699	-818
979.782	212
979.865	339
979.948	61
980.030	-535
980.113	-623
980.196	-722
980.279	646
980.361	21
980.444	-57
980.526	-186
980.609	127
980.692	295
980.774	1189
980.857	-670
980.939	849
981.022	-319
981.104	481
981.187	-116
981.269	-565
981.352	764
981.434	-241
981.516	-974
981.599	962
981.681	458
981.763	-28
981.846	-119
981.928	85
982.010	-461
982.092	-682
982.174	-38
982.256	-142
982.339	-1032
982.421	497
982.503	554
982.585	158
982.667	275
982.749	625
982.831	250
982.913	-814
982.995	1001
983.077	-373
983.158	911
983.240	-1162
983.322	581
983.404	1053
983.486	1
983.568	779
983.649	-13
983.731	866
983.813	-191
983.894	-650
983.976	-195
984.058	120
984.139	386
984.221	-502
984.302	-44
984.384	-9
984.465	456
984.547	56
984.628	-790
984.710	872
984.791	124
984.872	508
984.954	113
985.035	332
985.116	-412
985.198	397
985.279	313
985.360	-123
985.441	140
985.522	-4
985.604	368
985.685	-1346
985.766	1609
985.847	646
985.928	-1166
986.009	242
986.090	-302
986.171	478
986.252	160
986.333	693
986.414	-213
986.495	97
986.576	-792
986.656	1163
986.737	-111
986.818	-291
986.899	-144
986.980	-609
987.060	789
987.141	-196
987.222	-89
987.302	198
987.383	669
987.464	717
987.544	449
987.625	-137
987.705	350
987.786	1258
987.866	154
987.947	61
988.027	364
988.108	298
988.188	-699
988.268	-912
988.349	-417
988.429	-31
988.509	408
988.589	238
988.670	-1183
988.750	585
988.830	330
988.910	237
988.990	890
989.070	262
989.151	205
989.231	-367
989.311	357
989.391	617
989.471	-971
989.551	114
989.631	585
989.711	1324
989.791	-432
989.870	-9
989.950	-382
990.030	-491
990.110	631
990.190	-123
990.269	232
990.349	740
990.429	-10
990.509	772
990.588	-322
990.668	-11
990.747	331
990.827	-155
990.907	-806
990.986	-80
991.066	99
991.145	169
991.225	128
991.304	1056
991.383	-130
991.463	286
991.542	-258
991.622	-347
991.701	-408
991.780	-502
991.859	-92
991.939	-262
992.018	-563
992.097	1188
992.176	-267
992.256	249
992.335	-610
992.414	466
992.493	-1179
992.572	-342
992.651	261
992.730	102
992.809	162
992.888	-154
992.967	-46
993.046	-270
993.125	-1517
993.203	-409
993.282	552
993.361	680
993.440	72
993.519	-1101
993.597	-139
993.676	-69
993.755	105
993.834	-139
993.912	-859
993.991	1187
994.069	-1096
994.148	-30
994.226	-388
994.305	123
994.384	-429
994.462	604
994.540	-804
994.619	-1196
994.697	-978
994.776	-579
994.854	321
994.932	-518
995.011	-170
995.089	-188
995.167	-291
995.245	-510
995.324	-587
995.402	-358
995.480	-844
995.558	-763
995.636	-116
995.714	-843
995.792	-395
995.870	-830
995.948	-633
996.026	-746
996.104	-723
996.182	-205
996.260	-999
996.338	-88
996.416	-928
996.494	-884
996.572	359
996.649	-773
996.727	-819
996.805	-150
996.883	-519
996.960	-1253
997.038	-591
997.116	294
997.193	-950
997.271	-435
997.348	-1264
997.426	-482
997.504	-1392
997.581	943
997.658	-228
997.736	-1022
997.813	-1389
997.891	403
997.968	-609
998.046	-108
998.123	-839
998.200	-822
998.277	-1019
998.355	-860
998.432	-911
998.509	16
998.586	-628
998.663	-265
998.741	-759
998.818	-410
998.895	-625
998.972	19
999.049	-732
999.126	-563
999.203	-599
999.280	-452
999.357	-1810
999.434	-781
999.511	-698
999.587	-804
999.664	-687
999.741	-46
999.818	-716
999.895	-1066
999.971	-819
1000.048	-1232
1000.125	93
1000.202	-664
1000.278	-610
1000.355	-1069
1000.431	-549
1000.508	-1441
1000.584	-424
1000.661	-331
1000.738	-992
1000.814	-925
1000.890	-102
1000.967	-455
1001.043	-273
1001.120	-1331
1001.196	58
1001.272	-1823
1001.349	-124
1001.425	-279
1001.501	-1224
1001.577	-916
1001.654	-481
1001.730	-769
1001.806	-563
1001.882	-1596
1001.958	242
1002.034	-55
1002.110	-1503
1002.186	-1798
1002.262	-987
1002.338	-965
1002.414	-411
1002.490	-676
1002.566	-1567
1002.642	-1144
1002.718	-1684
1002.794	-1468
1002.870	-1313
1002.945	-1399
1003.021	-1515
1003.097	-694
1003.173	-649
1003.248	-711
1003.324	-812
1003.400	-332
1003.475	-1197
1003.551	-842
1003.626	-523
1003.702	-491
1003.777	-1733
1003.853	-1329
1003.928	-1082
1004.004	-1171
1004.079	-701
1004.155	-894
1004.230	-1328
1004.305	-634
1004.381	-1434
1004.456	-1064
1004.531	-867
1004.607	-794
1004.682	-1445
1004.757	-1108
1004.832	-956
1004.907	-1251
1004.982	-464
1005.057	-1194
1005.133	-1516
1005.208	-1071
1005.283	-1341
1005.358	-497
1005.433	-477
1005.508	-3
1005.583	-1829
1005.657	-909
1005.732	-288
1005.807	-977
1005.882	-409
1005.957	-1154
1006.032	-958
1006.106	-1069
1006.181	-1041
1006.256	-683
1006.331	-1735
1006.405	-832
1006.480	-1016
1006.554	-757
1006.629	-816
1006.704	-531
1006.778	-589
1006.853	-952
1006.927	-1179
1007.002	-1008
1007.076	-868
1007.150	-1367
1007.225	-660
1007.299	-691
1007.373	-1959
1007.448	-831
1007.522	-858
1007.596	-971
1007.671	-2073
1007.745	-939
1007.819	-1583
1007.893	-1070
1007.967	-1870
1008.041	-1574
1008.115	-577
1008.190	-1681
1008.264	-684
1008.338	-1862
1008.412	-1898
1008.486	-1011
1008.560	-798
1008.633	-1446
1008.707	-1118
1008.781	-959
1008.855	-1724
1008.929	-1516
1009.003	-1588
1009.076	-608
1009.150	-613
1009.224	-889
1009.298	-1174
1009.371	-2466
1009.445	-1342
1009.519	-1266
1009.592	-1355
1009.666	-146
1009.739	-975
1009.813	-1200
1009.886	-530
1009.960	-1620
1010.033	-1511
1010.107	-1008
1010.180	-1730
1010.253	-1407
1010.327	-1741
1010.400	-1242
1010.473	-1152
1010.547	25
1010.620	-1787
1010.693	-1023
1010.766	-1339
1010.840	-1250
1010.913	-1668
1010.986	-2122
1011.059	-1693
1011.132	-1451
1011.205	-833
1011.278	-925
1011.351	-1401
1011.424	-1272
1011.497	-2018
1011.570	-1110
1011.643	-1347
1011.716	-1523
1011.789	-1384
1011.862	-739
1011.934	-1475
1012.007	-2723
1012.080	-2043
1012.153	-1039
1012.225	-1119
1012.298	-1696
1012.371	-1656
1012.443	-940
1012.516	-1943
1012.588	-1450
1012.661	-2039
1012.733	-1786
1012.806	-361
1012.879	-1689
1012.951	-902
1013.023	-1516
1013.096	-1463
1013.168	-1914
1013.241	-787
1013.313	-1376
1013.385	-1858
1013.458	-841
1013.530	-1116
1013.602	-1210
1013.674	-524
1013.746	-2423
1013.819	-2064
1013.891	-1068
1013.963	-1023
1014.035	-642
1014.107	-1783
1014.179	-1037
1014.251	-1317
1014.323	-1860
1014.395	-1329
1014.467	-949
1014.539	-1100
1014.611	-1692
1014.683	-1946
1014.754	-1409
1014.826	-1725
1014.898	-1962
1014.970	-1648
1015.042	-701
1015.113	-1138
1015.185	-2151
1015.257	-1723
1015.328	-1110
1015.400	-2146
1015.471	-1679
1015.543	-1972
1015.615	-1391
1015.686	-1069
1015.757	-1121
1015.829	-1539
1015.901	-1502
1015.972	-1978
1016.043	-1447
1016.115	-2058
1016.186	-1676
1016.257	-2201
1016.328	-338
1016.400	-1095
1016.471	-1599
1016.542	-1305
1016.613	-1827
1016.685	-1868
1016.756	-758
1016.827	-1450
1016.898	-1733
1016.969	-935
1017.040	-1861
1017.111	-1714
1017.182	-1180
1017.253	-720
1017.324	-1740
1017.395	-1882
1017.466	-1412
1017.537	-1529
1017.608	-1415
1017.678	-2146
1017.749	-1571
1017.820	-1750
1017.891	-1541
1017.961	-1689
1018.032	-1509
1018.103	-1561
1018.173	-1669
1018.244	-2103
1018.315	-2000
1018.385	-897
1018.456	-1722
1018.526	-1979
1018.597	-1190
1018.667	-1301
1018.738	-1252
1018.808	-1779
1018.878	-1201
1018.949	-1566
1019.019	-1379
1019.089	-753
1019.160	-1074
1019.230	-1470
1019.300	-523
1019.371	-2489
1019.441	-1042
1019.511	-1748
1019.581	-2002
1019.651	-1574
1019.721	-867
1019.791	-2012
1019.861	-1584
1019.931	-1136
1020.001	-1500
1020.071	-1307
1020.141	-1650
1020.211	-945
1020.281	-1430
1020.351	-1941
1020.421	-1171
1020.491	-716
1020.560	-1193
1020.630	-1246
1020.700	-1581
1020.770	-1991
1020.839	-713
1020.909	-1725
1020.979	-1543
1021.048	-1701
1021.118	-902
1021.187	-1160
1021.257	-1682
1021.326	-1596
1021.396	-2021
1021.465	-1661
1021.535	-1835
1021.604	-1927
1021.674	-1325
1021.743	-859
1021.812	-754
1021.882	-1327
1021.951	-975
1022.020	-1482
1022.089	-1065
1022.159	-1353
1022.228	-1518
1022.297	-1362
1022.366	-1410
1022.435	-1400
1022.504	-1343
1022.573	-2146
1022.642	-1484
1022.711	-1275
1022.781	-1522
1022.849	-1074
1022.918	-1612
1022.987	-1309
1023.056	-868
1023.125	-1504
1023.194	-1079
1023.263	-592
1023.331	-1252
1023.400	-2164
1023.469	-1073
1023.538	-210
1023.606	-1117
1023.675	-1134
1023.744	-1847
1023.812	-2081
1023.881	-1214
1023.949	-1362
1024.018	-464
1024.086	-1938
1024.155	-1877
1024.223	-1960
1024.292	-429
1024.360	-1356
1024.429	-1280
1024.497	-1693
1024.565	-1333
1024.634	-1910
1024.702	-1467
1024.770	-1066
1024.838	-1065
1024.907	-933
1024.975	-1512
1025.043	-1392
1025.111	-1468
1025.179	-1273
1025.247	-1636
1025.315	-1296
1025.383	-1131
1025.451	-2447
1025.519	-2018
1025.587	-1126
1025.655	-512
1025.723	-1664
1025.791	-1566
1025.859	-1263
1025.927	-887
1025.995	-1670
1026.062	-1228
1026.130	-1092
1026.198	-1621
1026.266	-1509
1026.333	-1522
1026.401	-936
1026.469	-1351
1026.536	-1031
1026.604	-1348
1026.671	-1945
1026.739	-1209
1026.806	-1392
1026.874	-1345
1026.941	-1871
1027.009	-1771
1027.076	-2225
1027.144	-766
1027.211	-1924
1027.278	-759
1027.345	-2047
1027.413	-1280
1027.480	-1980
1027.547	-2094
1027.614	-1837
1027.682	-1494
1027.749	-1103
1027.816	-1505
1027.883	-775
1027.950	-1051
1028.017	-1313
1028.084	-885
1028.151	-2432
1028.218	-1361
1028.285	-722
1028.352	-1237
1028.419	-1378
1028.486	-1284
1028.553	-1068
1028.619	-1470
1028.686	-1565
1028.753	-733
1028.820	-1755
1028.886	-883
1028.953	-1371
1029.020	-1396
1029.086	-1587
1029.153	-501
1029.220	-1337
1029.286	-633
1029.353	-1535
1029.419	-1043
1029.486	-2062
1029.552	-1545
1029.619	-1671
1029.685	-1265
1029.751	-1115
1029.818	-814
1029.884	-1569
1029.951	-295
1030.017	-1337
1030.083	-803
1030.149	-963
1030.216	-1290
1030.282	-281
1030.348	-1403
1030.414	-612
1030.480	-1392
1030.546	-1190
1030.612	-1475
1030.678	-1309
1030.744	-839
1030.810	-1388
1030.876	-819
1030.942	-797
1031.008	-761
1031.074	-1704
1031.140	-1132
1031.206	-966
1031.272	-1566
1031.337	-1480
1031.403	-1019
1031.469	-1861
1031.534	-937
1031.600	-1048
1031.666	-1282
1031.731	-1050
1031.797	-1315
1031.863	-1362
1031.928	-1754
1031.994	-1477
1032.059	-1166
1032.125	-1803
1032.190	-1368
1032.256	-1709
1032.321	-1445
1032.386	-1748
1032.452	-1526
1032.517	-1515
1032.582	-1484
1032.647	-1413
1032.713	-1347
1032.778	-2044
1032.843	-1000
1032.908	-1433
1032.974	-1672
1033.039	-1497
1033.104	-848
1033.169	-1247
1033.234	-2004
1033.299	-1252
1033.364	-1347
1033.429	-1324
1033.494	-1391
1033.559	-2133
1033.624	-1492
1033.688	-1473
1033.753	-1441
1033.818	-1620
1033.883	-678
1033.948	-708
1034.013	-1173
1034.077	-87
1034.142	-183
1034.207	-1786
1034.271	-562
1034.336	490
1034.400	397
1034.465	-533
1034.530	-494
1034.594	-1177
1034.658	-1054
1034.723	-1584
1034.787	-689
1034.852	-1714
1034.916	-670
1034.981	-1090
1035.045	-1039
1035.109	-1604
1035.173	-679
1035.238	-1588
1035.302	-316
1035.366	-1731
1035.430	-1310
1035.495	-879
1035.559	-818
1035.623	-1129
1035.687	-1444
1035.751	-2075
1035.815	-742
1035.879	-1687
1035.943	-621
1036.007	-1818
1036.071	-1418
1036.135	-886
1036.198	-2163
1036.262	-1004
1036.326	-1475
1036.390	-1457
1036.454	-922
1036.517	-1338
1036.581	-1418
1036.645	-1191
1036.709	-783
1036.772	-1404
1036.836	-761
1036.900	-795
1036.963	-1476
1037.026	-1825
1037.090	-1598
1037.154	-1681
1037.217	-1436
1037.280	-1169
1037.344	-1363
1037.407	-2142
1037.471	-950
1037.534	-1861
1037.597	-1762
1037.661	-1778
1037.724	-690
1037.787	-1498
1037.850	-889
1037.913	-1203
1037.977	-716
1038.040	-1211
1038.103	-1448
1038.166	-1998
1038.229	-569
1038.292	-1580
1038.355	-1219
1038.418	-1742
1038.481	-1108
1038.544	-2023
1038.607	-1674
1038.670	-1167
1038.732	-1767
1038.795	-1600
1038.858	-1104
1038.921	-1030
1038.984	-1647
1039.046	-1338
1039.109	-1468
1039.172	-1346
1039.234	-1602
1039.297	-1439
1039.360	-665
1039.422	-1174
1039.485	-1148
1039.547	-1610
1039.610	-711
1039.672	-1638
1039.734	-1338
1039.797	-1443
1039.859	-1261
1039.922	-768
1039.984	-727
1040.046	-2185
1040.109	-851
1040.171	-1938
1040.233	-730
1040.295	-1663
1040.358	-1704
1040.420	-1702
1040.482	-1091
1040.544	-1439
1040.606	-1739
1040.668	-1525
1040.730	-1782
1040.792	-1490
1040.854	-1436
1040.916	-1597
1040.978	-1292
1041.040	-894
1041.102	-1245
1041.164	-2052
1041.225	-634
1041.287	-2472
1041.349	-2273
1041.411	-1440
1041.472	-794
1041.534	-2797
1041.596	-1974
1041.657	-1390
1041.719	-1287
1041.781	-1324
1041.842	-757
1041.904	-1073
1041.965	-1668
1042.027	-1988
1042.088	-12
1042.150	-1645
1042.211	-1292
1042.272	-841
1042.334	-803
1042.395	-1534
1042.456	-1223
1042.518	-2096
1042.579	-635
1042.640	-2125
1042.701	-1046
1042.763	-1740
1042.824	-1309
1042.885	-1406
1042.946	-1265
1043.007	-2010
1043.068	-1393
1043.129	-1930
1043.190	-1220
1043.251	-1822
1043.312	-1593
1043.373	-1289
1043.434	-1454
1043.495	-1691
1043.556	-1029
1043.616	-1763
1043.677	-689
1043.738	-1556
1043.799	-1959
1043.859	-2265
1043.920	-1762
1043.981	-1328
1044.041	-1169
1044.102	-1387
1044.162	-1299
1044.223	-1898
1044.284	-1048
1044.344	-1799
1044.405	-1306
1044.465	-1575
1044.525	-1025
1044.586	-1823
1044.646	-806
1044.707	-1371
1044.767	-937
1044.827	-1650
1044.887	-675
1044.948	-1721
1045.008	-1149
1045.068	-1895
1045.128	-1729
1045.188	-1084
1045.249	-363
1045.309	-1731
1045.369	-1393
1045.429	-1711
1045.489	-1398
1045.549	-1117
1045.609	-1106
1045.669	-854
1045.729	-1125
1045.789	-1741
1045.848	-1535
1045.908	-1825
1045.968	-1334
1046.028	-1164
1046.088	-1209
1046.147	-370
1046.207	-897
1046.267	-1072
1046.326	-784
1046.386	-1240
1046.446	-775
1046.505	-1319
1046.565	-205
1046.624	-1176
1046.684	-138
1046.743	-1208
1046.803	-1050
1046.862	-386
1046.922	0
