'Start Wavelength	183.907
'End Wavelength	1046.922
'Gate Delay	5.000
'Gate Width (ms)	1.050
'Laser Output Level	0.000
'X Position	0.000
'Y Position	0.000
'Z Position	0.000
'Grid Point Number	1.000
'Shot Number	100.000
183.907	923.000
183.977	313.000
184.047	169
184.116	-45
184.186	854
184.256	-534
184.325	84
184.395	-770
184.465	1012
184.534	219
184.604	741
184.674	675
184.743	272
184.813	-133
184.883	505
184.952	414
185.022	81
185.092	59
185.161	39
185.231	79
185.301	325
185.370	-444
185.440	775
185.509	267
185.579	356
185.649	180
185.718	469
185.788	417
185.857	-529
185.927	-480
185.996	856
186.066	1
186.136	-127
186.205	163
186.275	55
186.344	-230
186.414	226
186.483	428
186.553	446
186.622	758
186.692	199
186.761	594
186.831	440
186.900	-263
186.970	658
187.039	454
187.109	692
187.178	165
187.248	300
187.317	575
187.387	113
187.456	205
187.526	-17
187.595	306
187.664	441
187.734	-113
187.803	534
187.873	653
187.942	875
188.012	-469
188.081	294
188.150	274
188.220	609
188.289	8
188.358	238
188.428	326
188.497	-88
188.567	644
188.636	-223
188.705	693
188.775	196
188.844	-297
188.913	300
188.983	217
189.052	-308
189.121	-95
189.191	720
189.260	-266
189.329	594
189.399	-184
189.468	350
189.537	71
189.606	607
189.676	-163
189.745	892
189.814	258
189.883	106
189.953	3
190.022	1072
190.091	676
190.161	-261
190.230	423
190.299	-46
190.368	-228
190.437	423
190.507	-247
190.576	443
190.645	-107
190.714	277
190.783	208
190.853	-221
190.922	2
190.991	546
191.060	187
191.129	467
191.198	167
191.268	-331
191.337	-367
191.406	217
191.475	299
191.544	-68
191.613	-36
191.682	-292
191.752	-121
191.821	-168
191.890	11
191.959	-120
192.028	-215
192.097	795
192.166	276
192.235	594
192.304	275
192.373	-100
192.442	67
192.511	24
192.580	-288
192.650	425
192.719	-73
192.788	-14
192.857	-168
192.926	-124
192.995	208
193.064	825
193.133	-281
193.202	287
193.271	435
193.340	790
193.409	47
193.478	-25
193.547	603
193.615	8
193.684	-334
193.753	161
193.822	-20
193.891	654
193.960	-25
194.029	33
194.098	472
194.167	68
194.236	-247
194.305	34
194.374	459
194.443	95
194.512	36
194.580	305
194.649	85
194.718	1267
194.787	116
194.856	293
194.925	554
194.994	392
195.062	641
195.131	195
195.200	-41
195.269	584
195.338	434
195.407	702
195.475	66
195.544	605
195.613	-362
195.682	637
195.751	-158
195.819	-120
195.888	213
195.957	-254
196.026	-620
196.094	560
196.163	296
196.232	699
196.301	363
196.369	-88
196.438	167
196.507	496
196.576	-304
196.644	427
196.713	-243
196.782	735
196.850	709
196.919	237
196.988	388
197.056	417
197.125	-272
197.194	337
197.262	393
197.331	696
197.400	374
197.468	2
197.537	372
197.606	613
197.674	-634
197.743	227
197.812	285
197.880	578
197.949	116
198.017	265
198.086	282
198.155	-452
198.223	221
198.292	299
198.360	224
198.429	1096
198.497	-21
198.566	666
198.635	443
198.703	719
198.772	222
198.840	664
198.909	-163
198.977	-113
199.046	-488
199.114	135
199.183	-28
199.251	327
199.320	-234
199.388	74
199.457	-99
199.525	570
199.594	524
199.662	286
199.731	196
199.799	325
199.867	-508
199.936	-131
200.004	200
200.073	1154
200.141	493
200.210	312
200.278	-414
200.346	821
200.415	-254
200.483	227
200.552	-504
200.620	592
200.688	159
200.757	189
200.825	-73
200.893	-498
200.962	-52
201.030	592
201.098	-504
201.167	237
201.235	-178
201.303	-573
201.372	294
201.440	-215
201.508	-407
201.577	448
201.645	558
201.713	368
201.781	396
201.850	140
201.918	276
201.986	-299
202.055	-415
202.123	58
202.191	-228
202.259	-21
202.327	765
202.396	-71
202.464	-37
202.532	171
202.600	140
202.669	605
202.737	-562
202.805	301
202.873	-163
202.941	31
203.009	-116
203.078	276
203.146	-143
203.214	191
203.282	-178
203.350	30
203.418	154
203.487	-399
203.555	399
203.623	318
203.691	129
203.759	70
203.827	-115
203.895	267
203.963	-206
204.031	464
204.099	-139
204.168	-204
204.236	-65
204.304	-107
204.372	48
204.440	-61
204.508	-137
204.576	5
204.644	296
204.712	-315
204.780	560
204.848	67
204.916	-79
204.984	705
205.052	-339
205.120	192
205.188	210
205.256	533
205.324	193
205.392	-632
205.460	-258
205.528	225
205.596	106
205.664	-468
205.732	33
205.799	274
205.867	734
205.935	-508
206.003	-18
206.071	-95
206.139	-105
206.207	308
206.275	-165
206.343	237
206.411	-60
206.478	-65
206.546	56
206.614	85
206.682	-207
206.750	-50
206.818	369
206.885	554
206.953	-911
207.021	-54
207.089	542
207.157	416
207.225	-310
207.292	-38
207.360	68
207.428	185
207.496	-674
207.563	-443
207.631	283
207.699	-296
207.767	-690
207.834	374
207.902	746
207.970	1174
208.038	-71
208.105	19
208.173	508
208.241	332
208.309	222
208.376	341
208.444	-3
208.512	63
208.579	-784
208.647	945
208.715	634
208.782	402
208.850	210
208.918	375
208.985	66
209.053	677
209.120	364
209.188	-310
209.256	-157
209.323	207
209.391	-120
209.459	354
209.526	-401
209.594	281
209.661	704
209.729	659
209.796	-187
209.864	417
209.932	-311
209.999	127
210.067	233
210.134	-88
210.202	57
210.269	360
210.337	245
210.404	567
210.472	16
210.539	485
210.607	45
210.674	-320
210.742	-54
210.809	1161
210.877	-72
210.944	725
211.012	-516
211.079	933
211.146	474
211.214	110
211.281	178
211.349	-419
211.416	-150
211.484	624
211.551	-138
211.618	399
211.686	-172
211.753	445
211.821	315
211.888	-202
211.955	-98
212.023	616
212.090	-178
212.157	346
212.225	307
212.292	242
212.359	258
212.427	637
212.494	145
212.561	479
212.629	87
212.696	584
212.763	81
212.831	-167
212.898	406
212.965	-72
213.032	455
213.100	-371
213.167	664
213.234	837
213.301	840
213.369	184
213.436	-289
213.503	217
213.570	374
213.638	128
213.705	-191
213.772	-138
213.839	144
213.906	-322
213.973	261
214.041	645
214.108	152
214.175	557
214.242	-606
214.309	88
214.376	-408
214.444	691
214.511	372
214.578	629
214.645	118
214.712	-64
214.779	165
214.846	418
214.913	-190
214.980	-137
215.048	72
215.115	481
215.182	-130
215.249	522
215.316	-370
215.383	827
215.450	-129
215.517	-81
215.584	-46
215.651	-410
215.718	301
215.785	456
215.852	-865
215.919	-153
215.986	290
216.053	-187
216.120	-241
216.187	490
216.254	56
216.321	48
216.388	-936
216.455	480
216.522	10
216.589	-343
216.656	431
216.722	584
216.789	9
216.856	1083
216.923	-109
216.990	681
217.057	261
217.124	475
217.191	-164
217.258	290
217.324	55
217.391	502
217.458	542
217.525	438
217.592	598
217.659	322
217.725	-23
217.792	-383
217.859	-492
217.926	286
217.993	200
218.059	-43
218.126	151
218.193	-300
218.260	-530
218.327	12
218.393	-55
218.460	178
218.527	820
218.594	82
218.660	241
218.727	173
218.794	34
218.860	542
218.927	-54
218.994	-379
219.061	-1040
219.127	210
219.194	-155
219.261	357
219.327	362
219.394	203
219.461	-183
219.527	-293
219.594	243
219.661	38
219.727	-309
219.794	-101
219.860	-991
219.927	666
219.994	308
220.060	721
220.127	-53
220.193	813
220.260	218
220.326	335
220.393	317
220.460	775
220.526	146
220.593	-172
220.659	634
220.726	127
220.792	1142
220.859	190
220.925	1244
220.992	1455
221.058	1146
221.125	677
221.191	656
221.258	632
221.324	471
221.391	7
221.457	-433
221.524	202
221.590	27
221.657	1251
221.723	663
221.789	1016
221.856	76
221.922	103
221.989	143
222.055	-281
222.121	-675
222.188	1171
222.254	-384
222.321	86
222.387	-193
222.453	-271
222.520	260
222.586	-205
222.652	67
222.719	-60
222.785	-596
222.851	-623
222.918	-679
222.984	-367
223.050	-292
223.116	42
223.183	119
223.249	-63
223.315	-155
223.382	-278
223.448	107
223.514	-83
223.580	66
223.647	174
223.713	-401
223.779	-381
223.845	-328
223.911	895
223.978	102
224.044	474
224.110	-756
224.176	-70
224.242	-33
224.309	102
224.375	59
224.441	-301
224.507	-465
224.573	-551
224.639	-564
224.705	-653
224.772	-327
224.838	45
224.904	-58
224.970	-86
225.036	-536
225.102	117
225.168	66
225.234	249
225.300	-36
225.366	1198
225.432	299
225.499	332
225.565	-147
225.631	404
225.697	17
225.763	504
225.829	-317
225.895	74
225.961	-67
226.027	672
226.093	111
226.159	1066
226.225	644
226.291	2217
226.357	3057
226.423	1575
226.489	1121
226.554	995
226.620	942
226.686	-7
226.752	669
226.818	636
226.884	3156
226.950	2150
227.016	591
227.082	721
227.148	699
227.214	185
227.279	387
227.345	163
227.411	-373
227.477	-273
227.543	-117
227.609	-319
227.674	-20
227.740	-54
227.806	207
227.872	-511
227.938	226
228.003	338
228.069	263
228.135	-538
228.201	-264
228.267	16
228.332	-69
228.398	-387
228.464	277
228.530	-383
228.595	-355
228.661	-308
228.727	-516
228.792	0
228.858	-40
228.924	-628
228.990	28
229.055	-236
229.121	113
229.187	3
229.252	50
229.318	-63
229.384	-214
229.449	211
229.515	-858
229.581	-954
229.646	752
229.712	249
229.777	-201
229.843	-215
229.909	201
229.974	710
230.040	366
230.105	401
230.171	-49
230.236	335
230.302	-52
230.368	160
230.433	-356
230.499	124
230.564	937
230.630	-9
230.695	-2
230.761	408
230.826	-517
230.892	1167
230.957	-243
231.023	-50
231.088	-17
231.154	57
231.219	-399
231.284	79
231.350	-396
231.415	-93
231.481	323
231.546	272
231.612	-201
231.677	275
231.742	-735
231.808	487
231.873	-109
231.939	-340
232.004	649
232.069	615
232.135	-998
232.200	-391
232.265	-494
232.331	459
232.396	43
232.461	155
232.527	-714
232.592	104
232.657	-679
232.723	-66
232.788	-149
232.853	148
232.918	-420
232.984	-376
233.049	-442
233.114	-16
233.179	335
233.245	-670
233.310	-686
233.375	-45
233.440	54
233.506	-38
233.571	-636
233.636	268
233.701	187
233.766	601
233.832	-598
233.897	999
233.962	-273
234.027	605
234.092	214
234.157	24
234.222	-1339
234.288	-311
234.353	-214
234.418	637
234.483	138
234.548	554
234.613	189
234.678	324
234.743	-272
234.808	866
234.873	-504
234.938	642
235.004	-79
235.069	-88
235.134	-365
235.199	693
235.264	194
235.329	-68
235.394	-232
235.459	509
235.524	-321
235.589	219
235.654	-436
235.719	99
235.784	278
235.849	478
235.913	245
235.978	460
236.043	644
236.108	306
236.173	-324
236.238	-63
236.303	-42
236.368	-678
236.433	209
236.498	58
236.563	-61
236.627	1340
236.692	3700
236.757	3175
236.822	1087
236.887	-31
236.952	865
237.017	687
237.081	1693
237.146	1244
237.211	2617
237.276	4138
237.341	4676
237.405	2028
237.470	704
237.535	1061
237.600	170
237.664	1109
237.729	-542
237.794	730
237.859	576
237.923	590
237.988	553
238.053	791
238.118	300
238.182	700
238.247	1301
238.312	-103
238.376	628
238.441	-644
238.506	484
238.570	-691
238.635	734
238.700	99
238.764	-520
238.829	243
238.893	422
238.958	1023
239.023	-76
239.087	65
239.152	159
239.216	-306
239.281	-101
239.346	358
239.410	-195
239.475	-209
239.539	962
239.604	-615
239.668	108
239.733	-447
239.797	-682
239.862	145
239.926	-237
239.991	189
240.055	292
240.120	-477
240.184	515
240.249	-409
240.313	-549
240.378	-7
240.442	453
240.507	-111
240.571	-872
240.635	88
240.700	-62
240.764	55
240.829	-213
240.893	-124
240.957	-580
241.022	346
241.086	497
241.151	-465
241.215	-427
241.279	1025
241.344	-788
241.408	843
241.472	-535
241.537	410
241.601	-56
241.665	-325
241.730	-398
241.794	712
241.858	-148
241.922	282
241.987	589
242.051	533
242.115	9
242.179	453
242.244	-471
242.308	724
242.372	-227
242.436	-175
242.501	143
242.565	-159
242.629	-721
242.693	634
242.757	-369
242.822	196
242.886	172
242.950	1088
243.014	199
243.078	-164
243.142	-574
243.206	100
243.271	-47
243.335	-88
243.399	-373
243.463	1713
243.527	2795
243.591	1360
243.655	928
243.719	241
243.783	190
243.847	538
243.911	883
243.975	724
244.040	-440
244.104	1239
244.168	-546
244.232	253
244.296	304
244.360	805
244.424	-811
244.488	144
244.552	50
244.615	415
244.679	-309
244.743	-376
244.807	-655
244.871	1028
244.935	103
244.999	-737
245.063	-177
245.127	552
245.191	-162
245.255	-1016
245.319	-202
245.383	-352
245.446	714
245.510	78
245.574	-94
245.638	521
245.702	-925
245.766	1157
245.829	624
245.893	-582
245.957	-571
246.021	-134
246.085	-363
246.149	-556
246.212	1188
246.276	711
246.340	45
246.404	504
246.467	625
246.531	-361
246.595	365
246.659	401
246.722	-460
246.786	452
246.850	100
246.913	110
246.977	-114
247.041	-75
247.104	211
247.168	937
247.232	369
247.295	1113
247.359	-14
247.423	264
247.486	343
247.550	271
247.614	202
247.677	824
247.741	-221
247.804	-280
247.868	270
247.932	706
247.995	943
248.059	-114
248.122	-481
248.186	1243
248.249	1201
248.313	3714
248.376	2954
248.440	1917
248.503	-195
248.567	1219
248.630	660
248.694	1324
248.757	2353
248.821	3353
248.884	1724
248.948	1441
249.011	2082
249.075	3715
249.138	2724
249.202	1874
249.265	110
249.328	1009
249.392	-593
249.455	776
249.519	131
249.582	512
249.645	141
249.709	253
249.772	9
249.835	774
249.899	-211
249.962	1061
250.025	111
250.089	1141
250.152	1498
250.215	605
250.279	-196
250.342	440
250.405	749
250.468	751
250.532	533
250.595	1776
250.658	4969
250.721	6825
250.785	1659
250.848	2412
250.911	-202
250.974	1307
251.038	1065
251.101	1782
251.164	301
251.227	1111
251.290	1202
251.354	2712
251.417	7195
251.480	5018
251.543	4935
251.606	12130
251.669	7429
251.732	3424
251.795	3090
251.859	2945
251.922	6557
251.985	3379
252.048	1886
252.111	822
252.174	565
252.237	2193
252.300	4031
252.363	5630
252.426	8757
252.489	2708
252.552	1074
252.615	1258
252.678	1480
252.741	2973
252.804	4112
252.867	8606
252.930	4579
252.993	1903
253.056	1837
253.119	761
253.182	188
253.245	1052
253.308	1351
253.371	655
253.434	31
253.497	1499
253.559	1680
253.622	749
253.685	321
253.748	1115
253.811	-134
253.874	1107
253.937	-44
254.000	269
254.062	830
254.125	953
254.188	2250
254.251	910
254.314	410
254.376	907
254.439	1001
254.502	1074
254.565	773
254.628	1481
254.690	296
254.753	417
254.816	-165
254.878	-50
254.941	793
255.004	640
255.067	498
255.129	351
255.192	13
255.255	-1078
255.317	213
255.380	577
255.443	-1029
255.505	271
255.568	-999
255.631	84
255.693	-607
255.756	-313
255.819	449
255.881	-26
255.944	-28
256.006	422
256.069	36
256.132	106
256.194	430
256.257	376
256.319	144
256.382	47
256.444	444
256.507	184
256.569	-519
256.632	94
256.694	-128
256.757	4128
256.819	7295
256.882	1690
256.944	232
257.007	1083
257.069	186
257.132	1152
257.194	93
257.257	191
257.319	-107
257.381	-33
257.444	2498
257.506	9326
257.569	7090
257.631	2676
257.693	1628
257.756	695
257.818	-172
257.880	444
257.943	260
258.005	44
258.067	-370
258.130	217
258.192	57
258.254	600
258.317	-492
258.379	438
258.441	8
258.503	1078
258.566	-136
258.628	1231
258.690	311
258.753	1302
258.815	-389
258.877	111
258.939	723
259.001	740
259.064	38
259.126	-377
259.188	-54
259.250	178
259.312	-435
259.375	1020
259.437	-162
259.499	459
259.561	-579
259.623	-260
259.685	-369
259.747	663
259.809	562
259.872	1976
259.934	2098
259.996	2981
260.058	-51
260.120	-132
260.182	-40
260.244	-548
260.306	-733
260.368	675
260.430	-591
260.492	708
260.554	1320
260.616	534
260.678	1550
260.740	914
260.802	-840
260.864	1120
260.926	-287
260.988	506
261.050	462
261.112	1440
261.174	2540
261.236	187
261.298	-125
261.359	167
261.421	1367
261.483	-252
261.545	417
261.607	-969
261.669	659
261.731	103
261.793	-213
261.854	-13
261.916	-215
261.978	-351
262.040	170
262.102	772
262.164	-806
262.225	556
262.287	-43
262.349	102
262.411	78
262.472	-201
262.534	-240
262.596	-55
262.658	-345
262.719	-647
262.781	-392
262.843	-323
262.904	192
262.966	-218
263.028	-405
263.090	2254
263.151	4212
263.213	1300
263.275	684
263.336	-776
263.398	495
263.459	-907
263.521	-639
263.583	-68
263.644	89
263.706	-30
263.767	-1736
263.829	-196
263.891	-384
263.952	-747
264.014	-706
264.075	-315
264.137	1257
264.198	206
264.260	-1473
264.321	-982
264.383	50
264.444	2234
264.506	-502
264.567	-7
264.629	990
264.690	1992
264.752	333
264.813	-303
264.875	-1213
264.936	-537
264.998	-370
265.059	123
265.120	-604
265.182	495
265.243	5088
265.305	3897
265.366	172
265.427	-155
265.489	-444
265.550	-1262
265.611	-38
265.673	-287
265.734	-518
265.795	551
265.857	-674
265.918	-29
265.979	1558
266.040	8156
266.102	4614
266.163	1419
266.224	457
266.286	542
266.347	-889
266.408	-30
266.469	-497
266.530	-695
266.592	-801
266.653	25
266.714	277
266.775	515
266.836	-991
266.898	-326
266.959	-305
267.020	-587
267.081	410
267.142	-925
267.203	-767
267.264	-1385
267.326	-179
267.387	-306
267.448	-1111
267.509	-755
267.570	-387
267.631	-538
267.692	-892
267.753	-107
267.814	-717
267.875	1106
267.936	759
267.997	610
268.058	282
268.119	-296
268.180	-774
268.241	-1559
268.302	-454
268.363	-286
268.424	-54
268.485	-578
268.546	-928
268.607	-669
268.668	-578
268.729	-965
268.790	-602
268.851	154
268.912	185
268.972	-365
269.033	-563
269.094	-540
269.155	509
269.216	-472
269.277	-410
269.338	-199
269.398	-712
269.459	-823
269.520	358
269.581	-187
269.642	-794
269.702	-560
269.763	-545
269.824	-244
269.885	-702
269.945	1155
270.006	-390
270.067	-123
270.128	-829
270.188	-36
270.249	-956
270.310	-1237
270.370	-163
270.431	-633
270.492	-398
270.553	-791
270.613	-604
270.674	480
270.734	-196
270.795	-159
270.856	-267
270.916	-1067
270.977	-245
271.038	442
271.098	-546
271.159	-374
271.219	-788
271.280	-292
271.340	-614
271.401	-599
271.462	-988
271.522	-720
271.583	-423
271.643	-364
271.704	-619
271.764	-61
271.825	381
271.885	4168
271.946	2857
272.006	1034
272.066	1813
272.127	2797
272.187	-25
272.248	-327
272.308	-530
272.369	1563
272.429	-37
272.489	283
272.550	-740
272.610	444
272.671	-650
272.731	823
272.791	222
272.852	-432
272.912	-606
272.972	-48
273.033	-509
273.093	-600
273.153	-699
273.214	789
273.274	-972
273.334	2385
273.394	1821
273.455	-186
273.515	971
273.575	1952
273.635	67
273.696	726
273.756	2306
273.816	477
273.876	95
273.936	-129
273.997	1439
274.057	-367
274.117	-1010
274.177	330
274.237	4297
274.297	2818
274.358	955
274.418	2432
274.478	417
274.538	232
274.598	-712
274.658	888
274.718	928
274.778	126
274.838	-814
274.898	-129
274.958	871
275.018	2453
275.078	1004
275.138	344
275.198	-885
275.258	-239
275.318	-320
275.378	48
275.438	-163
275.498	351
275.558	178
275.618	2162
275.678	453
275.738	1323
275.798	-323
275.858	-35
275.918	-450
275.978	-457
276.038	-962
276.098	176
276.157	-522
276.217	1965
276.277	249
276.337	473
276.397	-567
276.457	151
276.517	-694
276.576	-5
276.636	-1182
276.696	-715
276.756	1652
276.815	-137
276.875	-512
276.935	-1171
276.995	-142
277.055	-747
277.114	-1023
277.174	164
277.234	1021
277.293	216
277.353	-617
277.413	-562
277.472	-829
277.532	-827
277.592	-263
277.651	1057
277.711	1062
277.771	-654
277.830	2887
277.890	1398
277.950	827
278.009	4683
278.069	607
278.128	1579
278.188	453
278.248	337
278.307	2353
278.367	1809
278.426	-234
278.486	-464
278.545	-660
278.605	-825
278.664	-571
278.724	-989
278.783	1151
278.843	2796
278.902	-425
278.962	-512
279.021	-611
279.081	213
279.140	-558
279.199	152
279.259	343
279.318	288
279.378	-181
279.437	1492
279.496	4782
279.556	14560
279.615	8120
279.675	1454
279.734	1495
279.793	1917
279.853	3331
279.912	761
279.971	-45
280.031	-589
280.090	942
280.149	1917
280.208	1450
280.268	10891
280.327	7623
280.386	1030
280.445	1356
280.505	653
280.564	46
280.623	-250
280.682	471
280.742	1695
280.801	-378
280.860	-381
280.919	-664
280.978	-448
281.037	-873
281.097	-1161
281.156	-943
281.215	-352
281.274	-292
281.333	1528
281.392	197
281.451	-542
281.510	-403
281.569	-257
281.628	-1138
281.688	-300
281.747	-285
281.806	228
281.865	-546
281.924	-168
281.983	-418
282.042	-1297
282.101	-1082
282.160	228
282.219	-1021
282.278	-270
282.337	52
282.396	-541
282.454	-213
282.513	-267
282.572	1189
282.631	115
282.690	-719
282.749	-902
282.808	-503
282.867	-904
282.926	-522
282.985	-291
283.043	-938
283.102	-356
283.161	-892
283.220	-159
283.279	1816
283.338	119
283.396	-312
283.455	-380
283.514	-1016
283.573	-142
283.631	-538
283.690	-508
283.749	-517
283.808	53
283.866	274
283.925	-1250
283.984	292
284.043	-269
284.101	202
284.160	-1063
284.219	-638
284.277	-604
284.336	-48
284.395	2990
284.453	1603
284.512	109
284.570	-384
284.629	505
284.688	-97
284.746	-556
284.805	-477
284.863	-144
284.922	202
284.981	850
285.039	1893
285.098	5331
285.156	13012
285.215	22669
285.273	21713
285.332	12917
285.390	6092
285.449	4047
285.507	2399
285.566	820
285.624	1123
285.683	506
285.741	-311
285.799	309
285.858	274
285.916	572
285.975	-430
286.033	-1106
286.091	-780
286.150	-871
286.208	-578
286.267	57
286.325	-241
286.383	621
286.442	-782
286.500	-1022
286.558	-700
286.616	-893
286.675	57
286.733	-254
286.791	-1122
286.850	318
286.908	-134
286.966	13
287.024	-969
287.083	-46
287.141	-436
287.199	-445
287.257	171
287.315	-496
287.374	-146
287.432	697
287.490	-330
287.548	-685
287.606	-804
287.664	-471
287.723	-699
287.781	741
287.839	-721
287.897	23
287.955	-101
288.013	546
288.071	2597
288.129	14885
288.187	31342
288.245	12375
288.303	3121
288.361	1404
288.419	553
288.477	636
288.535	583
288.593	674
288.651	3
288.709	-1032
288.767	-460
288.825	-973
288.883	-1317
288.941	-129
288.999	-592
289.057	-127
289.115	-1052
289.173	-60
289.231	-428
289.289	-941
289.346	-158
289.404	-1442
289.462	-402
289.520	120
289.578	-510
289.636	-812
289.694	-1050
289.751	-103
289.809	-779
289.867	-545
289.925	-459
289.983	-615
290.040	-742
290.098	-748
290.156	-927
290.214	-309
290.271	-1065
290.329	-898
290.387	-979
290.444	-750
290.502	-1637
290.560	-201
290.617	-612
290.675	-378
290.733	-1061
290.790	-12
290.848	-926
290.906	298
290.963	-350
291.021	-883
291.078	-1021
291.136	-199
291.194	1448
291.251	2960
291.309	-243
291.366	-663
291.424	-940
291.481	-893
291.539	-1027
291.596	-187
291.654	-1226
291.711	-499
291.769	-531
291.826	-290
291.884	-1078
291.941	-579
291.999	-682
292.056	-152
292.114	-864
292.171	-147
292.228	-486
292.286	-499
292.343	-501
292.401	-215
292.458	-971
292.515	-433
292.573	-592
292.630	-509
292.687	-772
292.745	-1132
292.802	-496
292.859	1807
292.917	1819
292.974	262
293.031	-108
293.089	-978
293.146	-277
293.203	-860
293.260	-858
293.318	-342
293.375	361
293.432	-1257
293.489	-194
293.546	-523
293.604	-250
293.661	1657
293.718	4266
293.775	2374
293.832	-93
293.889	-132
293.947	91
294.004	-334
294.061	405
294.118	1481
294.175	3773
294.232	5284
294.289	967
294.346	1063
294.403	317
294.460	-278
294.517	-706
294.574	-473
294.631	-1271
294.688	131
294.745	1248
294.802	6796
294.859	7643
294.916	1829
294.973	-65
295.030	-116
295.087	40
295.144	226
295.201	163
295.258	-677
295.315	1
295.372	2110
295.429	3245
295.486	1205
295.542	654
295.599	4304
295.656	7377
295.713	3711
295.770	3055
295.827	508
295.883	473
295.940	243
295.997	377
296.054	405
296.111	-452
296.167	57
296.224	-839
296.281	-529
296.338	-773
296.394	-679
296.451	323
296.508	1331
296.564	3323
296.621	2763
296.678	4098
296.734	5728
296.791	1504
296.848	625
296.904	1060
296.961	2791
297.018	4011
297.074	2577
297.131	450
297.187	120
297.244	-243
297.301	5380
297.357	6663
297.414	1638
297.470	514
297.527	-541
297.583	-792
297.640	-116
297.696	-600
297.753	-286
297.809	76
297.866	-340
297.922	283
297.979	-665
298.035	-343
298.092	197
298.148	2114
298.204	2053
298.261	608
298.317	2471
298.374	5349
298.430	2973
298.486	24
298.543	-228
298.599	-343
298.656	241
298.712	1692
298.768	5154
298.824	3052
298.881	446
298.937	193
298.993	256
299.050	94
299.106	68
299.162	-97
299.218	635
299.275	-693
299.331	-306
299.387	983
299.443	4760
299.500	4077
299.556	845
299.612	104
299.668	-319
299.724	-417
299.780	-295
299.837	-598
299.893	491
299.949	3632
300.005	4647
300.061	3861
300.117	6770
300.173	2637
300.229	392
300.285	1130
300.341	797
300.397	37
300.453	-485
300.510	-781
300.566	-549
300.622	-868
300.678	823
300.734	2827
300.790	4204
300.845	4108
300.901	1756
300.957	3394
301.013	2465
301.069	123
301.125	238
301.181	-267
301.237	-85
301.293	-418
301.349	-478
301.405	-380
301.461	-351
301.516	-638
301.572	622
301.628	449
301.684	451
301.740	1860
301.796	2382
301.851	1287
301.907	2460
301.963	3192
302.019	6278
302.074	14623
302.130	13587
302.186	5570
302.242	3151
302.297	365
302.353	846
302.409	2932
302.464	2146
302.520	2080
302.576	5311
302.631	5827
302.687	3127
302.743	712
302.798	24
302.854	-190
302.910	701
302.965	706
303.021	1289
303.076	1912
303.132	1658
303.187	1662
303.243	335
303.299	275
303.354	543
303.410	-240
303.465	-324
303.521	238
303.576	32
303.632	-265
303.687	1483
303.743	4454
303.798	3655
303.853	1069
303.909	261
303.964	-417
304.020	1261
304.075	2017
304.130	1825
304.186	2766
304.241	3391
304.297	2031
304.352	900
304.358	757
304.407	-398
304.449	72
304.463	231
304.518	349
304.539	108
304.573	-279
304.629	283
304.630	290
304.684	547
304.720	2527
304.739	3545
304.794	4793
304.811	4090
304.850	2384
304.902	404
304.905	277
304.960	401
304.992	447
305.015	461
305.071	-29
305.083	75
305.126	475
305.173	-107
305.181	-203
305.236	-195
305.264	-88
305.292	20
305.347	343
305.354	250
305.402	-319
305.445	286
305.457	447
305.512	6
305.535	372
305.567	904
305.622	395
305.626	494
305.678	2163
305.716	4160
305.733	4972
305.788	5485
305.807	4685
305.843	3091
305.897	4461
305.898	4482
305.953	4281
305.988	2843
306.008	1959
306.063	412
306.078	339
306.118	206
306.168	-118
306.173	-141
306.228	215
306.259	52
306.283	-54
306.338	145
306.349	72
306.393	-291
306.440	669
306.448	840
306.503	102
306.530	280
306.558	618
306.613	2239
306.620	2499
306.668	4035
306.711	4293
306.723	4283
306.778	3536
306.801	2844
306.833	1879
306.888	769
306.892	690
306.943	29
306.982	398
306.997	503
307.052	-59
307.072	198
307.107	748
307.162	638
307.163	639
307.217	781
307.253	1186
307.272	1348
307.327	1566
307.343	1361
307.381	872
307.434	759
307.436	792
307.491	1670
307.524	3396
307.546	4212
307.600	4202
307.614	3814
307.655	2312
307.704	593
307.710	485
307.765	1070
307.795	1800
307.819	2384
307.874	3150
307.885	3126
307.929	2683
307.975	2314
307.984	2311
308.038	2767
308.065	4174
308.093	6699
308.148	14831
308.156	16699
308.202	27755
308.246	32230
308.257	31717
308.312	18929
308.336	14398
308.366	10753
308.421	6023
308.426	5726
308.475	3611
308.517	2529
308.530	2265
308.585	1993
308.607	1887
308.639	1855
308.694	1403
308.697	1460
308.748	2867
308.787	3828
308.803	3905
308.857	3191
308.877	2705
308.912	2067
308.967	2439
308.967	2445
309.021	2965
309.058	3842
309.076	4632
309.130	8260
309.148	10095
309.185	17092
309.238	30682
309.239	30815
309.293	37081
309.328	35430
309.348	31157
309.402	16694
309.418	13293
309.457	9085
309.508	5656
309.511	5489
309.566	3933
309.598	3259
309.620	3146
309.674	3436
309.688	3622
309.729	3980
309.778	3270
309.783	3174
309.837	2773
309.868	2556
309.892	2552
309.946	3218
309.959	3542
310.001	5319
310.049	6494
310.055	6322
310.109	4379
310.139	3125
310.163	2398
310.218	1114
310.229	946
310.272	872
310.319	871
310.326	842
310.381	669
310.409	606
310.435	571
310.489	492
310.499	433
310.543	189
310.589	236
310.598	326
310.652	824
310.679	1037
310.706	969
310.760	743
310.769	738
310.814	464
310.859	-7
310.868	35
310.923	429
310.948	567
310.977	585
311.031	670
311.038	673
311.085	729
311.128	852
311.139	848
311.193	708
311.218	635
311.247	584
311.301	540
311.308	524
311.356	278
311.398	126
311.410	268
311.464	803
311.488	1093
311.518	848
311.572	412
311.578	350
311.626	218
311.668	214
311.680	329
311.734	709
311.758	933
311.788	798
311.842	476
311.847	451
311.896	785
311.937	1052
311.950	1019
312.004	909
312.027	849
312.058	667
312.112	371
312.117	346
312.165	747
312.207	1097
312.297	1286
312.386	663
312.476	134
312.566	845
312.656	1212
312.745	1341
312.835	820
312.925	1145
313.015	-64
313.104	706
313.194	529
313.284	564
313.374	1347
313.463	1086
313.553	543
313.643	15
313.732	-33
313.822	341
313.912	407
314.001	334
314.091	755
314.180	843
314.270	474
314.360	409
314.449	288
314.539	462
314.628	472
314.718	466
314.808	874
314.897	570
314.987	334
315.076	537
315.166	755
315.255	807
315.345	718
315.434	1430
315.524	508
315.613	75
315.703	570
315.792	647
315.881	707
315.971	106
316.060	935
316.150	997
316.239	1099
316.328	667
316.418	584
316.507	607
316.597	568
316.686	1049
316.775	397
316.865	2017
316.954	303
317.043	750
317.133	716
317.222	796
317.311	214
317.400	138
317.490	906
317.579	30
317.668	599
317.757	-62
317.847	1935
317.936	347
318.025	955
318.114	633
318.203	768
318.293	1355
318.382	2790
318.471	1995
318.560	2474
318.649	6886
318.738	1967
318.828	652
318.917	891
319.006	992
319.095	2000
319.184	7358
319.273	4865
319.362	1847
319.451	473
319.540	707
319.629	950
319.718	2309
319.807	1574
319.896	2449
319.985	9282
320.074	4085
320.163	904
320.252	1063
320.341	1456
320.430	1226
320.519	1456
320.608	429
320.697	575
320.786	161
320.875	546
320.964	1406
321.053	1103
321.142	1696
321.230	1528
321.319	1788
321.408	3270
321.497	1813
321.586	1530
321.675	1239
321.764	1376
321.852	1506
321.941	1646
322.030	1084
322.119	1146
322.207	3472
322.296	2358
322.385	1039
322.474	568
322.562	3202
322.651	2408
322.740	1056
322.829	2000
322.917	1700
323.006	611
323.095	631
323.183	921
323.272	1232
323.361	1611
323.449	6156
323.538	2637
323.626	3584
323.715	3380
323.804	415
323.892	2334
323.981	2651
324.069	949
324.158	1733
324.246	2685
324.335	894
324.424	1651
324.512	261
324.601	950
324.689	1343
324.778	1707
324.866	1221
324.954	1214
325.043	438
325.131	630
325.220	2122
325.308	983
325.397	2008
325.485	818
325.574	-106
325.662	-37
325.750	-121
325.839	415
325.927	178
326.015	339
326.104	534
326.192	1327
326.280	24
326.369	411
326.457	415
326.545	241
326.634	53
326.722	1063
326.810	-122
326.898	398
326.987	818
327.075	-56
327.163	677
327.251	-312
327.340	847
327.428	1417
327.516	428
327.604	108
327.692	592
327.781	164
327.869	1104
327.957	825
328.045	-432
328.133	592
328.221	604
328.309	588
328.397	67
328.485	692
328.574	347
328.662	1917
328.750	738
328.838	434
328.926	330
329.014	593
329.102	452
329.190	1461
329.278	1272
329.366	-313
329.454	359
329.542	-342
329.630	-162
329.718	205
329.806	207
329.893	1348
329.981	387
330.069	2017
330.157	6074
330.245	18903
330.333	13396
330.421	1947
330.509	1396
330.597	1711
330.684	2135
330.772	586
330.860	1460
330.948	1810
331.036	821
331.123	-296
331.211	32
331.299	464
331.387	661
331.475	2639
331.562	532
331.650	-221
331.738	-552
331.825	301
331.913	-119
332.001	539
332.089	-321
332.176	227
332.264	1046
332.352	818
332.439	-508
332.527	356
332.614	31
332.702	-227
332.790	296
332.877	472
332.965	1278
333.052	-287
333.140	-289
333.228	876
333.315	90
333.403	108
333.490	581
333.578	345
333.665	608
333.753	8
333.840	-75
333.928	326
334.015	1255
334.103	2287
334.190	8956
334.278	2668
334.365	690
334.452	267
334.540	96
334.627	146
334.715	551
334.802	1030
334.889	5046
334.977	7486
335.064	1246
335.151	325
335.239	1100
335.326	-2
335.413	4136
335.501	8140
335.588	1763
335.675	220
335.762	405
335.850	1299
335.937	868
336.024	1143
336.111	6749
336.199	3986
336.286	796
336.373	312
336.460	111
336.547	-173
336.635	303
336.722	629
336.809	629
336.896	-364
336.983	2103
337.070	7116
337.157	10037
337.245	5073
337.332	4140
337.419	191
337.506	-116
337.593	535
337.680	1540
337.767	7625
337.854	2139
337.941	2157
338.028	1767
338.115	329
338.202	766
338.289	464
338.376	4204
338.463	1552
338.550	3280
338.637	6031
338.724	665
338.811	382
338.898	79
338.984	24
339.071	-54
339.158	1021
339.245	547
339.332	719
339.419	972
339.506	1182
339.593	162
339.679	-520
339.766	-197
339.853	-368
339.940	-127
340.027	-117
340.113	28
340.200	-514
340.287	308
340.374	307
340.460	13
340.547	90
340.634	-238
340.720	1733
340.807	853
340.894	-790
340.980	-337
341.067	-549
341.154	-250
341.240	-148
341.327	548
341.414	214
341.500	222
341.587	-189
341.674	-6
341.760	-133
341.847	-96
341.933	319
342.020	-157
342.106	-400
342.193	-818
342.279	394
342.366	-56
342.452	89
342.539	-18
342.625	395
342.712	1308
342.798	671
342.885	-81
342.971	-471
343.058	-381
343.144	-438
343.230	-86
343.317	-197
343.403	-481
343.490	-546
343.576	-613
343.662	-284
343.749	152
343.835	90
343.921	213
344.008	2937
344.094	11050
344.180	3240
344.267	959
344.353	2024
344.439	3277
344.525	1080
344.612	676
344.698	1404
344.784	547
344.870	210
344.957	-601
345.043	-100
345.129	-356
345.215	513
345.301	-110
345.387	-45
345.474	-103
345.560	164
345.646	-379
345.732	-432
345.818	586
345.904	176
345.990	-229
346.076	-312
346.162	105
346.249	-81
346.335	-776
346.421	264
346.507	835
346.593	3596
346.679	1010
346.765	249
346.851	-128
346.937	56
347.023	763
347.108	-71
347.194	-373
347.280	238
347.366	215
347.452	839
347.538	3629
347.624	4230
347.710	3253
347.796	60
347.882	-198
347.967	-433
348.053	-136
348.139	453
348.225	-635
348.311	-418
348.397	-711
348.482	397
348.568	-347
348.654	-607
348.740	-161
348.825	-863
348.911	649
348.997	1074
349.083	5150
349.168	742
349.254	-407
349.340	-119
349.425	-344
349.511	-1036
349.597	-523
349.682	78
349.768	2429
349.854	1469
349.939	-229
350.025	-376
350.110	-297
350.196	-263
350.282	-1327
350.367	-559
350.453	76
350.538	-213
350.624	-103
350.709	455
350.795	-179
350.880	-198
350.966	-134
351.051	-372
351.137	-190
351.222	-194
351.308	367
351.393	2548
351.479	257
351.564	-705
351.649	644
351.735	255
351.820	-404
351.906	-820
351.991	-375
352.076	1103
352.162	2630
352.247	453
352.332	72
352.418	81
352.503	369
352.588	3100
352.673	2679
352.759	218
352.844	-808
352.929	80
353.014	-589
353.100	-703
353.185	-258
353.270	-207
353.355	12
353.441	-327
353.526	149
353.611	121
353.696	-236
353.781	-93
353.866	-565
353.952	-184
354.037	103
354.122	1333
354.207	270
354.292	774
354.377	225
354.462	269
354.547	171
354.632	-532
354.717	51
354.802	240
354.887	-878
354.972	-646
355.057	-615
355.142	-955
355.227	-592
355.312	212
355.397	711
355.482	1568
355.567	1118
355.652	185
355.737	29
355.822	2417
355.907	2629
355.991	-131
356.076	-903
356.161	-266
356.246	-1271
356.331	-60
356.416	-182
356.501	4756
356.585	6001
356.670	160
356.755	619
356.840	526
356.924	2234
357.009	11628
357.094	5887
357.179	96
357.263	-63
357.348	-457
357.433	203
357.517	243
357.602	-592
357.687	-34
357.771	157
357.856	1387
357.941	1841
358.025	1652
358.110	11683
358.195	7832
358.279	-129
358.364	488
358.448	1342
358.533	4957
358.617	4168
358.702	3948
358.787	1161
358.871	620
358.956	-428
359.040	-435
359.125	-654
359.209	-829
359.294	758
359.378	2175
359.462	-176
359.547	-220
359.631	-19
359.716	-686
359.800	-252
359.885	38
359.969	-479
360.053	-100
360.138	-354
360.222	-276
360.306	135
360.391	573
360.475	499
360.559	2219
360.644	1371
360.728	-21
360.812	2393
360.896	8705
360.981	3539
361.065	1530
361.149	656
361.233	130
361.318	-498
361.402	-803
361.486	-237
361.570	-103
361.654	-997
361.739	-106
361.823	3080
361.907	8841
361.991	1675
362.075	190
362.159	18
362.243	1028
362.327	-518
362.411	-155
362.495	1
362.580	-443
362.664	-355
362.748	-719
362.832	-705
362.916	-802
363.000	822
363.084	2996
363.168	9449
363.252	2526
363.336	-188
363.420	374
363.503	6007
363.587	9822
363.671	800
363.755	113
363.839	86
363.923	-883
364.007	240
364.091	718
364.175	451
364.258	10590
364.342	6222
364.426	1502
364.510	-331
364.594	1367
364.677	831
364.761	5434
364.845	6368
364.929	936
365.013	444
365.096	607
365.180	67
365.264	1054
365.347	12332
365.431	6229
365.515	581
365.598	-611
365.682	-161
365.766	-240
365.849	1406
365.933	-587
366.017	343
366.100	321
366.184	-369
366.267	-50
366.351	-928
366.435	-840
366.518	-338
366.602	-642
366.685	-898
366.769	-1078
366.852	-115
366.936	318
367.019	84
367.103	277
367.186	1656
367.270	-211
367.353	-1054
367.436	106
367.520	-63
367.603	-540
367.687	-780
367.770	-253
367.853	110
367.937	1184
368.020	4517
368.104	156
368.187	320
368.270	-38
368.353	183
368.437	477
368.520	2309
368.603	641
368.687	1146
368.770	5273
368.853	1219
368.936	227
369.020	1377
369.103	-510
369.186	-872
369.269	-419
369.352	37
369.436	-247
369.519	459
369.602	-1217
369.685	-85
369.768	-303
369.851	-51
369.934	-515
370.018	-751
370.101	76
370.184	498
370.267	300
370.350	686
370.433	621
370.516	2224
370.599	4939
370.682	-337
370.765	2154
370.848	2493
370.931	6148
371.014	2860
371.097	-383
371.180	-450
371.263	-822
371.346	-961
371.429	-147
371.511	-137
371.594	-227
371.677	705
371.760	1501
371.843	43
371.926	3058
372.009	11188
372.091	5412
372.174	903
372.257	5488
372.340	2595
372.423	1454
372.505	3027
372.588	-221
372.671	1051
372.754	4570
372.836	2693
372.919	1873
373.002	7259
373.085	1321
373.167	557
373.250	1378
373.332	5500
373.415	6137
373.498	14605
373.580	6871
373.663	4967
373.746	10176
373.828	2010
373.911	692
373.993	584
374.076	5059
374.159	7552
374.241	1180
374.324	3918
374.406	3581
374.489	2920
374.571	13170
374.654	6547
374.736	1513
374.819	5838
374.901	10469
374.983	12385
375.066	2464
375.148	-74
375.231	2321
375.313	10812
375.395	3772
375.478	265
375.560	324
375.643	126
375.725	660
375.807	7297
375.890	9232
375.972	2209
376.054	291
376.136	1486
376.219	-120
376.301	1353
376.383	7213
376.465	3407
376.548	556
376.630	995
376.712	5887
376.794	3781
376.877	-287
376.959	-730
377.041	-145
377.123	645
377.205	1751
377.287	-635
377.369	-209
377.452	-277
377.534	-920
377.616	-258
377.698	-457
377.780	-1060
377.862	-1303
377.944	-657
378.026	-870
378.108	-439
378.190	-166
378.272	-230
378.354	-86
378.436	95
378.518	-501
378.600	1990
378.682	1251
378.764	1592
378.846	2585
378.928	-77
379.010	-168
379.091	97
379.173	-455
379.255	-1017
379.337	-632
379.419	-22
379.501	3731
379.583	2235
379.664	-716
379.746	-613
379.828	2025
379.910	3369
379.991	4014
380.073	203
380.155	-142
380.237	-218
380.318	-1362
380.400	-737
380.482	-107
380.564	410
380.645	-312
380.727	-143
380.809	-637
380.890	-765
380.972	-909
381.053	-828
381.135	-986
381.217	-504
381.298	2667
381.380	86
381.461	-141
381.543	5543
381.624	7783
381.706	1420
381.787	298
381.869	-109
381.951	1164
382.032	9079
382.113	9384
382.195	388
382.276	618
382.358	545
382.439	4820
382.521	5975
382.602	11170
382.684	5036
382.765	6043
382.846	6774
382.928	6402
383.009	3276
383.090	548
383.172	6795
383.253	16344
383.334	6037
383.416	8286
383.497	5546
383.578	174
383.659	1945
383.741	5379
383.822	22476
383.903	13680
383.984	2965
384.066	10444
384.147	7066
384.228	717
384.309	126
384.390	126
384.471	501
384.553	-357
384.634	-439
384.715	-223
384.796	-1044
384.877	-267
384.958	1926
385.039	4073
385.120	990
385.201	536
385.282	-25
385.363	372
385.444	-794
385.525	-130
385.606	3233
385.687	4238
385.768	533
385.849	115
385.930	4189
386.011	10507
386.092	1747
386.173	-525
386.254	-865
386.335	790
386.416	-430
386.496	121
386.577	3678
386.658	149
386.739	-332
386.820	-314
386.901	-712
386.981	-489
387.062	-1255
387.143	-987
387.224	1271
387.304	3330
387.385	450
387.466	-1251
387.547	792
387.627	-859
387.708	-1104
387.789	3901
387.869	7217
387.950	2105
388.031	-489
388.111	-1682
388.192	1114
388.273	1883
388.353	419
388.434	-366
388.514	-42
388.595	4413
388.676	7048
388.756	3476
388.837	1390
388.917	872
388.998	-973
389.078	-112
389.159	-868
389.239	-1681
389.320	415
389.400	-1318
389.480	-62
389.561	3128
389.641	2465
389.722	-456
389.802	-653
389.883	482
389.963	4456
390.043	3061
390.124	-1002
390.204	-11
390.284	2384
390.365	1515
390.445	2339
390.525	6053
390.605	4634
390.686	1533
390.766	482
390.846	-301
390.927	-923
391.007	-423
391.087	6
391.167	-757
391.247	-1228
391.328	116
391.408	134
391.488	507
391.568	-2190
391.648	-1044
391.728	291
391.808	-131
391.888	-701
391.969	992
392.049	2084
392.129	2006
392.209	589
392.289	3440
392.369	2182
392.449	2105
392.529	-24
392.609	-766
392.689	-511
392.769	2612
392.849	3058
392.929	1945
393.009	5044
393.089	4237
393.169	-30
393.248	866
393.328	14807
393.408	24227
393.488	5455
393.568	194
393.648	-560
393.728	-200
393.807	-580
393.887	-52
393.967	-698
394.047	-611
394.127	587
394.206	1235
394.286	4811
394.366	32485
394.446	49017
394.525	13911
394.605	1925
394.685	407
394.764	3095
394.844	6644
394.924	4728
395.003	185
395.083	-833
395.163	-84
395.242	88
395.322	-204
395.402	-1358
395.481	56
395.561	803
395.640	6997
395.720	5275
395.799	7402
395.879	7788
395.958	2462
396.038	9605
396.117	44331
396.197	64077
396.276	22585
396.356	5725
396.435	3083
396.515	1635
396.594	-240
396.673	678
396.753	2053
396.832	15304
396.912	16463
396.991	3744
397.070	558
397.150	-1149
397.229	187
397.308	-946
397.388	-888
397.467	-450
397.546	-412
397.625	-2346
397.705	-478
397.784	-1396
397.863	-1036
397.942	-1102
398.022	-1085
398.101	189
398.180	8093
398.259	5451
398.338	654
398.417	-586
398.497	-1613
398.576	-591
398.655	-1314
398.734	-22
398.813	-1043
398.892	147
398.971	7254
399.050	5395
399.129	-614
399.208	-1460
399.287	-1329
399.366	-1405
399.445	-1455
399.524	-1379
399.603	-2065
399.682	-725
399.761	-184
399.840	7270
399.919	8192
399.998	819
400.077	-1746
400.156	-1190
400.235	157
400.313	-678
400.392	-1925
400.471	256
400.550	2359
400.629	-598
400.708	-511
400.786	-1161
400.865	12
400.944	313
401.023	953
401.102	-1500
401.180	-454
401.259	-1455
401.338	-707
401.416	-959
401.495	-876
401.574	-88
401.652	-912
401.731	-624
401.810	-1503
401.888	-1613
401.967	-1423
402.046	-785
402.124	-826
402.203	-1130
402.281	-714
402.360	-224
402.438	1164
402.517	407
402.596	-867
402.674	-255
402.753	-1495
402.831	-1211
402.910	-1128
402.988	-985
403.066	1044
403.145	1256
403.223	244
403.302	660
403.380	1232
403.459	155
403.537	-546
403.615	-1296
403.694	-1960
403.772	-479
403.850	-1550
403.929	-462
404.007	-1806
404.085	227
404.164	-1069
404.242	-922
404.320	1314
404.398	6888
404.477	7607
404.555	7753
404.633	9034
404.711	5995
404.789	4424
404.868	-239
404.946	-580
405.024	-295
405.102	-757
405.180	-998
405.258	-2315
405.336	-1045
405.415	-1572
405.493	-124
405.571	-803
405.649	-1313
405.727	-2110
405.805	-532
405.883	-1144
405.961	-1135
406.039	-814
406.117	-2138
406.195	-1190
406.273	-862
406.351	6123
406.429	4919
406.507	-824
406.585	-1460
406.663	-702
406.740	-1550
406.818	-1981
406.896	-941
406.974	-729
407.052	-1193
407.130	1941
407.208	6450
407.285	495
407.363	-1788
407.441	-883
407.519	-888
407.596	-904
407.674	-836
407.752	-73
407.830	1441
407.907	974
407.985	-1417
408.063	-700
408.141	-1674
408.218	167
408.296	-814
408.373	-1298
408.451	-699
408.529	-702
408.606	-1060
408.684	-250
408.762	-1373
408.839	-1807
408.917	-1762
408.994	-845
409.072	-1444
409.149	-1272
409.227	-804
409.304	-941
409.382	-920
409.459	-1402
409.537	-474
409.614	-1369
409.692	-1701
409.769	-1508
409.846	-1359
409.924	-753
410.001	-2251
410.079	-955
410.156	-681
410.233	-673
410.311	-1533
410.388	-1378
410.465	-650
410.543	-1588
410.620	-1225
410.697	-979
410.775	-1300
410.852	-2311
410.929	-1002
411.006	-664
411.083	-1109
411.161	-691
411.238	-300
411.315	-882
411.392	-1180
411.469	-589
411.547	-917
411.624	-1835
411.701	-1390
411.778	-881
411.855	-1635
411.932	-1377
412.009	-1389
412.086	-1152
412.163	-1176
412.240	-408
412.317	-1470
412.394	-1822
412.471	-777
412.548	-1133
412.625	-1786
412.702	-1625
412.779	-1121
412.856	-488
412.933	-1797
413.010	-1338
413.087	-472
413.164	-462
413.241	1564
413.318	-2062
413.395	-62
413.471	-947
413.548	-347
413.625	-580
413.702	-1293
413.779	-806
413.855	-1508
413.932	-1774
414.009	-1481
414.086	-741
414.162	-1352
414.239	-1278
414.316	-489
414.393	2241
414.469	27
414.546	-1891
414.623	-1309
414.699	-1352
414.776	-1575
414.853	-1972
414.929	-921
415.006	-1613
415.082	-863
415.159	-1018
415.236	-1372
415.312	-555
415.389	-1277
415.465	-1934
415.542	-1371
415.618	-1702
415.695	-598
415.771	-1270
415.848	-1311
415.924	-1076
416.000	-1589
416.077	-328
416.153	-2204
416.230	-1725
416.306	-1329
416.383	-1730
416.459	-1119
416.535	-2196
416.612	-1860
416.688	-1457
416.764	-1380
416.841	-2062
416.917	-1716
416.993	-1197
417.069	-968
417.146	-713
417.222	-501
417.298	-1016
417.374	-1147
417.451	-732
417.527	-2072
417.603	-1757
417.679	-956
417.755	-756
417.831	-1507
417.908	-1081
417.984	-1458
418.060	-1927
418.136	-1479
418.212	-1334
418.288	-1075
418.364	-691
418.440	-2381
418.516	-927
418.592	-1090
418.668	-962
418.744	-1163
418.820	-888
418.896	-1059
418.972	-1193
419.048	-1123
419.124	-578
419.200	-1997
419.276	-1417
419.352	-1715
419.428	-1501
419.504	-2093
419.579	-1392
419.655	-1423
419.731	-1837
419.807	-1653
419.883	-1559
419.959	-1677
420.034	-1071
420.110	-1610
420.186	315
420.262	1210
420.337	-1048
420.413	-1353
420.489	-2145
420.565	-628
420.640	-939
420.716	-1156
420.792	-2368
420.867	-1265
420.943	-1457
421.019	-2280
421.094	-2131
421.170	-1139
421.245	-2200
421.321	-827
421.397	-1827
421.472	-260
421.548	-1479
421.623	-207
421.699	-1211
421.774	-1746
421.850	-2231
421.925	-898
422.001	-1141
422.076	-1085
422.152	-1914
422.227	-1879
422.302	-367
422.378	-1528
422.453	-2021
422.529	311
422.604	7952
422.679	28391
422.755	18795
422.830	3141
422.905	-715
422.981	-2023
423.056	-2325
423.131	-783
423.207	-1395
423.282	-2007
423.357	-1070
423.432	-1396
423.508	-869
423.583	-1174
423.658	-798
423.733	-621
423.808	-1425
423.883	-917
423.959	-1611
424.034	-2181
424.109	-1435
424.184	-1413
424.259	-1819
424.334	-1083
424.409	-1375
424.484	-1490
424.559	-1195
424.634	-1287
424.709	-1605
424.784	-299
424.859	-1783
424.934	-1797
425.009	-14
425.084	1662
425.159	-189
425.234	-919
425.309	-1823
425.384	-683
425.459	-460
425.534	-722
425.609	-977
425.683	-1515
425.758	-1165
425.833	-1127
425.908	-443
425.983	-935
426.058	1175
426.132	434
426.207	-1999
426.282	-315
426.357	-1570
426.431	-635
426.506	-1569
426.581	-1603
426.655	-686
426.730	-2096
426.805	-2139
426.879	-1194
426.954	-802
427.029	-1507
427.103	88
427.178	5280
427.253	3499
427.327	-674
427.402	-1412
427.476	1021
427.551	517
427.625	-1047
427.700	-1001
427.774	-1048
427.849	-945
427.923	-1677
427.998	-1445
428.072	-1737
428.147	-735
428.221	-680
428.296	1256
428.370	32
428.444	-969
428.519	-533
428.593	-35
428.667	749
428.742	307
428.816	815
428.890	761
428.965	4013
429.039	1363
429.113	1077
429.188	-230
429.262	-1458
429.336	-1077
429.410	-10
429.485	-357
429.559	-645
429.633	358
429.707	-1113
429.781	-1405
429.855	1556
429.930	4876
430.004	3002
430.078	6388
430.152	7516
430.226	2094
430.300	3739
430.374	-153
430.448	-1299
430.522	11
430.596	5721
430.670	5801
430.744	2427
430.818	7736
430.892	2640
430.966	-895
431.040	-961
431.114	-1276
431.188	-1789
431.262	-1299
431.336	-1771
431.410	-37
431.484	-233
431.557	734
431.631	-1140
431.705	-1193
431.779	-1001
431.853	95
431.927	88
432.000	-1190
432.074	-1780
432.148	-1005
432.222	-1343
432.295	-1377
432.369	-1213
432.443	-744
432.516	696
432.590	6251
432.664	3736
432.737	-929
432.811	-1495
432.885	-1489
432.958	-1294
433.032	-1749
433.106	-1175
433.179	-952
433.253	-1282
433.326	-1917
433.400	-1906
433.473	-1628
433.547	-1884
433.620	-1396
433.694	-1178
433.767	-464
433.841	-1760
433.914	-1340
433.988	-1009
434.061	-770
434.134	-1368
434.208	-1703
434.281	-1443
434.355	-2060
434.428	-1271
434.501	-820
434.575	-486
434.648	-1917
434.721	-1567
434.795	-1501
434.868	-1924
434.941	-2259
435.014	-1025
435.088	-1161
435.161	-1190
435.234	-947
435.307	-1471
435.381	-1037
435.454	-1369
435.527	-1493
435.600	-1960
435.673	-1707
435.746	-1401
435.819	-1665
435.892	-1730
435.966	-1667
436.039	-1673
436.112	-640
436.185	-1925
436.258	-1455
436.331	-1740
436.404	-1460
436.477	-1832
436.550	-1267
436.623	-1563
436.696	-1856
436.769	-2186
436.842	-1091
436.915	-1537
436.987	-1452
437.060	-971
437.133	-1409
437.206	-1256
437.279	-1157
437.352	-1569
437.425	-1932
437.498	-1102
437.570	-685
437.643	-1191
437.716	-1053
437.789	-1063
437.861	-1549
437.934	-1057
438.007	-788
438.080	-1656
438.152	-1286
438.225	-1078
438.298	969
438.370	10492
438.443	8723
438.516	930
438.588	-517
438.661	-1553
438.734	-1453
438.806	-1567
438.879	-1497
438.951	-1491
439.024	-909
439.096	-1298
439.169	-1651
439.241	-1356
439.314	-1866
439.386	-1461
439.459	-497
439.531	-1453
439.604	-1062
439.676	-1650
439.749	-1760
439.821	-941
439.893	-900
439.966	-1473
440.038	-1498
440.110	-1010
440.183	-1304
440.255	-1427
440.327	-1292
440.400	87
440.472	5089
440.544	7331
440.617	471
440.689	-160
440.761	-607
440.833	38
440.905	65
440.978	-1629
441.050	-1668
441.122	-842
441.194	-1670
441.266	-1212
441.338	-1718
441.411	-996
441.483	71
441.555	2602
441.627	420
441.699	-303
441.771	-1354
441.843	-1016
441.915	-1223
441.987	-1694
442.059	-1129
442.131	-846
442.203	-1067
442.275	-1074
442.347	27
442.419	-1040
442.491	-1130
442.563	909
442.635	755
442.706	-84
442.778	1402
442.850	-393
442.922	-1613
442.994	-1287
443.066	-1286
443.137	-1507
443.209	-1319
443.281	-1575
443.353	-829
443.425	105
443.496	1627
443.568	2929
443.640	490
443.711	-872
443.783	-2034
443.855	-1394
443.926	-2052
443.998	-1620
444.070	-863
444.141	-753
444.213	-918
444.285	-669
444.356	-1064
444.428	-1411
444.499	-728
444.571	-1334
444.642	-1052
444.714	-1087
444.785	-1649
444.857	-590
444.928	-131
445.000	211
445.071	-391
445.143	449
445.214	-1070
445.285	-762
445.357	1420
445.428	2891
445.500	7051
445.571	7765
445.642	2500
445.714	584
445.785	2761
445.856	501
445.928	-878
445.999	-1340
446.070	-838
446.141	-823
446.213	-506
446.284	-684
446.355	-428
446.426	-797
446.497	-1123
446.569	-1549
446.640	-26
446.711	-391
446.782	-862
446.853	-616
446.924	-508
446.995	-1974
447.066	-358
447.138	-576
447.209	-1168
447.280	-1056
447.351	-1643
447.422	-1570
447.493	-1513
447.564	-1092
447.635	-1556
447.706	-914
447.777	-1539
447.847	-815
447.918	-2050
447.989	-826
448.060	-850
448.131	510
448.202	-92
448.273	-313
448.344	-294
448.414	-1193
448.485	-1802
448.556	-947
448.627	-1107
448.698	-279
448.768	-1527
448.839	-717
448.910	-636
448.981	-91
449.051	-982
449.122	-1168
449.193	-1255
449.263	-1100
449.334	-1728
449.405	-456
449.475	-1387
449.546	2
449.616	-876
449.687	-271
449.758	-1223
449.828	-1528
449.899	-1193
449.969	-1088
450.040	-496
450.110	-1148
450.181	-1385
450.251	-1058
450.322	-1207
450.392	-769
450.463	-1034
450.533	-1143
450.604	-1108
450.674	-1797
450.744	-513
450.815	-1011
450.885	-589
450.955	-666
451.026	-1276
451.096	-833
451.166	-1039
451.237	-865
451.307	1902
451.377	563
451.447	-879
451.518	-1382
451.588	-1229
451.658	-1544
451.728	-676
451.799	835
451.869	3498
451.939	575
452.009	-781
452.079	-1249
452.149	-300
452.219	-1166
452.289	2141
452.360	2778
452.430	297
452.500	-668
452.570	-1060
452.640	-825
452.710	86
452.780	2306
452.850	1458
452.920	545
452.990	-123
453.060	-777
453.129	-655
453.199	202
453.269	1039
453.339	9202
453.409	17417
453.479	12242
453.549	19327
453.619	23608
453.688	15266
453.758	2256
453.828	-555
453.898	-1047
453.968	-1734
454.037	-756
454.087	-1208
454.107	-1401
454.168	-1272
454.177	-1265
454.247	-321
454.249	-331
454.316	-712
454.330	-728
454.386	-814
454.411	-525
454.456	-221
454.492	1256
454.525	2565
454.574	1750
454.595	1399
454.655	-359
454.665	-640
454.734	-654
454.736	-627
454.804	-298
454.817	120
454.873	1342
454.898	2294
454.943	3942
454.979	2609
455.013	1444
455.060	112
455.082	-407
455.141	-295
455.152	-277
455.221	1725
455.222	1803
455.291	4662
455.303	4791
455.360	5081
455.384	6062
455.430	6544
455.465	5965
455.499	5621
455.546	3737
455.569	2787
455.627	2303
455.638	2270
455.707	-45
455.708	-40
455.777	-801
455.789	-738
455.846	-518
455.869	-585
455.916	-823
455.950	-880
455.985	-876
456.031	-471
456.054	-319
456.112	-786
456.124	-884
456.193	-520
456.193	-527
456.262	-476
456.274	-451
456.332	-508
456.355	-470
456.401	-474
456.436	-335
456.470	-104
456.516	-88
456.540	-197
456.597	-971
456.609	-1075
456.678	-572
456.678	-579
456.747	-1196
456.759	-1114
456.817	-430
456.840	-421
456.886	-709
456.920	-548
456.955	-319
457.001	-785
457.024	-979
457.082	-400
457.093	-286
457.162	393
457.163	402
457.232	-297
457.243	-302
457.301	-239
457.324	-378
457.370	-694
457.405	-624
457.439	-518
457.485	-298
457.508	-203
457.566	-192
457.577	-204
457.646	-461
457.647	-455
457.715	-387
457.727	-298
457.784	128
457.808	96
457.853	26
457.889	79
457.922	7
457.969	156
457.991	293
458.050	290
458.060	270
458.129	1252
458.130	1253
458.198	435
458.211	309
458.267	-99
458.292	82
458.336	331
458.372	-146
458.405	-206
458.453	529
458.474	734
458.533	759
458.543	794
458.611	1266
458.614	1328
458.680	1405
458.694	1118
458.749	722
458.775	556
458.818	95
458.855	-100
458.887	-223
458.936	-117
458.955	29
459.016	-85
459.024	-134
459.093	-296
459.097	-260
459.162	594
459.177	580
459.230	173
459.257	174
459.299	270
459.338	556
459.368	854
459.418	767
459.437	572
459.499	625
459.505	651
459.574	447
459.579	433
459.643	382
459.659	373
459.711	344
459.740	449
459.780	435
459.820	342
459.849	455
459.900	708
459.917	694
459.981	650
459.986	644
460.054	453
460.061	491
460.123	1007
460.141	995
460.191	1214
460.222	1594
460.260	1572
460.302	996
460.328	721
460.382	887
460.397	1001
460.462	1231
460.465	1233
460.534	1224
460.543	1220
460.602	4366
460.623	5653
460.671	9862
460.703	13360
460.739	12241
460.783	11103
460.808	9863
460.864	3721
460.876	3290
460.944	575
460.945	552
461.013	915
461.024	1001
461.081	1366
461.104	1499
461.150	1101
461.184	601
461.218	462
461.264	640
461.286	783
461.345	709
461.355	656
461.423	1189
461.425	1192
461.491	1226
461.505	1137
461.559	1717
461.585	2157
461.628	4361
461.665	6440
461.696	7206
461.745	8969
461.764	7765
461.825	2796
461.832	2750
461.901	1343
461.905	1316
461.969	807
461.985	727
462.037	1400
462.065	1712
462.105	1430
462.145	1335
462.173	2148
462.225	3171
462.241	3522
462.305	5759
462.310	5583
462.378	2704
462.385	2290
462.446	1330
462.465	1076
462.514	770
462.545	765
462.582	983
462.625	1056
462.650	1004
462.705	1229
462.718	1339
462.785	1366
462.786	1373
462.854	2012
462.865	2131
462.922	2899
462.945	3184
462.990	2231
463.025	1424
463.058	1526
463.104	1660
463.126	1579
463.184	1271
463.194	1282
463.262	1285
463.264	1300
463.330	1816
463.344	1896
463.398	2336
463.424	2396
463.466	1981
463.504	1853
463.533	1669
463.583	1092
463.601	1161
463.663	1777
463.669	1887
463.737	2938
463.743	3023
463.805	3671
463.823	3864
463.873	6512
463.903	8254
463.940	8844
463.982	9562
464.008	7742
464.062	3570
464.076	3426
464.142	1943
464.144	1934
464.211	2215
464.221	2241
464.279	1915
464.301	1904
464.347	1991
464.381	1877
464.414	2356
464.461	3106
464.482	3031
464.540	3033
464.550	2974
464.617	2049
464.620	2019
464.685	2194
464.699	2254
464.753	2907
464.779	3169
464.820	3859
464.859	4659
464.888	4384
464.938	3764
464.956	3941
465.018	4590
465.023	4510
465.091	3124
465.098	2999
465.158	3055
465.177	3045
465.226	2738
465.257	2599
465.293	3223
465.336	3919
465.361	3994
465.416	4068
465.428	4213
465.495	5110
465.496	5141
465.563	8598
465.575	9185
465.631	12290
465.654	13762
465.698	9353
465.734	5400
465.765	4883
465.813	3916
465.833	3675
465.893	3155
465.900	3136
465.968	3036
465.972	3017
466.035	3485
466.052	3617
466.102	3311
466.131	3142
466.170	3072
466.210	2939
466.237	3330
466.290	4162
466.304	4170
466.369	4106
466.372	4119
466.439	4329
466.449	4343
466.506	5045
466.528	5318
466.573	6441
466.607	7252
466.641	9851
466.687	13443
466.708	15179
466.766	19942
466.775	18591
466.842	8223
466.845	7715
466.909	5553
466.925	5031
466.977	5433
467.004	5675
467.044	5369
467.083	5030
467.111	5547
467.163	6522
467.178	6660
467.242	7186
467.245	7131
467.312	5788
467.321	5605
467.379	5974
467.400	6094
467.446	5907
467.480	5758
467.559	6276
467.638	4821
467.717	4407
467.796	5239
467.875	6170
467.955	5412
468.034	7281
468.113	14668
468.192	23341
468.271	6710
468.350	4944
468.429	4589
468.508	3916
468.588	4294
468.667	4632
468.746	5838
468.825	5225
468.904	3919
468.983	4234
469.062	5875
469.141	8569
469.220	3781
469.299	3883
469.378	3737
469.456	5721
469.535	5949
469.614	4863
469.693	4597
469.772	5672
469.851	7678
469.930	6005
470.009	4565
470.088	4628
470.166	4418
470.245	4428
470.324	4658
470.403	4545
470.482	4290
470.560	3773
470.639	3873
470.718	4514
470.797	3808
470.875	4110
470.954	6933
471.033	7302
471.111	4436
471.190	3670
471.269	2786
471.347	3344
471.426	3292
471.505	3939
471.583	4109
471.662	4160
471.740	3449
471.819	4130
471.898	3881
471.976	4035
472.055	2972
472.133	4731
472.212	5564
472.290	5425
472.369	3920
472.447	2976
472.526	3513
472.604	4473
472.683	3605
472.761	3852
472.839	4322
472.918	3745
472.996	3478
473.075	4216
473.153	4102
473.231	4303
473.310	3695
473.388	3920
473.466	3684
473.545	3747
473.623	4829
473.701	3720
473.780	3202
473.858	4514
473.936	4461
474.014	3137
474.093	3379
474.171	4542
474.249	7296
474.327	5111
474.405	2395
474.484	3859
474.562	3483
474.640	3622
474.718	3678
474.796	3998
474.874	3677
474.952	2953
475.030	2799
475.108	3472
475.187	3637
475.265	3880
475.343	3409
475.421	5006
475.499	3819
475.577	3875
475.655	4179
475.733	7539
475.811	13391
475.889	12433
475.966	9545
476.044	3524
476.122	3785
476.200	3707
476.278	3342
476.356	2377
476.434	3801
476.512	3201
476.590	4083
476.667	4133
476.745	2539
476.823	4031
476.901	3274
476.979	3627
477.056	3117
477.134	3921
477.212	3635
477.290	3364
477.367	2817
477.445	3020
477.523	3128
477.601	2714
477.678	3494
477.756	3899
477.834	4368
477.911	2722
477.989	3578
478.066	2458
478.144	3364
478.222	2879
478.299	3024
478.377	3768
478.454	3112
478.532	3022
478.609	2501
478.687	3050
478.764	2176
478.842	2929
478.919	2616
478.997	3319
479.074	2374
479.152	2903
479.229	3580
479.307	3455
479.384	2226
479.461	2207
479.539	2460
479.616	3516
479.694	3077
479.771	3484
479.848	2926
479.926	3235
480.003	4660
480.080	2760
480.157	2367
480.235	2600
480.312	2273
480.389	2846
480.467	4248
480.544	6240
480.621	3316
480.698	2555
480.775	3075
480.853	3325
480.930	3073
481.007	3029
481.084	2905
481.161	3291
481.238	3207
481.315	2488
481.392	2576
481.470	2754
481.547	3704
481.624	2472
481.701	1864
481.778	2972
481.855	3304
481.932	4206
482.009	7617
482.086	5119
482.163	2302
482.240	2749
482.317	2538
482.393	2797
482.470	2251
482.547	2869
482.624	2902
482.701	2174
482.778	2102
482.855	2538
482.932	1494
483.009	2155
483.085	2805
483.162	2461
483.239	2914
483.316	2624
483.393	1230
483.469	2476
483.546	2298
483.623	3658
483.699	2819
483.776	2877
483.853	3556
483.930	4482
484.006	10853
484.083	21521
484.160	11748
484.236	17577
484.313	13799
484.389	9447
484.466	8923
484.543	8118
484.619	8368
484.696	7721
484.772	8353
484.849	9437
484.925	7847
485.002	8483
485.078	8417
485.155	7608
485.231	7118
485.308	6964
485.384	7441
485.461	8241
485.537	12118
485.614	16687
485.690	7240
485.766	6517
485.843	6922
485.919	8290
485.995	8132
486.072	6923
486.148	6044
486.224	6647
486.301	6497
486.377	7094
486.453	7463
486.530	7727
486.606	10046
486.682	10590
486.758	11106
486.835	14649
486.911	10009
486.987	16613
487.063	14939
487.139	15667
487.215	11836
487.292	7912
487.368	6809
487.444	6997
487.520	8133
487.596	7952
487.672	7469
487.748	9175
487.824	12142
487.900	7439
487.976	6870
488.052	6674
488.128	8630
488.204	7690
488.280	6050
488.356	7219
488.432	12835
488.508	21615
488.584	8975
488.660	4935
488.736	5514
488.812	6110
488.888	7363
488.964	8427
489.039	13012
489.115	19991
489.191	13689
489.267	5823
489.343	5244
489.418	6038
489.494	5452
489.570	4572
489.646	6583
489.722	5308
489.797	5171
489.873	6892
489.949	15328
490.024	14315
490.100	5361
490.176	4589
490.251	5520
490.327	6740
490.403	5149
490.478	5541
490.554	4424
490.629	5043
490.705	3622
490.781	4992
490.856	3730
490.932	5291
491.007	4885
491.083	4597
491.158	5527
491.234	5502
491.309	11345
491.385	13814
491.460	4481
491.536	5153
491.611	4722
491.686	4668
491.762	6179
491.837	8343
491.913	14463
491.988	17981
492.063	24890
492.139	10023
492.214	6218
492.289	4124
492.365	3479
492.440	4280
492.515	3651
492.590	5119
492.666	3413
492.741	4641
492.816	6462
492.891	4457
492.967	3206
493.042	3597
493.117	4167
493.192	5126
493.267	6852
493.342	24977
493.418	41156
493.493	6531
493.568	3481
493.643	3430
493.718	3995
493.793	5844
493.868	5529
493.943	3936
494.018	3766
494.093	3978
494.168	3163
494.243	3058
494.318	2671
494.393	2970
494.468	2715
494.543	3000
494.618	3557
494.693	2605
494.768	2792
494.842	3490
494.917	2435
494.992	3210
495.067	3004
495.142	2763
495.217	3828
495.292	3252
495.366	2468
495.441	3713
495.516	5439
495.591	6569
495.665	14868
495.740	38853
495.815	17207
495.890	5332
495.964	3095
496.039	4285
496.114	3459
496.188	4537
496.263	4183
496.338	3342
496.412	3862
496.487	4713
496.561	4504
496.636	5580
496.710	3988
496.785	4442
496.860	5736
496.934	4466
497.009	3621
497.083	5079
497.158	4457
497.232	6207
497.307	6901
497.381	5632
497.455	6940
497.530	9970
497.604	7082
497.679	9028
497.753	11669
497.827	14792
497.902	13956
497.976	16661
498.050	26221
498.125	99260
498.199	118302
498.273	21342
498.348	14719
498.422	13644
498.496	12440
498.570	10888
498.645	8453
498.719	8375
498.793	9191
498.867	12418
498.941	15582
499.016	35565
499.090	116245
499.164	44343
499.238	6080
499.312	5214
499.386	5659
499.460	5548
499.534	5274
499.609	6004
499.683	9101
499.757	9300
499.831	15203
499.905	67939
499.979	76823
500.053	10906
500.127	9280
500.201	6275
500.275	4697
500.349	4169
500.422	5561
500.496	7207
500.570	11743
500.644	31796
500.718	78765
500.792	17363
500.866	4849
500.940	5551
501.013	4826
501.087	4684
501.161	7804
501.235	10119
501.309	19963
501.382	62264
501.456	62071
501.530	12014
501.603	21499
501.677	8469
501.751	3319
501.825	4638
501.898	7381
501.972	24873
502.046	17686
502.119	4118
502.193	9300
502.266	27695
502.340	14786
502.413	10244
502.487	25119
502.561	13058
502.634	4199
502.708	2339
502.781	1949
502.855	1829
502.928	2193
503.002	1684
503.075	1240
503.149	2439
503.222	2801
503.295	3278
503.369	3789
503.442	5281
503.516	15418
503.589	46318
503.662	32446
503.736	9007
503.809	21057
503.882	17645
503.956	23272
504.029	24874
504.102	5862
504.175	6990
504.249	3529
504.322	3342
504.395	3405
504.468	1716
504.542	2576
504.615	2047
504.688	2379
504.761	1406
504.834	2733
504.907	1868
504.980	3702
505.053	2372
505.127	1394
505.200	4251
505.273	3857
505.346	2307
505.419	1633
505.492	1479
505.565	1477
505.638	1395
505.711	1375
505.784	1846
505.857	1499
505.930	1888
506.003	699
506.076	2913
506.149	2576
506.221	3296
506.294	3529
506.367	7800
506.440	34656
506.513	21311
506.586	4024
506.659	2369
506.731	1520
506.804	1951
506.877	2933
506.950	3015
507.022	1938
507.095	1736
507.168	3140
507.241	2456
507.313	784
507.386	1619
507.459	3114
507.531	2243
507.604	1199
507.677	1846
507.749	980
507.822	2189
507.894	4928
507.967	6630
508.040	4104
508.112	4700
508.185	3276
508.257	2399
508.330	4533
508.402	2549
508.475	3296
508.547	2847
508.620	3133
508.692	5193
508.765	3909
508.837	2196
508.909	2586
508.982	1561
509.054	3466
509.127	2799
509.199	1656
509.271	2656
509.344	2341
509.416	2320
509.488	1924
509.560	2214
509.633	2095
509.705	2370
509.777	2714
509.849	3721
509.922	2745
509.994	2593
510.066	2205
510.138	2226
510.210	7142
510.283	5959
510.355	5286
510.427	4155
510.499	3041
510.571	2682
510.643	3088
510.715	4887
510.787	3609
510.859	4154
510.931	3786
511.003	4580
511.076	4858
511.148	3771
511.219	2949
511.291	5076
511.363	7058
511.435	3298
511.507	3233
511.579	3163
511.651	3874
511.723	2611
511.795	2661
511.867	2274
511.939	3256
512.010	6125
512.082	4682
512.154	2984
512.226	3075
512.298	4576
512.369	6535
512.441	5432
512.513	4375
512.585	4017
512.656	3256
512.728	3857
512.800	2965
512.871	4032
512.943	3271
513.015	2501
513.086	3443
513.158	3083
513.230	2826
513.301	3588
513.373	4630
513.444	3058
513.516	3051
513.588	3608
513.659	3218
513.731	3722
513.802	2222
513.874	5590
513.945	8233
514.016	3841
514.088	2137
514.159	2832
514.231	2624
514.302	6094
514.374	4132
514.445	3678
514.516	7400
514.588	5810
514.659	4079
514.730	6732
514.802	5657
514.873	4103
514.944	6221
515.016	4580
515.087	4475
515.158	5872
515.229	6886
515.301	5127
515.372	7802
515.443	4692
515.514	3869
515.585	2577
515.656	3225
515.728	2553
515.799	2401
515.870	2645
515.941	2814
516.012	2366
516.083	3928
516.154	4008
516.225	4337
516.296	4548
516.367	3403
516.438	2970
516.509	4437
516.580	5383
516.651	12886
516.722	47423
516.793	26628
516.864	6522
516.935	5616
517.006	6922
517.077	9824
517.148	17247
517.219	45159
517.289	88706
517.360	38622
517.431	16952
517.502	3443
517.573	3909
517.643	3529
517.714	4956
517.785	4999
517.856	4532
517.926	5413
517.997	5501
518.068	5725
518.138	8482
518.209	10634
518.280	29006
518.350	126009
518.421	54554
518.492	6303
518.562	4276
518.633	4422
518.703	1923
518.774	4575
518.845	5082
518.915	5297
518.986	4135
519.056	4885
519.127	8047
519.197	12555
519.268	33173
519.338	26858
519.408	5925
519.479	4941
519.549	3680
519.620	3937
519.690	2489
519.760	2605
519.831	2247
519.901	3157
519.971	1864
520.042	2249
520.112	2773
520.182	3838
520.253	4072
520.323	2883
520.393	3394
520.463	6304
520.534	2246
520.604	9267
520.674	4788
520.744	3392
520.814	8510
520.885	9153
520.955	10660
521.025	42818
521.095	21094
521.165	3356
521.235	2722
521.305	2619
521.375	2984
521.445	1896
521.515	2651
521.585	2478
521.655	2284
521.725	3370
521.795	3197
521.865	1058
521.935	4388
522.005	3438
522.075	1631
522.145	2135
522.215	2398
522.285	3952
522.355	4511
522.424	9933
522.494	9100
522.564	4644
522.634	6001
522.704	17202
522.774	7618
522.843	2689
522.913	1848
522.983	2790
523.053	1870
523.122	2442
523.192	3072
523.262	7475
523.331	8383
523.401	2442
523.471	1222
523.540	1853
523.610	1067
523.680	1469
523.749	1748
523.819	2467
523.888	1816
523.958	1083
524.027	2332
524.097	1903
524.166	2572
524.236	1046
524.305	2248
524.375	690
524.444	1052
524.514	2164
524.583	2247
524.653	1724
524.722	2314
524.791	1435
524.861	2515
524.930	1664
524.999	687
525.069	1688
525.138	2507
525.207	2481
525.277	2299
525.346	2346
525.415	1625
525.484	1595
525.554	2421
525.623	2469
525.692	1241
525.761	1724
525.830	929
525.900	1618
525.969	2346
526.038	2348
526.107	2625
526.176	6794
526.245	5178
526.314	3412
526.383	5263
526.452	4830
526.522	9250
526.591	13253
526.660	7757
526.729	4286
526.797	4837
526.867	8229
526.935	43700
527.004	42690
527.073	17709
527.142	2358
527.211	2198
527.280	2335
527.349	1728
527.418	17
527.487	2012
527.555	977
527.624	727
527.693	-178
527.762	1298
527.831	-169
527.899	663
527.968	940
528.037	202
528.106	1848
528.174	2787
528.243	2744
528.312	3414
528.380	4570
528.449	1134
528.518	1181
528.586	-26
528.655	1742
528.723	556
528.792	86
528.861	506
528.929	-379
528.998	1771
529.066	519
529.135	750
529.203	-62
529.272	325
529.340	1614
529.409	929
529.477	354
529.545	837
529.614	2543
529.682	587
529.751	1946
529.819	3726
529.887	1519
529.956	332
530.024	1991
530.092	392
530.161	934
530.229	1489
530.297	546
530.365	2214
530.434	-189
530.502	315
530.570	739
530.638	-1283
530.707	425
530.775	1994
530.843	596
530.911	661
530.979	1157
531.047	489
531.115	434
531.183	1329
531.252	977
531.320	1233
531.388	722
531.456	1226
531.524	21
531.592	951
531.660	1138
531.728	606
531.796	-174
531.864	768
531.932	1054
532.000	447
532.067	195
532.135	1180
532.203	1226
532.271	1539
532.339	2443
532.407	6108
532.475	3841
532.542	2505
532.610	2285
532.678	2362
532.746	10234
532.814	35269
532.881	8807
532.949	1097
533.017	678
533.084	1157
533.152	324
533.220	837
533.287	563
533.355	1202
533.423	760
533.490	-7
533.558	515
533.625	1208
533.693	1083
533.761	1272
533.828	1183
533.896	328
533.963	3386
534.031	3628
534.098	4531
534.166	1935
534.233	1041
534.300	1322
534.368	997
534.435	1429
534.503	991
534.570	1572
534.637	-311
534.705	1477
534.772	1276
534.840	440
534.907	3949
534.974	4560
535.041	1115
535.109	1022
535.176	766
535.243	1711
535.310	529
535.378	363
535.445	788
535.512	541
535.579	1543
535.646	-601
535.714	299
535.781	2153
535.848	2024
535.915	1132
535.982	2095
536.049	1473
536.116	2044
536.183	1736
536.250	716
536.317	1513
536.384	956
536.451	2262
536.518	1909
536.585	363
536.652	2816
536.719	3130
536.786	1285
536.853	1855
536.920	3101
536.987	3334
537.053	2950
537.120	14963
537.187	15714
537.254	892
537.321	351
537.388	989
537.454	-392
537.521	293
537.588	36
537.654	1827
537.721	981
537.788	2049
537.855	850
537.921	596
537.988	630
538.055	1541
538.121	918
538.188	1215
538.254	1484
538.321	3443
538.388	2443
538.454	1395
538.521	1243
538.587	1418
538.654	774
538.720	864
538.787	580
538.853	1333
538.920	1604
538.986	1314
539.053	781
539.119	1043
539.185	1288
539.252	1943
539.318	2153
539.385	1837
539.451	1989
539.517	1791
539.583	2156
539.650	3369
539.716	12287
539.782	4433
539.849	966
539.915	1197
539.981	258
540.047	2025
540.114	1441
540.180	1641
540.246	944
540.312	1355
540.378	3076
540.444	5194
540.510	3282
540.576	13025
540.643	5130
540.709	614
540.775	434
540.841	1045
540.907	1892
540.973	3618
541.039	2637
541.105	3144
541.171	1354
541.237	207
541.303	1667
541.369	2192
541.435	1297
541.500	3117
541.566	1086
541.632	617
541.698	915
541.764	998
541.830	1309
541.896	-12
541.961	989
542.027	1061
542.093	420
542.159	870
542.224	775
542.290	2587
542.356	2360
542.421	4040
542.487	2350
542.553	1512
542.618	1682
542.684	1682
542.750	931
542.815	1688
542.881	2562
542.947	9980
543.012	9606
543.078	502
543.143	542
543.209	1452
543.274	838
543.340	1791
543.405	3225
543.471	6598
543.536	1452
543.602	911
543.667	524
543.732	2249
543.798	-390
543.863	1461
543.928	237
543.994	280
544.059	1074
544.124	842
544.190	111
544.255	1734
544.320	1116
544.386	561
544.451	1538
544.516	2108
544.581	1736
544.646	5248
544.712	11480
544.777	2719
544.842	645
544.907	1102
544.972	1555
545.037	1308
545.102	1134
545.168	1965
545.233	1941
545.298	2485
545.363	2528
545.428	1148
545.493	3825
545.558	8031
545.623	4061
545.688	1054
545.753	728
545.818	1276
545.883	1630
545.947	546
546.012	959
546.077	1974
546.142	2438
546.207	993
546.272	1785
546.337	2120
546.401	1744
546.466	805
546.531	798
546.596	1726
546.661	1727
546.725	2493
546.790	987
546.855	1389
546.919	-336
546.984	951
547.049	1243
547.113	2489
547.178	1647
547.243	2313
547.307	2248
547.372	2362
547.436	2357
547.501	726
547.565	1682
547.630	2128
547.695	1443
547.759	1916
547.823	2343
547.888	1874
547.952	1648
548.017	1438
548.081	2348
548.146	3065
548.210	2455
548.274	986
548.339	1141
548.403	1706
548.468	1164
548.532	1419
548.596	1418
548.660	1228
548.725	2007
548.789	1709
548.853	2788
548.917	1422
548.982	2238
549.046	3567
549.110	1295
549.174	2318
549.238	935
549.303	1025
549.367	2886
549.431	1037
549.495	1034
549.559	791
549.623	1309
549.687	2316
549.751	2324
549.815	1615
549.879	2880
549.943	398
550.007	2088
550.071	1242
550.135	2908
550.199	1213
550.263	1404
550.327	2969
550.391	3005
550.455	1587
550.519	1553
550.582	2564
550.646	1612
550.710	2722
550.774	2592
550.838	2188
550.901	1895
550.965	2561
551.029	2098
551.093	3790
551.156	3843
551.220	7046
551.284	9076
551.347	3932
551.411	8735
551.475	12112
551.538	2982
551.602	2049
551.666	2376
551.729	1063
551.793	2618
551.856	2551
551.920	1968
551.983	1577
552.047	1723
552.110	1885
552.174	1354
552.237	1024
552.301	1777
552.364	2035
552.428	1194
552.491	1237
552.554	1852
552.618	1194
552.681	1614
552.745	1511
552.808	3399
552.871	4112
552.934	3062
552.998	1622
553.061	2786
553.124	2391
553.187	2111
553.251	3445
553.314	3443
553.377	3157
553.440	6798
553.503	17867
553.567	39843
553.630	8323
553.693	2040
553.756	1053
553.819	1324
553.882	2232
553.945	1671
554.008	2086
554.071	677
554.134	1857
554.197	1445
554.260	1668
554.323	2779
554.386	2357
554.449	1164
554.512	2031
554.575	935
554.638	2105
554.701	1960
554.764	1780
554.827	2045
554.889	1184
554.952	1038
555.015	515
555.078	1289
555.141	2038
555.203	1421
555.266	1068
555.329	1430
555.391	1472
555.454	1287
555.517	1648
555.580	709
555.642	561
555.705	436
555.768	926
555.830	1368
555.893	-56
555.955	700
556.018	1303
556.080	761
556.143	1113
556.206	214
556.268	402
556.330	906
556.393	1246
556.455	1221
556.518	1868
556.580	3356
556.643	1049
556.705	928
556.767	679
556.830	1611
556.892	1816
556.955	1131
557.017	2536
557.079	2194
557.142	925
557.204	473
557.266	3354
557.328	1886
557.391	855
557.453	799
557.515	987
557.577	963
557.639	1317
557.701	1389
557.764	-384
557.826	807
557.888	2348
557.950	280
558.012	832
558.074	850
558.136	2361
558.198	3652
558.260	2818
558.322	1720
558.384	1367
558.446	2296
558.508	1034
558.570	2103
558.632	3684
558.694	5811
558.756	5176
558.818	8367
558.880	24467
558.942	9064
559.003	4940
559.065	3352
559.127	1617
559.189	956
559.251	1897
559.312	1936
559.374	4587
559.436	13322
559.498	9245
559.559	1496
559.621	2412
559.683	2255
559.744	3313
559.806	6262
559.868	11270
559.929	2958
559.991	3010
560.052	1433
560.114	4571
560.176	3901
560.237	3224
560.299	4280
560.360	1665
560.422	1785
560.483	1267
560.545	1772
560.606	1617
560.667	439
560.729	1235
560.790	1369
560.852	1679
560.913	547
560.974	1122
561.036	482
561.097	1691
561.158	1654
561.220	2121
561.281	793
561.342	1954
561.403	2857
561.465	1493
561.526	4429
561.587	6871
561.648	1495
561.709	2146
561.771	1543
561.832	1887
561.893	1065
561.954	1848
562.015	1028
562.076	1265
562.137	910
562.198	1760
562.259	1636
562.320	923
562.381	585
562.442	2060
562.503	2012
562.564	1737
562.625	990
562.686	1436
562.747	1438
562.808	1642
562.869	1307
562.930	2664
562.991	1628
563.051	1857
563.112	2262
563.173	2016
563.234	1089
563.294	1969
563.355	1707
563.416	1892
563.477	1086
563.537	1264
563.598	2263
563.659	2479
563.720	1695
563.780	2112
563.841	2461
563.901	1964
563.962	1558
564.023	2394
564.083	2467
564.144	1388
564.204	2467
564.265	1452
564.325	1760
564.386	4428
564.446	4472
564.507	1802
564.567	1628
564.628	1891
564.688	1537
564.749	1841
564.809	2577
564.869	2313
564.930	2231
564.990	2789
565.050	2255
565.111	2209
565.171	1804
565.231	1621
565.292	2790
565.352	1951
565.412	2175
565.472	2014
565.532	2163
565.593	2349
565.653	1750
565.713	2631
565.773	2074
565.833	2496
565.893	3466
565.953	2485
566.013	2861
566.074	2909
566.134	3602
566.194	4766
566.254	4966
566.314	4090
566.374	2652
566.434	3016
566.494	3233
566.554	2620
566.614	3301
566.673	3967
566.733	3620
566.793	4740
566.853	4546
566.913	4788
566.973	3858
567.033	3964
567.092	3669
567.152	4306
567.212	4847
567.272	4529
567.331	5045
567.391	5395
567.451	5645
567.511	6819
567.570	6633
567.630	5094
567.690	5688
567.749	5932
567.809	5647
567.868	6648
567.928	6795
567.988	9558
568.047	10574
568.107	13151
568.166	18247
568.226	26398
568.285	37244
568.345	37708
568.404	30499
568.464	25668
568.523	22941
568.582	23038
568.642	25863
568.701	30714
568.761	42858
568.820	63194
568.879	69810
568.939	55595
568.998	42295
569.057	30875
569.116	25147
569.176	19442
569.235	14991
569.294	13693
569.353	11630
569.413	9924
569.472	9249
569.531	7506
569.590	6673
569.649	6913
569.708	5507
569.767	5654
569.827	5187
569.886	4685
569.945	4541
570.004	4047
570.063	3806
570.122	4145
570.181	3416
570.240	3413
570.299	4305
570.358	4367
570.417	3164
570.475	2743
570.534	3276
570.593	3172
570.652	2396
570.711	2761
570.770	2486
570.829	2896
570.887	1739
570.946	2266
571.005	2227
571.064	2591
571.122	2466
571.181	2220
571.240	1763
571.299	1512
571.357	2875
571.416	2610
571.475	2271
571.533	2691
571.592	2358
571.650	2153
571.709	1731
571.768	2486
571.826	2087
571.885	1968
571.943	2255
572.002	1307
572.060	2122
572.119	1742
572.177	2254
572.236	1920
572.294	1795
572.352	2342
572.411	1548
572.469	2167
572.528	2084
572.586	2688
572.644	1747
572.703	3053
572.761	1969
572.819	2292
572.877	1576
572.936	1954
572.994	1510
573.052	1374
573.110	1954
573.169	1947
573.227	1267
573.285	2174
573.343	1508
573.401	1899
573.459	2289
573.517	2110
573.576	1555
573.634	1904
573.692	1238
573.750	2084
573.808	832
573.866	1768
573.924	1824
573.982	2649
574.040	1749
574.098	1797
574.155	1843
574.213	1835
574.271	1352
574.329	1726
574.387	1380
574.445	1349
574.503	1429
574.560	1540
574.618	1665
574.676	836
574.734	1917
574.792	2190
574.849	2140
574.907	1459
574.965	2018
575.022	1175
575.080	1610
575.138	2192
575.195	1550
575.253	2047
575.311	1285
575.368	1845
575.426	2096
575.483	1434
575.541	1443
575.598	1033
575.656	1435
575.713	2195
575.771	1771
575.828	2432
575.886	860
575.943	1853
576.001	957
576.058	1969
576.115	1600
576.173	2450
576.230	2284
576.287	2671
576.345	2007
576.402	1812
576.459	2013
576.517	2533
576.574	1391
576.631	2989
576.688	1943
576.746	2963
576.803	1806
576.860	2515
576.917	1547
576.974	1992
577.031	1604
577.089	2307
577.146	2411
577.203	1874
577.260	2035
577.317	2599
577.374	1781
577.431	3261
577.488	2443
577.545	1735
577.602	2735
577.659	1458
577.716	2198
577.773	3696
577.830	2619
577.886	2370
577.943	2456
578.000	2404
578.057	2693
578.114	3814
578.171	3934
578.227	4468
578.284	3645
578.341	4306
578.398	2955
578.454	3018
578.511	3198
578.568	3688
578.625	2643
578.681	2934
578.738	2586
578.794	2834
578.851	1566
578.908	1945
578.964	2481
579.021	3147
579.077	2469
579.134	2828
579.190	2894
579.247	2383
579.303	2453
579.360	2868
579.416	2180
579.473	1825
579.529	2787
579.586	3128
579.642	2569
579.698	3267
579.755	3044
579.811	2985
579.867	3251
579.924	3640
579.980	2786
580.036	3977
580.093	3966
580.149	6233
580.205	7243
580.261	6133
580.317	5024
580.374	4045
580.430	4563
580.486	3920
580.542	3393
580.598	3980
580.619	4134
580.654	4407
580.692	3635
580.710	3253
580.765	2845
580.767	2833
580.823	3932
580.838	3719
580.879	3136
580.911	3262
580.935	3363
580.984	3283
580.991	3274
581.047	4032
581.057	3838
581.103	2969
581.130	3087
581.159	3208
581.203	4198
581.215	4470
581.270	3888
581.276	3887
581.326	3851
581.349	3579
581.382	3160
581.422	3109
581.438	3096
581.494	3121
581.494	3128
581.550	3743
581.567	3754
581.606	3765
581.640	3209
581.661	2927
581.713	4545
581.717	4667
581.773	3487
581.786	3618
581.829	4041
581.859	4065
581.885	4072
581.932	3939
581.940	3930
581.996	3976
582.004	4023
582.052	4263
582.077	4030
582.107	3753
582.150	3880
582.163	3897
582.219	3626
582.223	3715
582.274	4892
582.296	4430
582.330	3640
582.368	4068
582.386	4297
582.441	3472
582.441	3470
582.497	4463
582.514	4365
582.552	4292
582.587	4693
582.608	4881
582.659	4873
582.663	4877
582.719	4833
582.732	4751
582.774	4464
582.805	4502
582.830	4551
582.877	4493
582.885	4471
582.941	4887
582.950	4898
582.996	4948
583.023	5013
583.052	5140
583.095	5079
583.107	5098
583.162	6277
583.168	6333
583.218	6817
583.240	6681
583.273	6238
583.313	5943
583.328	5909
583.384	6175
583.385	6133
583.439	4748
583.458	5101
583.494	5817
583.531	5549
583.549	5498
583.603	5561
583.605	5553
583.660	6072
583.676	5876
583.715	5479
583.748	5009
583.770	4721
583.820	5842
583.825	5932
583.881	5824
583.893	5783
583.936	5908
583.965	6568
583.991	6917
584.038	6020
584.046	5941
584.101	5992
584.110	6040
584.156	6119
584.183	5964
584.211	5864
584.255	6600
584.266	6742
584.321	6934
584.328	6847
584.376	6341
584.400	6677
584.431	7091
584.472	7009
584.486	6940
584.541	6899
584.545	6888
584.596	6882
584.617	6932
584.651	7155
584.689	7819
584.706	7963
584.761	7548
584.762	7541
584.816	7422
584.834	7522
584.871	7693
584.906	7357
584.926	7136
584.978	8163
584.980	8218
585.035	8770
585.051	8737
585.090	8736
585.123	9207
585.145	9386
585.195	9507
585.200	9537
585.254	9438
585.267	9686
585.309	10260
585.340	10274
585.364	10564
585.412	10875
585.419	10842
585.473	10847
585.484	10860
585.528	11333
585.556	11575
585.583	11749
585.628	12042
585.637	12186
585.692	14558
585.700	14919
585.747	17101
585.772	17217
585.801	16384
585.845	13421
585.856	12778
585.910	12124
585.917	12110
585.965	12658
585.989	12651
586.019	12772
586.061	13562
586.074	13730
586.128	13652
586.133	13622
586.183	13648
586.205	14005
586.237	14479
586.277	14568
586.292	14682
586.346	15224
586.349	15238
586.401	15497
586.421	15823
586.455	16586
586.493	16920
586.509	17287
586.564	19238
586.565	19283
586.618	22703
586.637	23543
586.672	23283
586.709	21296
586.727	20260
586.781	19465
586.781	19482
586.835	20111
586.853	20257
586.889	20871
586.925	21217
586.944	21405
586.996	22751
586.998	22805
587.052	23414
587.068	23622
587.106	24196
587.140	24802
587.161	25260
587.212	26406
587.215	26488
587.269	27524
587.284	27949
587.323	29450
587.356	30367
587.377	30982
587.427	32732
587.431	32859
587.485	34121
587.499	34413
587.539	35952
587.571	37252
587.593	38352
587.643	41041
587.648	41299
587.702	43251
587.715	43867
587.755	46237
587.786	48207
587.810	50162
587.858	53480
587.864	53905
587.917	58234
587.930	59396
587.971	64141
588.001	67382
588.025	70320
588.073	76335
588.079	77215
588.133	85117
588.145	86901
588.187	95012
588.217	100704
588.241	106162
588.288	117973
588.295	119867
588.348	135151
588.360	138684
588.402	154524
588.431	165782
588.456	176962
588.503	198546
588.510	202607
588.564	237281
588.575	244550
588.617	279776
588.646	304988
588.671	333301
588.718	388348
588.725	398277
588.778	475134
588.789	490288
588.832	546638
588.861	579141
588.886	568349
588.932	525694
588.939	514875
588.993	414892
589.004	404606
589.047	502041
589.075	565895
589.100	587186
589.147	597886
589.154	589828
589.207	515112
589.218	499801
589.261	460469
589.290	435869
589.314	434329
589.361	435609
589.368	441194
589.421	490121
589.433	500290
589.475	540604
589.504	563553
589.528	543248
589.576	479503
589.582	480174
589.635	507937
589.647	514120
589.689	535083
589.718	534346
589.742	487894
589.790	390236
589.795	381990
589.849	303713
589.861	285762
589.902	247506
589.932	219795
589.955	205057
590.004	174377
590.009	172257
590.062	148350
590.075	142396
590.115	129594
590.146	119921
590.168	114997
590.218	103483
590.222	102852
590.275	93117
590.289	90655
590.328	85311
590.360	80653
590.381	78351
590.431	72594
590.435	72373
590.488	67027
590.503	65465
590.541	62796
590.574	60354
590.594	58906
590.645	54874
590.647	54814
590.700	51151
590.716	49899
590.753	48689
590.787	47639
590.806	46664
590.859	43686
590.859	43738
590.912	42672
590.930	42351
590.965	40895
591.001	39295
591.018	39067
591.071	38157
591.072	38079
591.124	35317
591.143	34268
591.177	34085
591.214	33673
591.230	33603
591.283	33409
591.285	33332
591.336	31752
591.356	31073
591.389	31034
591.427	30818
591.442	30496
591.495	29063
591.498	28903
591.547	28650
591.569	28484
591.600	27853
591.640	26772
591.653	26762
591.706	26726
591.711	26654
591.759	26478
591.782	26313
591.811	26250
591.853	26060
591.864	25890
591.917	24733
591.924	24515
591.969	24387
591.995	24243
592.022	23669
592.066	22526
592.075	22668
592.127	23369
592.137	23443
592.180	24360
592.208	24839
592.233	24325
592.279	23220
592.285	23060
592.338	21255
592.350	20802
592.390	20805
592.421	20731
592.443	20561
592.491	20059
592.495	20078
592.548	19801
592.562	19685
592.600	19705
592.633	19657
592.653	19483
592.704	18826
592.705	18932
592.775	18810
592.846	18929
592.916	17458
592.987	18427
593.058	18500
593.128	16947
593.199	16807
593.270	16946
593.341	16169
593.411	16289
593.482	15551
593.553	15925
593.623	14462
593.694	15115
593.764	15913
593.835	15395
593.906	14785
593.976	13996
594.047	14076
594.117	15086
594.188	15828
594.258	14209
594.329	13248
594.399	13204
594.470	12632
594.540	13947
594.611	12845
594.681	13199
594.751	12348
594.822	13558
594.892	12744
594.963	12404
595.033	11697
595.103	12502
595.174	13453
595.244	13870
595.314	17094
595.384	12695
595.455	12454
595.525	11873
595.595	12087
595.665	12093
595.736	11398
595.806	11879
595.876	12424
595.946	11352
596.016	10551
596.087	11109
596.157	11879
596.227	10769
596.297	12071
596.367	10515
596.437	11939
596.507	13142
596.577	15525
596.647	12618
596.717	11237
596.787	10459
596.857	10800
596.927	11122
596.997	11312
597.067	10805
597.137	11746
597.207	11131
597.277	11339
597.347	10554
597.417	9861
597.487	11050
597.557	11140
597.626	11205
597.696	11269
597.766	11884
597.836	14040
597.906	11692
597.975	10256
598.045	9233
598.115	9342
598.185	9403
598.254	10369
598.324	9678
598.394	10064
598.464	9233
598.533	9553
598.603	9859
598.672	10036
598.742	9721
598.812	9132
598.881	9476
598.951	9804
599.020	8355
599.090	9750
599.159	9716
599.229	9521
599.299	9194
599.368	8647
599.437	9275
599.507	9494
599.576	9717
599.646	9444
599.715	10697
599.785	8544
599.854	8852
599.924	9407
599.993	9534
600.062	9175
600.132	8303
600.201	9137
600.270	10066
600.340	9209
600.409	9482
600.478	8809
600.547	9617
600.617	9074
600.686	8996
600.755	9062
600.824	7990
600.894	8903
600.963	9376
601.032	8842
601.101	9098
601.170	8815
601.239	8693
601.308	8461
601.378	8724
601.447	9048
601.516	8662
601.585	8775
601.654	8822
601.723	8511
601.792	9051
601.861	8804
601.930	9713
601.999	8989
602.068	8268
602.137	9248
602.206	8695
602.275	9033
602.343	9098
602.412	8299
602.481	8802
602.550	8054
602.619	8885
602.688	9009
602.756	8973
602.825	8541
602.894	9023
602.963	8145
603.032	8891
603.100	8055
603.169	8670
603.238	8565
603.307	8830
603.375	8826
603.444	8954
603.513	8440
603.581	7904
603.650	8923
603.719	8448
603.787	7635
603.856	7844
603.924	7852
603.993	7943
604.061	8534
604.130	8138
604.198	7925
604.267	8183
604.335	7924
604.404	7914
604.472	7722
604.541	8448
604.609	7962
604.678	8171
604.746	8548
604.815	8027
604.883	8164
604.951	8351
605.020	8492
605.088	8330
605.156	8183
605.225	8120
605.293	7799
605.361	7401
605.429	8090
605.498	7546
605.566	7804
605.634	7914
605.702	7914
605.771	8325
605.839	8692
605.907	7545
605.975	8135
606.043	7860
606.111	7848
606.180	7325
606.248	8140
606.316	9603
606.384	8251
606.452	10109
606.520	8295
606.588	7262
606.656	6910
606.724	7066
606.792	6129
606.860	6304
606.928	5540
606.996	6361
607.064	5567
607.132	5838
607.200	6666
607.267	6345
607.335	6276
607.403	6473
607.471	6080
607.539	5946
607.607	5897
607.674	6040
607.742	5942
607.810	5521
607.878	6462
607.946	5691
608.013	6450
608.081	5835
608.149	5873
608.216	5553
608.284	6905
608.352	6172
608.419	6718
608.487	7920
608.555	6805
608.622	6212
608.690	6395
608.757	6532
608.825	6326
608.893	6773
608.960	6219
609.028	7222
609.095	8010
609.163	7076
609.230	6050
609.298	6318
609.365	5846
609.432	6497
609.500	6451
609.567	6051
609.635	6976
609.702	7003
609.769	6874
609.837	7189
609.904	5563
609.971	5331
610.039	6835
610.106	7428
610.173	10299
610.241	19223
610.308	28580
610.375	24860
610.442	9359
610.509	6178
610.577	6163
610.644	5503
610.711	5958
610.778	6460
610.845	6238
610.912	6325
610.980	6821
611.047	8973
611.114	8527
611.181	5674
611.248	5845
611.315	6495
611.382	6196
611.449	7043
611.516	6444
611.583	5943
611.650	6434
611.717	6510
611.784	6282
611.851	6095
611.918	6354
611.984	6872
612.051	7919
612.118	12438
612.185	24182
612.252	26747
612.319	8903
612.386	6865
612.452	6521
612.519	6833
612.586	9042
612.653	8011
612.719	6758
612.786	5890
612.853	6276
612.919	6118
612.986	6297
613.053	5691
613.120	5507
613.186	5450
613.253	6201
613.319	5413
613.386	5634
613.453	6192
613.519	5942
613.586	6634
613.652	7910
613.719	7238
613.785	6813
613.852	6229
613.918	4802
613.985	6382
614.051	6703
614.118	12018
614.184	15665
614.250	6756
614.317	5551
614.383	5884
614.449	4957
614.516	5561
614.582	5893
614.648	5183
614.715	5230
614.781	5554
614.847	5832
614.914	6231
614.980	5989
615.046	6058
615.112	5744
615.179	6156
615.245	7103
615.311	9081
615.377	15480
615.443	21855
615.509	12894
615.575	8520
615.642	7295
615.708	6783
615.774	7209
615.840	9517
615.906	11043
615.972	15674
616.038	30543
616.104	45212
616.170	44195
616.236	47841
616.302	16489
616.368	9629
616.434	7499
616.500	7092
616.565	7317
616.631	8231
616.697	6947
616.763	8073
616.829	8812
616.895	10750
616.961	11165
617.026	8840
617.092	6472
617.158	6359
617.224	6545
617.289	6174
617.355	6226
617.421	6673
617.487	6608
617.552	5697
617.618	5785
617.684	5932
617.749	7649
617.815	5516
617.880	5714
617.946	6529
618.012	6056
618.077	6166
618.143	6201
618.208	7168
618.274	6055
618.339	6625
618.405	5818
618.470	6230
618.536	6502
618.601	7326
618.667	7097
618.732	6646
618.798	6415
618.863	7370
618.928	6464
618.994	7143
619.059	7592
619.124	7632
619.190	6512
619.255	5883
619.320	6788
619.386	6286
619.451	6244
619.516	6762
619.581	6368
619.647	6472
619.712	5993
619.777	7034
619.842	6328
619.907	6641
619.972	7087
620.038	6908
620.103	6325
620.168	5888
620.233	6427
620.298	5915
620.363	6714
620.428	6242
620.493	6652
620.558	6408
620.623	6137
620.688	6085
620.753	6392
620.818	6352
620.883	6689
620.948	6126
621.013	6212
621.078	5896
621.143	5349
621.207	7022
621.272	6074
621.337	7404
621.402	6781
621.467	8368
621.532	10550
621.596	8393
621.661	7675
621.726	6626
621.791	6868
621.855	7357
621.920	7463
621.985	8092
622.049	8637
622.114	7733
622.179	7734
622.243	8141
622.308	7606
622.373	7906
622.437	8850
622.502	7829
622.566	8133
622.631	7294
622.695	8590
622.760	7971
622.824	7725
622.889	7200
622.953	7850
623.018	8780
623.082	8851
623.147	7236
623.211	8169
623.276	7124
623.340	6607
623.404	7384
623.469	7706
623.533	7162
623.597	7564
623.662	7272
623.726	6729
623.790	6598
623.854	6385
623.919	7345
623.983	6595
624.047	7220
624.111	6715
624.176	7508
624.240	6677
624.304	8476
624.368	6965
624.432	7357
624.496	6971
624.560	6648
624.625	6773
624.689	6727
624.753	6687
624.817	7357
624.881	6916
624.945	6807
625.009	6510
625.073	7032
625.137	6695
625.201	7670
625.265	7555
625.329	6672
625.393	6649
625.456	6321
625.520	6530
625.584	7115
625.648	8147
625.712	10555
625.776	20927
625.839	29378
625.903	17285
625.967	7627
626.031	10178
626.095	17436
626.158	9909
626.222	6392
626.286	6255
626.349	5356
626.413	5821
626.477	6928
626.540	5742
626.604	5760
626.668	5571
626.731	5831
626.795	5397
626.858	6722
626.922	6012
626.986	5682
627.049	5368
627.113	4175
627.176	5898
627.240	5405
627.303	5770
627.366	4986
627.430	5680
627.493	5431
627.557	5786
627.620	5912
627.684	5065
627.747	4989
627.810	5243
627.874	5175
627.937	5182
628.000	6099
628.064	5599
628.127	4765
628.190	5739
628.253	5135
628.317	4455
628.380	5607
628.443	4484
628.506	5101
628.569	5344
628.632	4283
628.696	4109
628.759	4682
628.822	4909
628.885	4507
628.948	4824
629.011	4900
629.074	4634
629.137	4379
629.200	4015
629.263	5118
629.326	4001
629.389	4120
629.452	4326
629.515	4895
629.578	4492
629.641	3880
629.704	4528
629.767	4452
629.830	4601
629.892	4202
629.955	4059
630.018	4237
630.081	4180
630.144	4846
630.207	4634
630.269	5308
630.332	4026
630.395	4703
630.458	3873
630.520	3161
630.583	4129
630.646	3422
630.708	3578
630.771	3705
630.834	4216
630.896	4356
630.959	3964
631.021	3796
631.084	3653
631.146	4498
631.209	4957
631.272	4166
631.334	3567
631.397	3764
631.459	2770
631.522	3277
631.584	4903
631.646	4526
631.709	3580
631.771	4019
631.834	4445
631.896	3879
631.958	3736
632.021	3687
632.083	3501
632.145	3770
632.208	3300
632.270	4174
632.332	3069
632.395	3476
632.457	3421
632.519	4328
632.581	3935
632.643	2741
632.706	3441
632.768	3563
632.830	3468
632.892	3160
632.954	3363
633.016	3998
633.078	2663
633.141	2988
633.203	2981
633.265	3713
633.327	3275
633.389	2764
633.451	3862
633.513	3280
633.575	3109
633.637	2743
633.698	3537
633.760	3346
633.822	2843
633.884	3635
633.946	3013
634.008	2816
634.070	3293
634.132	4130
634.193	3951
634.255	3101
634.317	2678
634.379	3948
634.441	3375
634.502	2881
634.564	2775
634.626	2630
634.687	2907
634.749	2739
634.811	3489
634.873	2989
634.934	3379
634.996	3151
635.057	2231
635.119	2929
635.181	3042
635.242	3590
635.304	2011
635.365	3857
635.427	2088
635.488	2863
635.550	2881
635.611	2744
635.673	2772
635.734	3945
635.796	2658
635.857	3407
635.918	2833
635.980	3177
636.041	2598
636.102	2514
636.164	1319
636.225	3418
636.286	1466
636.348	3214
636.409	1732
636.470	1702
636.531	2953
636.593	2501
636.654	3050
636.715	2163
636.776	3256
636.838	2246
636.899	2308
636.960	2520
637.021	2751
637.082	2214
637.143	2316
637.204	2411
637.265	2028
637.326	2871
637.387	2633
637.448	3013
637.509	2198
637.570	2820
637.631	2326
637.692	1911
637.753	1872
637.814	1660
637.875	2575
637.936	1951
637.997	2286
638.058	2480
638.119	2473
638.179	1622
638.240	1665
638.301	2964
638.362	1895
638.423	2446
638.483	1936
638.544	1196
638.605	1574
638.666	1747
638.726	2422
638.787	1697
638.848	1763
638.908	2227
638.969	2341
639.030	1607
639.090	1356
639.151	1700
639.211	2396
639.272	2449
639.332	2986
639.393	2617
639.453	2042
639.514	2066
639.574	2357
639.635	1905
639.695	1395
639.756	1303
639.816	1656
639.877	1901
639.937	2252
639.997	3107
640.058	1898
640.118	1761
640.178	2502
640.239	2315
640.299	1384
640.359	976
640.420	1765
640.480	2323
640.540	1481
640.600	1977
640.661	2568
640.721	1179
640.781	2691
640.841	1608
640.901	2382
640.961	1799
641.021	2053
641.082	958
641.142	1651
641.202	1576
641.262	1009
641.322	1897
641.382	1495
641.442	1345
641.502	1965
641.562	2309
641.622	1021
641.682	1812
641.742	1748
641.802	1329
641.861	1877
641.921	2294
641.981	1889
642.041	1922
642.101	1758
642.161	2188
642.221	685
642.280	1450
642.340	2471
642.400	1038
642.460	1550
642.519	943
642.579	1443
642.639	2052
642.698	873
642.758	2770
642.818	836
642.877	1448
642.937	1668
642.997	1431
643.056	1725
643.116	1628
643.175	2845
643.235	1436
643.294	1658
643.354	1865
643.414	1128
643.473	1965
643.532	1143
643.592	1592
643.651	1627
643.711	2827
643.770	4782
643.830	7850
643.889	22179
643.948	12670
644.008	2758
644.067	1549
644.126	1402
644.186	1979
644.245	1590
644.304	1111
644.363	2561
644.423	1096
644.482	1238
644.541	1591
644.600	692
644.659	1830
644.719	978
644.778	813
644.837	926
644.896	3132
644.955	3886
645.014	3244
645.073	2314
645.132	1665
645.191	2096
645.250	682
645.309	2634
645.368	896
645.427	1808
645.486	1167
645.545	2573
645.604	1707
645.663	1442
645.722	760
645.781	1761
645.840	1246
645.898	1328
645.957	2098
646.016	731
646.075	2791
646.134	3760
646.192	6668
646.251	16781
646.310	4894
646.369	1916
646.427	1535
646.486	672
646.545	942
646.603	1625
646.662	1102
646.721	1234
646.779	853
646.838	517
646.896	1267
646.955	1295
647.014	1401
647.072	1054
647.131	2122
647.189	2230
647.248	945
647.306	1931
647.365	1825
647.423	920
647.481	1867
647.540	-36
647.598	1658
647.657	1030
647.715	1276
647.773	444
647.832	552
647.890	-10
647.948	1498
648.007	1164
648.065	932
648.123	919
648.181	1823
648.240	1436
648.298	1700
648.356	1303
648.414	801
648.472	1851
648.531	1177
648.589	977
648.647	391
648.705	739
648.763	1002
648.821	1207
648.879	744
648.937	755
648.995	1074
649.053	796
649.111	766
649.169	1584
649.227	1836
649.285	2618
649.343	6614
649.401	6621
649.459	4311
649.516	2622
649.574	1409
649.632	3812
649.690	5347
649.748	3467
649.806	922
649.863	5364
649.921	3420
649.979	2270
650.037	841
650.094	282
650.152	119
650.210	93
650.268	1349
650.325	764
650.383	1453
650.440	206
650.498	1400
650.556	1042
650.613	946
650.671	1017
650.728	1369
650.786	312
650.843	792
650.901	-297
650.958	747
651.016	1142
651.073	124
651.131	703
651.188	141
651.246	1006
651.303	27
651.360	1210
651.418	293
651.475	1596
651.532	203
651.590	875
651.647	104
651.704	331
651.762	716
651.819	153
651.876	-122
651.933	805
651.990	929
652.048	198
652.105	359
652.162	386
652.219	65
652.276	366
652.333	407
652.390	-88
652.448	985
652.505	846
652.562	934
652.619	1253
652.676	1445
652.733	2999
652.790	1161
652.847	140
652.904	1080
652.961	-116
653.017	11
653.074	2109
653.131	313
653.188	9
653.245	350
653.302	476
653.359	50
653.415	783
653.472	-417
653.529	1319
653.586	563
653.642	855
653.699	427
653.756	113
653.813	-170
653.869	792
653.926	585
653.983	279
654.039	224
654.096	327
654.152	635
654.209	-175
654.266	847
654.322	-649
654.379	1557
654.435	984
654.492	805
654.548	959
654.605	1131
654.661	1973
654.717	197
654.774	1043
654.830	630
654.887	216
654.943	446
655.000	446
655.056	485
655.112	359
655.168	-178
655.225	191
655.281	414
655.337	472
655.394	1828
655.450	1595
655.506	1406
655.562	596
655.618	2468
655.675	51
655.731	890
655.787	-174
655.843	741
655.899	-158
655.955	1582
656.011	404
656.067	-749
656.123	761
656.179	769
656.235	1674
656.291	213
656.347	1295
656.403	342
656.459	418
656.515	775
656.571	646
656.627	719
656.683	55
656.739	428
656.795	160
656.850	-43
656.906	531
656.962	810
657.018	-476
657.074	440
657.129	340
657.185	146
657.241	-635
657.297	-375
657.352	197
657.408	309
657.464	1683
657.519	926
657.575	-64
657.630	708
657.686	55
657.742	150
657.797	830
657.853	661
657.908	1038
657.964	242
658.019	45
658.075	518
658.130	713
658.186	-678
658.241	913
658.297	773
658.352	-210
658.407	664
658.463	-565
658.518	1243
658.573	217
658.629	-106
658.684	526
658.739	629
658.795	343
658.850	745
658.905	345
658.960	280
659.016	-302
659.071	128
659.126	348
659.181	634
659.236	1538
659.291	1186
659.346	491
659.401	89
659.457	1093
659.512	772
659.567	1600
659.622	735
659.677	-64
659.732	179
659.787	467
659.842	877
659.897	231
659.952	1094
660.007	601
660.061	567
660.116	-134
660.171	269
660.226	-357
660.281	357
660.336	68
660.391	628
660.445	926
660.500	542
660.555	209
660.610	-865
660.664	721
660.719	-13
660.774	1043
660.828	784
660.883	470
660.938	637
660.992	-206
661.047	109
661.101	194
661.156	85
661.211	116
661.265	626
661.320	730
661.374	-18
661.429	356
661.483	609
661.538	-9
661.592	-183
661.647	-575
661.701	774
661.755	743
661.810	631
661.864	99
661.919	960
661.973	704
662.027	533
662.081	-483
662.136	-910
662.190	158
662.244	637
662.299	-31
662.353	1495
662.407	211
662.461	-212
662.515	775
662.569	444
662.624	1190
662.678	627
662.732	-145
662.786	95
662.840	546
662.894	797
662.948	-378
663.002	300
663.056	251
663.110	-585
663.164	-41
663.218	326
663.272	429
663.326	-200
663.380	221
663.434	686
663.488	-97
663.542	661
663.595	428
663.649	-313
663.703	1100
663.757	921
663.811	-266
663.864	-874
663.918	439
663.972	495
664.026	379
664.079	442
664.133	711
664.187	828
664.240	336
664.294	21
664.348	281
664.401	483
664.455	594
664.508	93
664.562	953
664.615	855
664.669	-371
664.722	1026
664.776	348
664.829	276
664.883	7
664.936	-9
664.990	-291
665.043	262
665.097	-370
665.150	357
665.203	59
665.257	-29
665.310	658
665.363	301
665.417	70
665.470	924
665.523	625
665.576	915
665.630	917
665.683	606
665.736	638
665.789	609
665.842	70
665.895	-285
665.949	1017
666.002	119
666.055	-3
666.108	567
666.161	903
666.214	147
666.267	591
666.320	394
666.373	937
666.426	215
666.479	-113
666.532	932
666.585	569
666.638	618
666.691	20
666.744	975
666.796	337
666.849	25
666.902	499
666.955	58
667.008	-334
667.060	293
667.113	362
667.166	-289
667.219	382
667.271	532
667.324	476
667.377	1016
667.430	906
667.482	135
667.535	382
667.587	404
667.640	1483
667.693	11
667.745	782
667.798	1225
667.850	84
667.903	528
667.955	-413
668.008	-301
668.060	326
668.113	-299
668.165	603
668.218	612
668.270	580
668.322	-83
668.375	569
668.427	784
668.479	-355
668.532	882
668.584	984
668.636	-91
668.689	254
668.741	594
668.793	616
668.845	-529
668.898	466
668.950	790
669.002	955
669.054	-234
669.106	762
669.158	171
669.211	566
669.263	76
669.315	792
669.367	910
669.419	445
669.471	664
669.523	573
669.575	580
669.627	366
669.679	-271
669.731	1114
669.783	784
669.835	426
669.886	734
669.938	177
669.990	763
670.042	-532
670.094	178
670.146	772
670.197	1416
670.249	920
670.301	1056
670.353	1786
670.404	2620
670.456	4191
670.508	7656
670.560	12613
670.611	21358
670.663	37595
670.715	74839
670.766	162202
670.818	100530
670.869	18208
670.921	6304
670.972	3773
671.024	2298
671.075	1459
671.127	701
671.178	702
671.230	1257
671.281	979
671.333	908
671.384	1144
671.436	842
671.487	634
671.538	668
671.590	-17
671.641	498
671.692	1339
671.744	881
671.795	1287
671.846	330
671.897	868
671.949	97
672.000	827
672.051	528
672.102	1019
672.153	30
672.204	449
672.256	238
672.307	18
672.358	800
672.409	-80
672.460	674
672.511	497
672.562	-527
672.613	10
672.664	106
672.715	799
672.766	434
672.817	-221
672.868	98
672.919	501
672.970	17
673.021	403
673.071	-288
673.122	13
673.173	-158
673.224	-282
673.275	699
673.326	-407
673.376	781
673.427	-562
673.478	-505
673.528	828
673.579	44
673.630	397
673.680	11
673.731	-566
673.782	-319
673.832	242
673.883	298
673.934	349
673.984	575
674.035	577
674.085	318
674.136	265
674.186	713
674.237	406
674.287	527
674.338	952
674.388	44
674.438	-465
674.489	763
674.539	571
674.589	-696
674.640	515
674.690	-54
674.740	-246
674.791	1019
674.841	-510
674.891	556
674.942	-571
674.992	-82
675.042	198
675.092	-79
675.142	291
675.193	-333
675.243	20
675.293	-256
675.343	-756
675.393	96
675.443	929
675.493	388
675.543	-682
675.593	-39
675.643	103
675.693	-13
675.743	-366
675.793	241
675.843	-1254
675.893	262
675.943	310
675.993	-176
676.043	-566
676.093	182
676.142	30
676.192	1040
676.242	-51
676.292	-197
676.341	-445
676.391	-35
676.441	553
676.491	28
676.540	-541
676.590	398
676.640	-704
676.689	-234
676.739	-137
676.789	-127
676.838	67
676.888	48
676.937	105
676.987	806
677.037	-309
677.086	-838
677.136	-1034
677.185	-64
677.235	-278
677.284	-304
677.333	-623
677.383	-121
677.432	-569
677.482	-320
677.531	-384
677.580	257
677.630	-194
677.679	151
677.728	-524
677.778	-265
677.827	-623
677.876	-905
677.925	167
677.975	459
678.024	-398
678.073	-501
678.122	-115
678.171	-165
678.220	-904
678.269	-325
678.319	-594
678.368	-136
678.417	-927
678.466	-227
678.515	301
678.564	89
678.613	-289
678.662	-366
678.711	-798
678.760	-521
678.809	-689
678.857	-817
678.906	-644
678.955	-573
679.004	-104
679.053	214
679.102	-251
679.151	-556
679.199	-476
679.248	-385
679.297	-311
679.346	4
679.394	-507
679.443	-1172
679.492	-384
679.540	-115
679.589	-57
679.638	-400
679.686	-718
679.735	-659
679.784	-485
679.832	-638
679.881	-1079
679.929	171
679.978	-1171
680.026	-1096
680.075	-669
680.123	-882
680.172	-1084
680.220	-724
680.268	-582
680.317	-440
680.365	-609
680.414	-788
680.462	-924
680.510	-221
680.559	-222
680.607	-1028
680.655	171
680.703	-610
680.752	-877
680.800	-360
680.848	-479
680.896	-340
680.945	-724
680.993	-378
681.041	-371
681.089	-347
681.137	-994
681.185	-467
681.233	-386
681.258	-199
681.281	-50
681.329	-674
681.377	-810
681.380	-741
681.425	-21
681.473	-337
681.502	-91
681.521	29
681.569	-441
681.617	-432
681.624	-352
681.665	-36
681.713	530
681.745	527
681.761	479
681.809	-362
681.857	741
681.867	751
681.904	666
681.952	-29
681.989	51
682.000	44
682.048	256
682.096	916
682.111	614
682.143	-99
682.191	431
682.233	1235
682.239	1319
682.286	849
682.334	256
682.354	201
682.382	95
682.430	50
682.476	599
682.477	585
682.525	1106
682.572	926
682.598	996
682.620	996
682.667	839
682.715	565
682.720	679
682.763	1554
682.810	1347
682.841	1428
682.857	1444
682.905	959
682.952	1347
682.963	1572
683.000	2203
683.047	1442
683.085	2295
683.095	2508
683.142	1634
683.190	1502
683.206	1366
683.237	1065
683.284	1835
683.328	2284
683.332	2298
683.379	2069
683.426	1625
683.449	1682
683.473	1718
683.521	2678
683.568	2090
683.571	2102
683.615	1959
683.662	2112
683.693	2341
683.709	2449
683.757	2228
683.804	1996
683.814	2026
683.851	2064
683.898	2869
683.936	2582
683.945	2485
683.992	2630
684.039	2739
684.057	2660
684.086	2513
684.133	2360
684.179	3100
684.180	3105
684.227	2631
684.274	3154
684.300	3311
684.321	3431
684.368	3088
684.415	3016
684.422	3076
684.462	3244
684.509	2639
684.543	2402
684.556	2330
684.603	3489
684.649	2926
684.665	2985
684.696	3042
684.743	3227
684.786	3000
684.790	2977
684.837	3255
684.883	3831
684.908	3991
684.930	4095
684.977	4641
685.023	4017
685.029	4112
685.070	4506
685.117	3704
685.150	3761
685.164	3846
685.210	3857
685.257	5240
685.272	5137
685.303	4821
685.350	4843
685.393	4601
685.396	4571
685.443	4771
685.490	4826
685.514	4700
685.536	4560
685.583	4833
685.629	4599
685.636	4551
685.675	4089
685.722	4813
685.757	4700
685.768	4718
685.815	4890
685.861	4873
685.878	5037
685.908	5163
685.954	4892
686.000	4989
686.000	4990
686.047	5053
686.093	5765
686.121	6351
686.139	6610
686.185	6182
686.232	5695
686.242	5751
686.278	5781
686.324	5924
686.363	5262
686.370	5151
686.416	6008
686.463	5884
686.484	5749
686.509	5638
686.555	5749
686.601	5203
686.606	5226
686.647	5434
686.693	5680
686.727	5724
686.739	5743
686.785	5979
686.831	5761
686.848	5893
686.877	6031
686.923	5741
686.969	5735
686.969	5734
687.015	5849
687.061	5923
687.090	5900
687.107	5829
687.153	6186
687.199	6026
687.211	6062
687.245	6146
687.291	5903
687.332	6130
687.336	6168
687.382	6634
687.428	6075
687.453	6236
687.474	6255
687.520	6114
687.565	6240
687.574	6250
687.611	6536
687.657	6500
687.695	6386
687.702	6374
687.748	6829
687.794	7007
687.816	7200
687.839	7228
687.885	6936
687.931	6737
687.937	6664
687.976	6391
688.022	6440
688.058	6906
688.067	7040
688.113	7203
688.158	6566
688.179	6848
688.204	7120
688.249	7031
688.295	6766
688.300	6798
688.340	7297
688.386	7560
688.421	7793
688.431	7807
688.477	7447
688.522	7574
688.542	7518
688.567	7511
688.613	8110
688.658	7713
688.663	7705
688.703	7574
688.749	7567
688.784	7621
688.794	7715
688.839	7543
688.884	8006
688.905	8176
688.930	8215
688.975	8012
689.020	8013
689.026	7968
689.065	7905
689.110	8007
689.146	8188
689.155	8212
689.201	8083
689.246	8018
689.267	8121
689.291	8370
689.336	7754
689.381	8135
689.388	8121
689.426	7916
689.471	8100
689.509	7931
689.516	7914
689.561	7958
689.606	8055
689.630	7846
689.651	7800
689.696	8150
689.741	8357
689.750	8371
689.785	8353
689.830	8163
689.871	8403
689.875	8421
689.920	8482
689.965	8086
689.992	7924
690.010	7963
690.054	7900
690.099	8468
690.112	8453
690.144	8529
690.189	8725
690.233	8943
690.233	8956
690.278	8672
690.323	8591
690.354	8545
690.367	8611
690.412	8306
690.457	8947
690.474	8936
690.501	9094
690.546	9280
690.590	9777
690.595	9751
690.635	9487
690.680	9898
690.716	10143
690.724	10370
690.769	11010
690.813	12330
690.836	12641
690.857	13447
690.902	15718
690.946	17876
690.957	18268
690.991	23286
691.035	30138
691.077	37261
691.080	37702
691.124	44027
691.168	49924
691.198	54259
691.213	50921
691.257	40293
691.301	29806
691.318	25658
691.346	23119
691.390	18785
691.434	14950
691.439	14432
691.478	13280
691.522	12462
691.559	11501
691.567	11491
691.611	11372
691.655	11080
691.680	11187
691.699	11253
691.743	10937
691.787	10632
691.800	10481
691.831	10326
691.875	10169
691.919	9842
691.921	9826
691.964	10491
692.008	11080
692.041	11341
692.052	11336
692.096	10882
692.139	11245
692.162	11058
692.183	10844
692.227	10832
692.271	10326
692.282	10302
692.315	10649
692.359	10632
692.402	10820
692.403	10843
692.447	10733
692.490	10500
692.523	10577
692.534	10696
692.578	10608
692.622	10842
692.643	10890
692.666	10980
692.709	11071
692.753	10926
692.763	10930
692.797	11083
692.840	10898
692.884	11266
692.884	11294
692.928	11420
692.971	11419
693.004	11419
693.015	11485
693.059	11774
693.102	11818
693.124	11802
693.146	11722
693.189	11623
693.233	11689
693.245	11682
693.276	12418
693.320	13285
693.363	13938
693.365	13944
693.407	14648
693.450	14914
693.485	15404
693.493	15824
693.537	17806
693.580	19661
693.605	20771
693.624	22949
693.667	27968
693.710	32814
693.725	34509
693.753	45302
693.797	62146
693.840	79577
693.845	81498
693.883	94078
693.926	107444
693.966	119745
693.970	117526
694.013	92092
694.056	66211
694.086	48420
694.099	45690
694.142	36773
694.185	27606
694.206	23258
694.229	22157
694.272	19864
694.315	17462
694.326	16940
694.358	16879
694.401	16182
694.444	15606
694.446	15535
694.487	14668
694.530	13871
694.566	13040
694.573	13029
694.616	12881
694.659	12696
694.686	12598
694.702	12523
694.745	12288
694.787	11756
694.806	11603
694.830	11774
694.873	11866
694.916	12081
694.926	12078
694.959	12005
695.002	12005
695.044	11738
695.046	11704
695.087	11848
695.130	12024
695.166	12028
695.172	12043
695.215	11951
695.258	11889
695.286	11777
695.301	11792
695.343	11852
695.386	11865
695.406	11833
695.428	11891
695.471	12016
695.514	12129
695.526	12064
695.556	12026
695.599	12133
695.641	12103
695.646	12092
695.684	12137
695.726	12001
695.766	11854
695.769	11900
695.811	12223
695.854	12380
695.886	12466
695.896	12410
695.938	12104
695.981	11714
696.005	11555
696.023	11758
696.065	11892
696.108	12345
696.125	12445
696.150	12455
696.192	12389
696.235	12292
696.245	12245
696.277	12260
696.319	12213
696.361	12275
696.365	12232
696.404	12494
696.446	12885
696.485	13097
696.488	13116
696.530	12937
696.572	12760
696.604	12527
696.614	12576
696.656	12716
696.698	12910
696.724	12897
696.740	12764
696.783	12409
696.825	12095
696.844	11890
696.867	12015
696.909	12168
696.951	12381
696.964	12419
696.992	12403
697.034	12212
697.076	12096
697.083	12033
697.118	12143
697.160	12283
697.202	12406
697.203	12374
697.244	12509
697.286	12601
697.323	12577
697.327	12580
697.369	12383
697.411	12119
697.442	12008
697.453	12069
697.494	11970
697.536	11984
697.562	11920
697.578	12016
697.620	12257
697.661	12423
697.682	12446
697.703	12332
697.744	12082
697.786	11949
697.801	11813
697.828	12027
697.869	12380
697.911	12691
697.921	12731
697.952	12556
697.994	12263
698.035	12035
698.040	11968
698.077	11818
698.118	11615
698.160	11387
698.160	11353
698.201	11639
698.243	11847
698.279	12035
698.284	12103
698.325	12392
698.367	12709
698.399	12887
698.408	12829
698.449	12431
698.491	12031
698.518	11690
698.532	11832
698.573	12210
698.614	12540
698.638	12719
698.656	12770
698.697	12766
698.738	12804
698.757	12772
698.779	12901
698.820	13067
698.862	13251
698.877	13277
698.903	13284
698.944	13241
698.985	13194
698.996	13145
699.026	13324
699.067	13518
699.116	13712
699.235	12856
699.354	12599
699.474	11420
699.593	12713
699.713	13780
699.832	12546
699.951	13147
700.070	12298
700.190	11464
700.309	12214
700.428	11867
700.547	12551
700.667	11935
700.786	12101
700.905	12916
701.024	11958
701.143	11986
701.262	11442
701.381	10501
701.500	11390
701.619	11791
701.738	11147
701.857	11560
701.976	11751
702.095	11232
702.214	10805
702.333	11559
702.452	10828
702.571	11282
702.690	11576
702.809	11088
702.928	11803
703.047	10829
703.165	11457
703.284	10727
703.403	11408
703.522	10543
703.640	12553
703.759	10693
703.878	13236
703.997	11613
704.115	10742
704.234	10629
704.353	11044
704.471	10062
704.590	9820
704.708	9827
704.827	9643
704.946	10388
705.064	11074
705.183	10703
705.301	12115
705.420	15060
705.538	16505
705.656	14533
705.775	13307
705.893	16750
706.012	29441
706.130	16566
706.249	14012
706.367	13565
706.485	13777
706.604	13432
706.722	13309
706.840	14243
706.958	14351
707.077	14520
707.195	13615
707.313	11889
707.431	12471
707.549	12160
707.668	12325
707.786	12206
707.904	11959
708.022	11950
708.140	11192
708.258	10948
708.376	11843
708.494	11965
708.612	11726
708.730	15365
708.848	18204
708.966	14940
709.084	15137
709.202	13764
709.320	14942
709.438	14606
709.556	14847
709.674	14139
709.791	15000
709.909	13476
710.027	14147
710.145	13849
710.263	14316
710.380	14233
710.498	13375
710.616	13257
710.733	13010
710.851	12923
710.969	13631
711.086	13089
711.204	13712
711.322	12844
711.439	13045
711.557	12738
711.674	13042
711.792	12826
711.909	13400
712.027	14483
712.144	13063
712.262	12759
712.379	12244
712.497	16251
712.614	20798
712.732	16983
712.849	14772
712.966	14574
713.084	15960
713.201	15999
713.318	16129
713.436	16344
713.553	15254
713.670	15357
713.787	16005
713.905	15897
714.022	15258
714.139	14986
714.256	14828
714.373	14129
714.490	14978
714.608	16889
714.725	28221
714.842	57719
714.959	18477
715.076	13296
715.193	13453
715.310	13971
715.427	13101
715.544	12402
715.661	13763
715.778	12941
715.895	13403
716.011	14080
716.128	14087
716.245	13228
716.362	13743
716.479	12581
716.596	12767
716.713	12611
716.829	12543
716.946	12805
717.063	12644
717.180	12289
717.296	11906
717.413	11959
717.530	11820
717.646	12229
717.763	11422
717.880	11462
717.996	11029
718.113	11649
718.229	11152
718.346	11996
718.462	10961
718.579	11369
718.695	13092
718.812	13635
718.928	12859
719.045	12560
719.161	11329
719.277	10590
719.394	10190
719.510	11674
719.626	10855
719.743	11658
719.859	12507
719.975	10841
720.092	14109
720.208	25075
720.324	16673
720.440	11256
720.557	9972
720.673	12029
720.789	13538
720.905	23459
721.021	23170
721.137	11263
721.253	10276
721.369	9868
721.486	11016
721.602	12296
721.718	11396
721.834	9349
721.950	9406
722.066	8427
722.181	9209
722.297	9834
722.413	10259
722.529	8788
722.645	9183
722.761	8408
722.877	9268
722.993	8881
723.108	9813
723.224	8304
723.340	8890
723.456	8571
723.571	8675
723.687	8499
723.803	8763
723.918	8882
724.034	8879
724.150	7872
724.265	8554
724.381	11113
724.497	18364
724.612	9461
724.728	8680
724.843	7886
724.959	8634
725.074	9669
725.190	18021
725.305	10007
725.421	8532
725.536	8072
725.651	7583
725.767	7110
725.882	7343
725.997	7794
726.113	7607
726.228	6955
726.343	7820
726.459	6843
726.574	6824
726.689	7673
726.804	7260
726.920	7740
727.035	7352
727.150	7327
727.265	7109
727.380	7086
727.495	7459
727.610	6731
727.725	7425
727.841	7457
727.956	9205
728.071	15107
728.186	7844
728.301	5924
728.416	6823
728.531	6709
728.645	6451
728.760	6040
728.875	6892
728.990	6142
729.105	7259
729.220	6869
729.335	6795
729.449	6442
729.564	6443
729.679	6363
729.794	6677
729.908	6266
730.023	6986
730.138	6394
730.253	5963
730.367	5460
730.482	5862
730.596	6566
730.711	6661
730.826	6301
730.940	6286
731.055	6411
731.169	6085
731.284	5809
731.398	6257
731.513	6129
731.627	5781
731.742	5775
731.856	7431
731.970	6035
732.085	5848
732.199	5128
732.313	5323
732.428	6323
732.542	9515
732.656	11647
732.771	6345
732.885	5892
732.999	6172
733.113	6661
733.227	6461
733.342	5027
733.456	5638
733.570	5796
733.684	5600
733.798	4647
733.912	5174
734.026	5408
734.140	5450
734.254	4690
734.368	6774
734.482	10410
734.596	6511
734.710	4871
734.824	5556
734.938	4667
735.052	5645
735.166	5322
735.280	6320
735.393	4461
735.507	4133
735.621	5412
735.735	7839
735.849	8051
735.962	4917
736.076	5335
736.190	5653
736.303	5703
736.417	8600
736.531	5230
736.644	5191
736.758	5680
736.872	4232
736.985	4284
737.099	4367
737.212	4563
737.326	5252
737.439	3946
737.553	5446
737.666	4150
737.780	4681
737.893	4542
738.007	5031
738.120	4316
738.233	5042
738.347	4806
738.460	5325
738.573	4668
738.687	4130
738.800	4910
738.913	4179
739.026	3803
739.140	4486
739.253	5020
739.366	4984
739.479	4445
739.592	4091
739.705	4163
739.818	4672
739.932	4401
740.045	4307
740.158	4040
740.271	4773
740.384	4172
740.497	5309
740.610	4959
740.723	4078
740.836	4453
740.949	4891
741.062	4808
741.174	5918
741.287	5011
741.400	3797
741.513	3749
741.626	4658
741.739	4083
741.851	4687
741.964	4361
742.077	4785
742.189	3623
742.302	4877
742.415	4178
742.527	4260
742.640	4066
742.753	4648
742.865	4051
742.978	4695
743.090	4106
743.203	4968
743.316	3830
743.428	4348
743.541	4038
743.653	3659
743.766	4382
743.878	3603
743.990	4121
744.103	5333
744.215	5088
744.327	4088
744.440	4249
744.552	4492
744.664	4334
744.777	4044
744.889	3475
745.001	4419
745.113	3863
745.226	4394
745.338	4537
745.450	3747
745.562	3864
745.674	3999
745.786	3973
745.898	4422
746.010	3996
746.122	4411
746.234	4174
746.347	4747
746.459	4062
746.570	3951
746.682	3567
746.794	4337
746.906	4136
747.018	4124
747.130	4682
747.242	4219
747.354	4747
747.466	4589
747.577	4293
747.689	3477
747.801	4074
747.913	2986
748.024	3576
748.136	4484
748.248	2876
748.359	3508
748.471	3989
748.583	3702
748.694	3408
748.806	5167
748.918	4527
749.029	4645
749.141	4370
749.252	4685
749.364	3979
749.475	4945
749.587	4859
749.698	3951
749.809	4095
749.921	4581
750.032	4482
750.144	3674
750.255	3717
750.366	3961
750.478	4709
750.589	4374
750.700	3932
750.811	3802
750.923	4751
751.034	4584
751.145	5122
751.256	4274
751.367	4281
751.479	3545
751.590	3535
751.701	3920
751.812	4536
751.923	4617
752.034	4302
752.145	3700
752.256	4250
752.367	4226
752.478	3319
752.589	3847
752.700	3764
752.811	4261
752.922	4651
753.032	3537
753.143	3379
753.254	4143
753.365	3675
753.476	3814
753.586	4574
753.697	4115
753.808	3933
753.919	3831
754.029	3923
754.140	4269
754.251	3385
754.361	4658
754.472	3942
754.582	4708
754.693	4415
754.804	4694
754.914	4131
755.025	3673
755.135	3516
755.246	3996
755.356	3490
755.466	4213
755.577	3982
755.687	4590
755.798	4346
755.908	4861
756.018	4861
756.129	5050
756.239	4109
756.349	5137
756.460	5012
756.570	4582
756.680	4448
756.790	4091
756.900	4867
757.011	4703
757.121	3877
757.231	3988
757.341	5033
757.451	4694
757.561	4622
757.671	4857
757.781	4415
757.891	4443
758.001	5414
758.111	4662
758.221	4639
758.331	5103
758.441	5269
758.551	4712
758.661	6122
758.771	5470
758.880	5130
758.990	5865
759.100	5409
759.210	5491
759.320	6327
759.429	5517
759.539	5642
759.649	5895
759.758	5722
759.868	6777
759.978	6102
760.087	7000
760.197	6693
760.307	6547
760.416	6913
760.526	6815
760.635	6686
760.745	6679
760.854	7113
760.964	7603
761.073	7353
761.182	8069
761.292	8650
761.401	8815
761.511	8935
761.620	8467
761.729	8656
761.839	8288
761.948	8989
762.057	9390
762.166	9423
762.276	9105
762.385	11399
762.494	10772
762.603	10350
762.712	11685
762.822	12357
762.931	11984
763.040	12411
763.149	12550
763.258	12862
763.367	13657
763.476	14858
763.585	15306
763.694	16525
763.803	16658
763.912	17930
764.021	19037
764.130	19567
764.238	21359
764.347	22316
764.456	25042
764.565	26031
764.674	28338
764.783	31653
764.891	34197
765.000	38421
765.109	42086
765.217	49011
765.326	55896
765.435	65516
765.543	79453
765.652	95422
765.761	120196
765.869	151698
765.978	203290
766.086	272996
766.195	371238
766.303	476176
766.412	468704
766.520	325713
766.629	461717
766.737	462731
766.846	354915
766.954	259122
767.062	191566
767.171	148123
767.279	117054
767.387	93821
767.496	77545
767.604	66444
767.712	57369
767.820	49130
767.928	46106
768.037	42638
768.145	39686
768.253	37353
768.361	35922
768.469	35358
768.577	36576
768.685	37652
768.793	39120
768.901	41927
769.009	46961
769.117	54549
769.225	68412
769.333	88079
769.441	123381
769.549	182080
769.657	284558
769.765	416919
769.873	410066
769.981	381174
770.088	400724
770.196	272841
770.304	183014
770.412	129255
770.519	96810
770.627	76577
770.735	61990
770.842	51350
770.950	43651
771.058	37740
771.165	34334
771.273	30217
771.380	28313
771.488	24599
771.595	22653
771.703	21058
771.810	20316
771.918	18400
772.025	18475
772.133	15730
772.240	15380
772.348	15504
772.455	14253
772.562	13045
772.670	12456
772.777	12691
772.884	11829
772.991	10913
773.099	11435
773.206	10834
773.313	10992
773.420	9648
773.528	9170
773.635	8848
773.742	8399
773.849	8307
773.956	8520
774.063	8301
774.170	8469
774.277	8753
774.384	7189
774.491	7608
774.598	7254
774.705	6559
774.812	7851
774.919	7373
775.026	6022
775.133	6790
775.239	6942
775.346	6317
775.453	6718
775.560	6265
775.667	6155
775.773	5967
775.880	6048
775.987	5172
776.093	5931
776.200	5215
776.307	5592
776.413	5358
776.520	5976
776.627	5673
776.733	5544
776.840	5231
776.946	5913
777.053	5152
777.159	4837
777.266	4947
777.372	5437
777.478	4819
777.585	4935
777.691	4811
777.798	4132
777.904	4113
778.010	4478
778.117	5317
778.223	4325
778.329	4375
778.435	4642
778.542	3721
778.648	4126
778.754	4455
778.860	4617
778.966	4389
779.072	4046
779.178	4187
779.284	5254
779.391	4448
779.497	4188
779.603	5920
779.708	7125
779.815	13864
779.920	34616
780.026	120928
780.132	69471
780.238	10046
780.344	6419
780.450	4745
780.556	4248
780.661	3831
780.767	3923
780.873	3810
780.979	4411
781.085	2847
781.190	3508
781.296	3239
781.402	3539
781.507	3446
781.613	3195
781.719	3566
781.824	3349
781.930	3528
782.035	3239
782.141	3200
782.246	2786
782.352	3081
782.457	3453
782.563	2848
782.668	2495
782.773	3084
782.879	2870
782.984	3174
783.090	3894
783.195	2518
783.300	3366
783.405	2368
783.511	2628
783.616	2958
783.721	2856
783.826	3154
783.932	3004
784.037	3291
784.142	3313
784.247	2757
784.352	2915
784.457	2847
784.562	3492
784.667	2134
784.772	2903
784.877	2160
784.982	3034
785.087	2411
785.192	2978
785.297	2267
785.402	2732
785.507	2126
785.611	3164
785.716	1972
785.821	2452
785.926	2400
786.031	2998
786.135	2082
786.240	2898
786.345	1695
786.450	3233
786.554	2273
786.659	2068
786.763	1320
786.868	2761
786.973	2249
787.077	1906
787.182	1850
787.286	2472
787.391	2316
787.495	2082
787.600	2233
787.704	1703
787.809	2204
787.913	1593
788.017	2226
788.122	1512
788.226	2340
788.330	2624
788.435	2334
788.539	1604
788.643	2139
788.747	1789
788.852	1673
788.956	1303
789.060	2087
789.164	2542
789.268	1669
789.372	2590
789.476	1927
789.580	1607
789.684	1512
789.788	2036
789.892	1559
789.996	2193
790.100	1784
790.204	1974
790.308	2155
790.412	1206
790.516	2225
790.620	2780
790.724	1648
790.828	1908
790.931	1217
791.035	2531
791.139	2257
791.242	1376
791.346	2012
791.450	1735
791.554	1438
791.657	1941
791.761	2687
791.864	2336
791.968	1706
792.072	1451
792.175	1470
792.279	1881
792.382	2088
792.486	1011
792.589	1576
792.693	2390
792.796	925
792.899	2243
793.003	990
793.106	1181
793.209	1441
793.313	2189
793.416	373
793.519	2025
793.623	1027
793.726	2384
793.829	1968
793.932	2099
794.035	1378
794.138	2520
794.242	2575
794.345	2370
794.448	3744
794.551	7089
794.654	20643
794.757	70785
794.860	46837
794.963	5834
795.066	2754
795.169	2191
795.272	1722
795.375	1812
795.477	2624
795.580	1951
795.683	1320
795.786	1892
795.889	704
795.991	2491
796.094	1833
796.197	1434
796.300	1904
796.402	1588
796.505	716
796.608	832
796.710	1988
796.813	1576
796.915	965
797.018	1157
797.120	1124
797.223	1437
797.326	1667
797.428	806
797.530	998
797.633	900
797.735	2305
797.838	1779
797.940	2406
798.042	1086
798.145	707
798.247	1727
798.349	921
798.452	1586
798.554	893
798.656	629
798.758	1150
798.860	1398
798.962	436
799.065	1788
799.167	625
799.269	1111
799.371	834
799.473	1010
799.575	876
799.677	1406
799.779	1383
799.881	1701
799.983	1583
800.085	1297
800.187	1486
800.289	1157
800.390	1480
800.492	1493
800.594	1943
800.696	887
800.798	1102
800.899	1420
801.001	866
801.103	1639
801.205	413
801.306	766
801.408	743
801.509	459
801.611	998
801.713	1041
801.814	179
801.916	822
802.017	437
802.119	1035
802.220	937
802.322	176
802.423	1475
802.525	854
802.626	301
802.727	1193
802.829	1642
802.930	611
803.031	1913
803.133	555
803.234	129
803.335	1463
803.436	1153
803.538	1074
803.639	428
803.740	1216
803.841	988
803.942	970
804.043	1182
804.144	278
804.245	620
804.346	982
804.447	1115
804.548	1347
804.649	1446
804.750	1161
804.851	843
804.952	674
805.053	692
805.154	588
805.255	1470
805.355	889
805.456	1026
805.557	868
805.658	-66
805.758	913
805.859	739
805.960	1265
806.061	812
806.161	608
806.262	480
806.362	802
806.463	1042
806.564	1200
806.664	1087
806.765	1287
806.865	500
806.966	1004
807.066	234
807.166	1078
807.267	1307
807.367	1039
807.468	690
807.568	255
807.668	872
807.769	1362
807.869	557
807.969	1423
808.069	999
808.170	673
808.270	885
808.370	1565
808.470	-325
808.570	474
808.670	242
808.770	496
808.870	-243
808.970	891
809.070	-42
809.170	1125
809.271	1225
809.370	624
809.470	441
809.570	871
809.670	642
809.770	236
809.870	367
809.970	1358
810.070	898
810.169	379
810.269	-193
810.369	1200
810.469	280
810.568	324
810.668	556
810.768	615
810.867	113
810.967	749
811.066	207
811.166	245
811.265	544
811.365	1306
811.464	54
811.564	754
811.663	1084
811.763	222
811.862	508
811.962	643
812.061	64
812.160	970
812.260	1000
812.359	826
812.458	659
812.557	1624
812.657	4667
812.756	2939
812.855	486
812.954	883
813.053	665
813.153	755
813.252	774
813.351	402
813.450	347
813.549	917
813.648	1197
813.747	374
813.846	424
813.945	1044
814.044	1542
814.143	1147
814.242	756
814.341	844
814.439	1267
814.538	758
814.637	1091
814.736	1466
814.835	287
814.933	1118
815.032	1272
815.131	1410
815.229	974
815.328	1481
815.427	1543
815.525	1511
815.624	1834
815.722	695
815.821	2253
815.919	2417
816.018	1133
816.116	1597
816.215	1306
816.313	2387
816.412	1396
816.510	2606
816.609	2566
816.707	2006
816.805	2473
816.904	3295
817.002	2995
817.100	3761
817.198	3814
817.296	4817
817.395	4748
817.493	6429
817.591	7383
817.689	9423
817.787	13193
817.885	18094
817.983	29150
818.081	51619
818.179	102308
818.277	209778
818.375	299031
818.473	184712
818.571	83367
818.669	46666
818.767	33709
818.865	29882
818.963	31495
819.061	39451
819.158	57453
819.256	95470
819.354	166783
819.452	291428
819.549	320161
819.647	211759
819.745	110222
819.842	63061
819.940	39930
820.038	28289
820.135	20787
820.233	16822
820.330	12226
820.428	10892
820.525	9550
820.623	7832
820.720	5903
820.818	6651
820.915	5319
821.012	4813
821.110	3159
821.207	3260
821.304	2441
821.402	3491
821.499	3330
821.596	2125
821.693	1719
821.791	3354
821.888	2308
821.985	2976
822.082	2357
822.179	2237
822.276	1646
822.373	1088
822.470	1889
822.567	1175
822.664	434
822.761	2266
822.858	1547
822.955	1485
823.052	1419
823.149	1390
823.246	1058
823.343	1301
823.440	856
823.536	1006
823.633	438
823.730	494
823.827	1166
823.923	854
824.020	1801
824.117	731
824.213	63
824.310	1475
824.407	1434
824.503	639
824.600	1050
824.696	945
824.793	874
824.889	555
824.986	-134
825.082	209
825.179	1285
825.275	847
825.371	125
825.468	1306
825.564	996
825.660	726
825.757	741
825.853	568
825.949	116
826.045	384
826.142	-201
826.238	185
826.334	-245
826.430	-196
826.526	455
826.622	-200
826.718	739
826.814	549
826.910	713
827.006	567
827.102	-325
827.198	1335
827.294	48
827.390	179
827.486	208
827.582	-355
827.678	93
827.774	811
827.869	-821
827.965	2070
828.061	150
828.157	411
828.252	-39
828.348	455
828.444	769
828.539	-827
828.635	-422
828.731	1369
828.826	-935
828.922	658
829.017	-29
829.113	278
829.208	-418
829.304	-244
829.399	361
829.495	-280
829.590	711
829.685	399
829.781	-192
829.876	137
829.971	-392
830.066	775
830.162	463
830.257	-54
830.352	-869
830.447	679
830.543	-52
830.638	210
830.733	149
830.828	-270
830.923	682
831.018	-130
831.113	124
831.208	-71
831.303	-488
831.398	561
831.493	9
831.588	182
831.683	-287
831.778	12
831.873	-650
831.967	698
832.062	-213
832.157	23
832.252	334
832.346	200
832.441	882
832.536	424
832.631	936
832.725	1593
832.820	102
832.914	-606
833.009	-748
833.104	-413
833.198	266
833.293	115
833.387	278
833.482	-565
833.576	-186
833.670	330
833.765	-774
833.859	-101
833.954	-70
834.048	-689
834.142	189
834.237	205
834.331	-80
834.425	-331
834.519	-137
834.613	206
834.708	-336
834.802	-367
834.896	-800
834.990	-454
835.084	331
835.178	-601
835.272	-294
835.366	495
835.460	239
835.554	525
835.648	-401
835.742	14
835.836	-485
835.930	-1133
836.024	556
836.117	101
836.211	-754
836.305	299
836.399	105
836.493	-102
836.586	140
836.680	-260
836.774	-577
836.867	884
836.961	138
837.055	154
837.148	-364
837.242	-291
837.335	-1236
837.429	188
837.522	302
837.616	375
837.709	688
837.803	1059
837.896	172
837.989	426
838.083	586
838.176	358
838.269	1189
838.363	757
838.456	-212
838.549	-162
838.642	151
838.735	1197
838.829	871
838.922	-108
839.015	-686
839.108	-513
839.201	564
839.294	-7
839.387	-264
839.480	-298
839.573	-395
839.666	717
839.759	-188
839.852	251
839.945	-357
840.038	-104
840.131	-415
840.223	-48
840.316	-297
840.409	379
840.502	-270
840.594	429
840.687	-784
840.780	653
840.873	367
840.965	217
841.058	595
841.150	1098
841.243	842
841.336	783
841.428	745
841.521	-852
841.613	-400
841.706	59
841.798	-676
841.890	74
841.983	-622
842.075	300
842.167	-236
842.260	245
842.352	-301
842.444	516
842.537	1092
842.629	2078
842.721	1537
842.813	115
842.905	-778
842.997	793
843.090	-808
843.182	401
843.274	741
843.366	2878
843.458	4885
843.550	7334
843.642	1993
843.734	510
843.826	76
843.918	808
844.009	-127
844.101	124
844.193	-686
844.285	-567
844.377	-17
844.469	600
844.560	-489
844.652	365
844.744	-125
844.835	-163
844.927	270
845.019	-752
845.110	103
845.202	-129
845.293	-506
845.385	-196
845.476	-24
845.568	69
845.659	649
845.751	-133
845.842	-250
845.934	-127
846.025	-543
846.116	-118
846.208	-614
846.299	-2
846.390	-529
846.482	142
846.573	-442
846.664	-234
846.755	111
846.846	-78
846.937	-345
847.029	323
847.120	134
847.211	109
847.302	354
847.393	-959
847.484	-17
847.575	-91
847.666	-45
847.757	71
847.847	-597
847.938	510
848.029	-92
848.120	-584
848.211	-171
848.302	-247
848.392	-121
848.483	400
848.574	-638
848.664	-759
848.755	-435
848.846	-970
848.936	-1021
849.027	-96
849.118	130
849.208	-230
849.299	-413
849.389	-5
849.480	-320
849.570	371
849.661	766
849.751	808
849.841	66
849.932	-603
850.022	173
850.112	191
850.203	-449
850.293	-559
850.383	-99
850.474	113
850.564	-921
850.654	34
850.744	85
850.834	126
850.924	-840
851.014	535
851.104	-988
851.194	-549
851.284	-617
851.374	-53
851.464	434
851.554	326
851.644	-405
851.734	1008
851.824	179
851.914	1751
852.004	3247
852.094	5409
852.183	2558
852.273	168
852.363	-786
852.452	-198
852.542	392
852.632	-423
852.721	-156
852.811	-957
852.901	-108
852.990	-340
853.080	-606
853.169	-129
853.259	-590
853.348	-877
853.438	-139
853.527	-303
853.617	-726
853.706	148
853.795	-771
853.885	946
853.974	1263
854.063	3066
854.152	4703
854.242	4963
854.331	451
854.420	160
854.509	20
854.598	51
854.687	-440
854.777	79
854.866	-949
854.955	-284
855.044	-653
855.133	-1117
855.222	-236
855.311	-959
855.400	-844
855.488	-73
855.577	-589
855.666	-121
855.755	-670
855.844	158
855.933	-501
856.021	-25
856.110	543
856.199	-518
856.288	-329
856.376	-567
856.465	-751
856.554	-534
856.642	-412
856.731	-383
856.819	-392
856.908	-262
856.996	-858
857.085	-10
857.173	-574
857.262	-346
857.350	-451
857.438	45
857.527	-162
857.615	-169
857.703	131
857.792	-831
857.880	-404
857.968	291
858.056	-193
858.145	-119
858.233	-98
858.321	-674
858.409	125
858.497	-625
858.585	-871
858.673	-168
858.761	-926
858.849	-448
858.937	-209
859.025	-128
859.113	-384
859.201	-1312
859.289	-327
859.377	-751
859.465	-1070
859.552	188
859.640	-714
859.728	103
859.816	-721
859.903	176
859.991	-484
860.079	407
860.166	-701
860.254	439
860.342	-538
860.429	-1223
860.517	-1377
860.604	-831
860.692	-239
860.779	-207
860.867	-699
860.954	-872
861.042	-230
861.129	-449
861.216	-127
861.304	-455
861.391	-582
861.478	-493
861.565	-973
861.653	725
861.740	-1079
861.827	-550
861.914	-645
862.001	-154
862.089	-33
862.176	-133
862.263	-775
862.350	-794
862.437	-1242
862.524	-755
862.611	-924
862.698	-400
862.785	-1060
862.871	331
862.958	159
863.045	306
863.132	-313
863.219	-411
863.306	-1139
863.392	500
863.479	-836
863.566	-723
863.652	234
863.739	-519
863.826	60
863.912	-375
863.999	-697
864.086	-432
864.172	-529
864.259	-745
864.345	-749
864.432	-34
864.518	-826
864.604	-128
864.691	-651
864.777	-383
864.863	-689
864.950	36
865.036	-412
865.122	-216
865.209	-527
865.295	-549
865.381	-299
865.467	-212
865.553	-1226
865.639	-211
865.726	-545
865.812	-387
865.898	-210
865.984	994
866.070	1538
866.156	3508
866.242	1189
866.328	163
866.414	-605
866.499	-737
866.585	-77
866.671	-801
866.757	-237
866.843	103
866.928	-351
867.014	-363
867.100	-419
867.186	-591
867.271	-319
867.357	-429
867.442	199
867.528	220
867.614	-681
867.699	-717
867.785	13
867.870	7
867.956	-813
868.041	-484
868.127	139
868.212	-519
868.297	169
868.383	-270
868.468	-266
868.553	82
868.639	114
868.724	182
868.809	1062
868.894	480
868.979	-602
869.065	130
869.150	-686
869.235	-110
869.320	-284
869.405	-723
869.490	-604
869.575	-576
869.660	-853
869.745	-670
869.830	-1136
869.915	-543
870.000	-664
870.085	-530
870.169	-155
870.254	-517
870.339	-497
870.424	-609
870.509	-594
870.593	-180
870.678	-514
870.763	-588
870.847	-1522
870.932	-732
871.016	-610
871.101	-924
871.186	-660
871.270	31
871.355	-1014
871.439	-594
871.523	-938
871.608	-62
871.692	-518
871.777	6
871.861	-422
871.945	-456
872.030	-732
872.114	-395
872.198	-1335
872.282	-766
872.367	-899
872.451	-727
872.535	-5
872.619	-610
872.703	-210
872.787	-472
872.871	46
872.955	-340
873.039	-1342
873.123	-993
873.207	-496
873.291	-570
873.375	-1629
873.459	-666
873.543	-884
873.627	-1076
873.711	-1160
873.794	-364
873.878	-1098
873.962	-1489
874.045	-783
874.129	-424
874.137	-465
874.213	-874
874.245	-892
874.296	-927
874.352	-654
874.380	-517
874.460	-1206
874.464	-1235
874.547	-990
874.568	-864
874.631	-467
874.676	-608
874.714	-731
874.784	-604
874.798	-577
874.881	-44
874.892	-102
874.965	-501
874.999	-540
875.048	-622
875.107	-695
875.131	-715
875.215	-391
875.215	-391
875.298	-527
875.323	-765
875.381	-1362
875.430	-815
875.465	-376
875.538	-1004
875.548	-1110
875.631	-503
875.646	-649
875.714	-1246
875.753	-1072
875.798	-911
875.861	-537
875.881	-400
875.964	-1121
875.968	-1079
876.047	-377
876.076	-547
876.130	-844
876.183	-975
876.213	-1085
876.291	-627
876.296	-591
876.379	-616
876.398	-619
876.462	-666
876.506	-817
876.545	-900
876.613	-784
876.628	-782
876.711	-620
876.721	-631
876.794	-609
876.828	-695
876.877	-887
876.935	-794
876.960	-725
877.043	-1219
877.043	-1215
877.125	-143
877.150	-75
877.208	15
877.258	-189
877.291	-251
877.365	-834
877.374	-904
877.456	-937
877.472	-797
877.539	-350
877.579	-233
877.622	-39
877.687	-120
877.704	-142
877.787	-208
877.794	-226
877.869	-448
877.901	-435
877.952	-453
878.008	-377
878.034	-343
878.115	-543
878.117	-543
878.199	-679
878.222	-439
878.282	-25
878.329	-555
878.364	-819
878.437	-192
878.447	-116
878.529	-352
878.544	-416
878.611	-700
878.651	-670
878.694	-583
878.758	-508
878.776	-549
878.858	-400
878.865	-439
878.941	-709
878.972	-778
879.023	-919
879.078	-1089
879.105	-1106
879.185	-439
879.187	-431
879.269	-314
879.292	-572
879.351	-1077
879.399	-703
879.433	-418
879.506	-582
879.516	-594
879.598	-783
879.613	-772
879.680	-1018
879.720	-656
879.762	-133
879.827	-431
879.844	-488
879.926	-728
879.933	-687
880.007	-394
880.040	-478
880.089	-733
880.147	-878
880.171	-771
880.253	-70
880.254	-70
880.335	-96
880.360	45
880.417	245
880.467	-157
880.499	-343
880.574	896
880.580	1003
880.662	69
880.680	139
880.744	133
880.787	-406
880.825	-832
880.893	-689
880.907	-587
880.989	-141
881.000	-113
881.070	-209
881.106	-218
881.152	-297
881.213	-591
881.233	-572
881.315	-121
881.319	-107
881.396	-408
881.426	-624
881.478	-766
881.532	-623
881.559	-475
881.639	-272
881.641	-270
881.722	-177
881.745	-159
881.803	-326
881.852	-289
881.885	-144
881.958	-297
881.966	-333
882.047	-436
882.064	-479
882.129	-240
882.171	33
882.210	25
882.277	-374
882.291	-361
882.372	21
882.383	27
882.454	-266
882.489	-201
882.535	-139
882.596	-505
882.616	-614
882.697	-653
882.702	-665
882.778	-586
882.808	-451
882.859	-328
882.914	-463
882.940	-466
883.020	-222
883.021	-217
883.102	223
883.127	204
883.183	-175
883.233	-417
883.264	-442
883.339	-275
883.345	-254
883.426	-631
883.445	-531
883.507	-352
883.551	-494
883.587	-476
883.657	-330
883.668	-338
883.749	-374
883.763	-388
883.830	-439
883.869	-421
883.910	-604
883.975	-977
883.991	-857
884.072	-518
884.081	-446
884.152	-348
884.187	-336
884.233	-275
884.292	-188
884.314	-248
884.394	-546
884.398	-549
884.475	-300
884.504	-386
884.555	-507
884.610	-262
884.636	-156
884.716	-412
884.716	-411
884.797	-369
884.821	-385
884.877	-69
884.927	310
884.958	293
885.033	305
885.038	300
885.118	-22
885.139	-138
885.199	-235
885.244	-203
885.279	-196
885.350	-252
885.359	-258
885.439	-101
885.456	-174
885.520	-71
885.561	231
885.600	49
885.667	-311
885.680	-248
885.760	-251
885.773	-200
885.840	-111
885.878	-1
885.920	392
885.984	675
886.000	474
886.080	-437
886.089	-533
886.160	-119
886.195	141
886.240	-115
886.300	-660
886.320	-621
886.400	-209
886.406	-186
886.480	-303
886.511	-474
886.560	-577
886.616	-442
886.640	-212
886.720	352
886.722	364
886.800	63
886.827	-66
886.879	-49
886.932	-6
886.959	116
887.038	483
887.039	481
887.119	-12
887.143	-109
887.198	22
887.248	-55
887.278	-177
887.354	-282
887.358	-243
887.437	469
887.459	644
887.517	396
887.564	212
887.596	260
887.669	307
887.676	249
887.755	-453
887.774	-624
887.835	45
887.880	565
887.914	383
887.985	-48
887.994	-92
888.073	-552
888.090	-631
888.153	-246
888.195	-25
888.232	-0
888.300	142
888.311	114
888.391	-250
888.405	-294
888.470	-153
888.510	-122
888.549	-188
888.615	-219
888.628	-190
888.708	-102
888.720	-76
888.787	-63
888.825	-112
888.866	-163
888.930	-130
888.945	-72
889.024	125
889.035	148
889.103	364
889.140	503
889.182	147
889.245	-379
889.261	-410
889.340	-578
889.349	-593
889.419	13
889.454	289
889.498	268
889.559	265
889.577	271
889.656	287
889.664	288
889.735	352
889.768	381
889.814	205
889.873	-30
889.978	-43
890.083	-94
890.187	1001
890.292	-105
890.397	139
890.501	435
890.606	175
890.710	-3
890.815	-100
890.919	-269
891.024	-518
891.128	49
891.233	621
891.337	158
891.442	-171
891.546	-90
891.650	79
891.755	13
891.859	857
891.963	-430
892.068	547
892.172	-555
892.276	322
892.380	315
892.484	56
892.589	86
892.693	-1208
892.797	-118
892.901	-145
893.005	-416
893.109	106
893.213	640
893.317	726
893.421	301
893.525	-459
893.629	96
893.733	303
893.837	-255
893.941	-80
894.045	728
894.148	264
894.252	1247
894.356	173
894.460	344
894.564	19
894.667	44
894.771	344
894.875	-632
894.978	182
895.082	302
895.186	808
895.289	46
895.393	811
895.496	685
895.600	103
895.703	-579
895.807	-584
895.910	-236
896.014	581
896.117	226
896.221	857
896.324	417
896.427	440
896.531	-585
896.634	184
896.737	130
896.840	251
896.944	545
897.047	415
897.150	3
897.253	-111
897.356	38
897.460	-293
897.563	526
897.666	-452
897.769	-409
897.872	414
897.975	-522
898.078	548
898.181	-343
898.284	251
898.387	360
898.490	120
898.593	328
898.695	-241
898.798	86
898.901	-584
899.004	510
899.107	297
899.209	193
899.312	316
899.415	2
899.518	159
899.620	-303
899.723	429
899.826	419
899.928	519
900.031	188
900.133	1
900.236	-234
900.338	-294
900.441	-87
900.543	-422
900.646	-308
900.748	-166
900.851	-247
900.953	484
901.055	232
901.158	-23
901.260	453
901.362	876
901.465	-531
901.567	-137
901.669	771
901.771	-441
901.873	653
901.976	670
902.078	-276
902.180	667
902.282	139
902.384	-203
902.486	279
902.588	131
902.690	-72
902.792	-21
902.894	-602
902.996	-358
903.098	-811
903.200	217
903.302	-484
903.404	-235
903.505	-499
903.607	211
903.709	-1022
903.811	359
903.913	-187
904.014	321
904.116	-196
904.218	362
904.319	-461
904.421	759
904.523	-131
904.624	136
904.726	272
904.827	-47
904.929	-483
905.030	535
905.132	-25
905.233	275
905.335	-694
905.436	144
905.537	438
905.639	61
905.740	-458
905.841	-86
905.943	361
906.044	-611
906.145	64
906.247	158
906.348	-387
906.449	-142
906.550	12
906.651	-334
906.752	-103
906.854	376
906.955	-341
907.056	-85
907.157	169
907.258	-228
907.359	158
907.460	169
907.561	-507
907.662	444
907.762	-499
907.863	334
907.964	-546
908.065	525
908.166	538
908.267	-576
908.367	-486
908.468	-262
908.569	-490
908.670	-277
908.770	110
908.871	-930
908.971	-803
909.072	-315
909.173	53
909.273	-23
909.374	-231
909.474	-876
909.575	-321
909.675	-599
909.776	-387
909.876	-133
909.977	-316
910.077	-30
910.177	-780
910.278	485
910.378	-328
910.478	-47
910.579	-319
910.679	231
910.779	-160
910.879	-26
910.980	410
911.080	-519
911.180	-390
911.280	400
911.380	169
911.480	487
911.580	-592
911.680	-554
911.780	396
911.880	349
911.980	457
912.080	-227
912.180	-313
912.280	-662
912.380	415
912.480	-546
912.580	-54
912.679	-1162
912.779	10
912.879	398
912.979	-1151
913.078	20
913.178	-947
913.278	-88
913.377	124
913.477	-499
913.577	-166
913.676	-614
913.776	-322
913.875	46
913.975	147
914.074	392
914.174	231
914.273	28
914.373	216
914.472	108
914.572	-750
914.671	-336
914.770	-648
914.870	94
914.969	-194
915.068	-105
915.167	129
915.267	25
915.366	-399
915.465	-654
915.564	-336
915.663	141
915.763	400
915.862	99
915.961	-495
916.060	-1267
916.159	-619
916.258	-629
916.357	347
916.456	226
916.555	-346
916.654	888
916.752	-138
916.851	-811
916.950	-414
917.049	-329
917.148	-282
917.247	332
917.345	-937
917.444	-810
917.543	240
917.642	-56
917.740	727
917.839	-581
917.937	-306
918.036	-86
918.135	600
918.233	224
918.332	-518
918.430	-625
918.529	-222
918.627	-96
918.726	-967
918.824	88
918.923	-604
919.021	140
919.119	-64
919.218	-72
919.316	-237
919.414	-595
919.512	-12
919.611	19
919.709	-756
919.807	-438
919.905	-57
920.003	18
920.102	442
920.200	-732
920.298	-703
920.396	-543
920.494	-582
920.592	-230
920.690	68
920.788	89
920.886	-404
920.984	-343
921.082	88
921.180	-238
921.277	-798
921.375	415
921.473	113
921.571	-522
921.669	-610
921.766	-479
921.864	-5
921.962	-211
922.060	-202
922.157	257
922.255	-228
922.352	192
922.450	-299
922.548	-174
922.645	-178
922.743	58
922.840	-387
922.938	-390
923.035	-434
923.133	402
923.230	-703
923.327	-275
923.425	-335
923.522	-68
923.619	-235
923.717	-237
923.814	157
923.911	-681
924.008	-383
924.106	-248
924.203	33
924.300	-133
924.397	93
924.494	393
924.591	-382
924.688	31
924.786	-466
924.883	48
924.979	-153
925.077	41
925.173	498
925.270	746
925.367	-557
925.464	728
925.561	-549
925.658	166
925.755	-444
925.852	243
925.948	147
926.045	-357
926.142	-402
926.239	-514
926.335	-76
926.432	43
926.529	191
926.625	317
926.722	-497
926.818	-81
926.915	-165
927.011	505
927.108	-774
927.204	292
927.301	450
927.397	-794
927.494	-930
927.590	-663
927.687	-291
927.783	-252
927.879	-820
927.976	-595
928.072	225
928.168	-1082
928.264	-249
928.361	-102
928.457	-465
928.553	-120
928.649	-3
928.745	-304
928.841	-140
928.937	-445
929.033	-266
929.129	-147
929.225	-77
929.321	362
929.417	-985
929.513	-591
929.609	-790
929.705	304
929.801	-285
929.897	-305
929.993	11
930.089	229
930.184	-171
930.280	-473
930.376	-848
930.471	320
930.567	-387
930.663	-422
930.758	-685
930.854	-208
930.950	20
931.045	69
931.141	-174
931.236	-230
931.332	-592
931.427	-339
931.523	-550
931.618	-187
931.714	-758
931.809	250
931.905	-742
932.000	-386
932.095	-1235
932.191	285
932.286	-620
932.381	-291
932.476	-189
932.572	-566
932.667	-328
932.762	-171
932.857	39
932.952	-12
933.047	-228
933.142	-247
933.237	-236
933.332	393
933.427	-183
933.522	-16
933.617	-220
933.712	232
933.807	335
933.902	43
933.997	-293
934.092	999
934.187	-849
934.282	-404
934.376	-10
934.471	497
934.566	-232
934.661	-19
934.755	-155
934.850	-347
934.945	-423
935.039	-99
935.134	-399
935.228	-627
935.323	-504
935.417	-276
935.512	-460
935.606	-563
935.701	113
935.795	-1176
935.890	-689
935.984	-156
936.079	199
936.173	-465
936.267	-286
936.362	228
936.456	-669
936.550	217
936.644	-480
936.738	-466
936.833	114
936.927	-770
937.021	-1014
937.115	-709
937.209	-590
937.303	797
937.397	-689
937.491	-532
937.585	-703
937.679	-932
937.773	33
937.867	-189
937.961	-832
938.055	-502
938.149	-387
938.243	195
938.337	14
938.430	-562
938.524	-544
938.618	-244
938.712	212
938.805	-438
938.899	-867
938.993	-573
939.086	-332
939.180	-616
939.274	-610
939.367	-504
939.461	-720
939.554	-627
939.648	-404
939.741	-504
939.835	-941
939.928	-355
940.022	10
940.115	-374
940.208	-548
940.302	-780
940.395	-402
940.488	-446
940.582	-473
940.675	-927
940.768	-86
940.861	-993
940.954	47
941.048	-230
941.141	-496
941.234	-18
941.327	-451
941.420	229
941.513	-720
941.606	-670
941.699	-142
941.792	-167
941.885	-750
941.978	-86
942.071	-298
942.164	-854
942.257	-267
942.349	61
942.442	-412
942.535	-143
942.628	-221
942.721	-570
942.813	-914
942.906	-105
942.999	-1094
943.091	-419
943.184	-479
943.277	-514
943.369	-77
943.462	-616
943.554	-952
943.647	-202
943.739	-515
943.832	58
943.924	-692
944.017	-455
944.109	-1437
944.201	-91
944.294	-475
944.386	-306
944.478	-564
944.571	-483
944.663	-726
944.755	-825
944.847	-1237
944.940	-159
945.032	-474
945.124	-786
945.216	278
945.308	-423
945.400	-966
945.492	-584
945.584	-436
945.676	-270
945.768	-945
945.860	-145
945.952	-912
946.044	-389
946.136	89
946.228	-386
946.320	-1710
946.412	-282
946.503	-583
946.595	351
946.687	-62
946.779	-650
946.870	-522
946.962	-906
947.054	-725
947.145	-494
947.237	-581
947.329	-1196
947.420	-454
947.512	-83
947.603	-581
947.695	-141
947.786	-883
947.878	-262
947.969	-974
948.061	-477
948.152	-394
948.243	-545
948.335	-953
948.426	-282
948.517	-851
948.609	-396
948.700	-146
948.791	-1040
948.882	-1613
948.973	-295
949.065	-941
949.156	-681
949.247	-1389
949.338	388
949.429	-1386
949.520	-183
949.611	-919
949.702	-828
949.793	-1226
949.884	354
949.975	-629
950.066	-497
950.157	-1156
950.247	-1016
950.338	-1214
950.429	-419
950.520	-8
950.611	-724
950.701	-484
950.792	-494
950.883	-521
950.973	2
951.064	-769
951.155	-743
951.245	-12
951.336	-378
951.427	-503
951.517	-573
951.608	-1011
951.698	-973
951.788	-49
951.879	-272
951.969	-773
952.060	-1932
952.150	-62
952.240	-772
952.331	-1805
952.421	128
952.511	-1322
952.602	-445
952.692	-1415
952.782	-213
952.872	-977
952.962	-629
953.052	-397
953.143	-75
953.233	-746
953.323	-380
953.413	-872
953.503	-246
953.593	-563
953.683	-1051
953.773	-852
953.863	-128
953.953	-244
954.042	-444
954.132	-366
954.222	-882
954.312	-1415
954.402	-415
954.492	-410
954.581	5
954.671	-1257
954.761	16
954.850	-678
954.940	-387
955.030	-638
955.119	-585
955.209	-777
955.298	-664
955.388	-1133
955.477	67
955.567	-1481
955.656	0
955.746	-228
955.835	-646
955.925	-1231
956.014	-339
956.103	-630
956.193	-823
956.282	-845
956.371	-184
956.461	-306
956.550	-693
956.639	-1302
956.728	-1163
956.817	-651
956.906	-405
956.995	-338
957.085	-1030
957.174	-1008
957.263	-255
957.352	-774
957.441	29
957.530	-549
957.619	-636
957.708	-429
957.796	-808
957.885	-455
957.974	-564
958.063	-1224
958.152	-607
958.241	-418
958.329	-1243
958.418	-807
958.507	-121
958.596	-784
958.684	-806
958.773	-448
958.861	-738
958.950	-593
959.039	88
959.127	-191
959.216	-476
959.304	-1416
959.393	-392
959.481	-464
959.570	-241
959.658	-946
959.746	-136
959.835	-1657
959.923	-160
960.011	-40
960.100	-573
960.188	-418
960.276	-608
960.365	-1408
960.453	-426
960.541	-907
960.629	-538
960.717	-745
960.805	-869
960.893	-587
960.981	-1717
961.069	-819
961.158	-614
961.245	-976
961.333	-1270
961.421	-1124
961.509	-1308
961.597	-1186
961.685	-621
961.773	-830
961.861	-553
961.949	-948
962.036	-291
962.124	-442
962.212	-1009
962.299	-1043
962.387	-903
962.475	-9
962.562	-1583
962.650	-1143
962.738	-201
962.825	-1561
962.913	-139
963.000	-1204
963.088	-58
963.175	-1197
963.263	-734
963.350	-410
963.438	-1059
963.525	-858
963.612	-392
963.700	-1358
963.787	1560
963.874	1379
963.962	-226
964.049	-513
964.136	-876
964.223	-792
964.310	-1442
964.398	-954
964.485	-731
964.572	-1478
964.659	-927
964.746	-1226
964.833	-1547
964.920	-251
965.007	-440
965.094	-1030
965.181	-1333
965.268	-652
965.355	-1187
965.441	-752
965.528	-1317
965.615	-1285
965.702	-1119
965.789	-1133
965.875	-581
965.962	-1749
966.049	-1436
966.136	-1358
966.222	-1264
966.309	-1334
966.395	-872
966.482	-896
966.569	-1606
966.655	-1233
966.742	-998
966.828	-1534
966.915	-1319
967.001	-971
967.087	-1123
967.174	-1324
967.260	-1360
967.347	-1967
967.433	-452
967.519	-32
967.605	-38
967.692	-1380
967.778	-1089
967.864	-544
967.950	-1636
968.036	-1645
968.123	-910
968.209	-1990
968.295	-1221
968.381	-882
968.467	-119
968.553	-1813
968.639	-661
968.725	-1056
968.811	-1159
968.897	-1571
968.983	-1238
969.069	-1405
969.154	-694
969.240	-1290
969.326	-1327
969.412	-1470
969.497	-530
969.583	-1216
969.669	-890
969.755	-1196
969.840	-1937
969.926	-1540
970.012	-961
970.097	-864
970.183	-1187
970.268	-1324
970.354	-780
970.439	-1286
970.525	-314
970.610	-1367
970.696	-897
970.781	-1700
970.866	-1611
970.952	-1376
971.037	-1452
971.122	-1364
971.208	-1677
971.293	-1698
971.378	-225
971.463	-1839
971.549	-863
971.634	-1298
971.719	-822
971.804	-1480
971.889	-1298
971.974	-1577
972.059	-1658
972.144	-1447
972.229	-1119
972.314	-1695
972.399	-1413
972.484	-1443
972.569	-1204
972.654	-2000
972.739	-1077
972.824	-1601
972.908	-599
972.993	-1173
973.078	-1096
973.163	-1600
973.247	-562
973.332	-2222
973.417	-156
973.501	-2043
973.586	-1814
973.671	-1639
973.755	-1189
973.840	-1809
973.924	-1699
974.009	-1097
974.093	-1631
974.178	-1335
974.262	-1633
974.346	-1236
974.431	-1036
974.515	-1047
974.600	-1343
974.684	-1811
974.768	-1380
974.852	-726
974.937	-1894
975.021	-853
975.105	-912
975.189	-1808
975.273	-1925
975.358	-1585
975.442	-1555
975.526	-1129
975.610	-2039
975.694	-1757
975.778	-671
975.862	-1120
975.946	-2617
976.030	-608
976.114	-953
976.198	-2045
976.281	-1774
976.365	-1224
976.449	-1546
976.533	-1613
976.617	-1566
976.700	-1413
976.784	-1724
976.868	-1669
976.951	-1489
977.035	-1584
977.119	-809
977.202	-1911
977.286	-588
977.369	-1534
977.453	-1227
977.536	-1692
977.620	-2007
977.703	-1591
977.787	-2217
977.870	-1439
977.953	-1456
978.037	-1766
978.120	-1055
978.203	-1529
978.287	-1664
978.370	-1129
978.453	-1835
978.536	-1379
978.620	-964
978.703	-1975
978.786	-1245
978.869	-1412
978.952	-1787
979.035	-1014
979.118	-1295
979.201	-2277
979.284	-945
979.367	-1646
979.450	-1596
979.533	-2006
979.616	-1850
979.699	-1624
979.782	-504
979.865	-1829
979.948	-1777
980.030	-1813
980.113	-1645
980.196	-1992
980.279	-1311
980.361	-1657
980.444	-930
980.526	-1452
980.609	-1369
980.692	-1614
980.774	-1589
980.857	-2271
980.939	-1898
981.022	-1404
981.104	-1426
981.187	-1825
981.269	-1860
981.352	-1607
981.434	-2519
981.516	-1560
981.599	-875
981.681	-1233
981.763	-1096
981.846	-1465
981.928	-1579
982.010	-1095
982.092	-2443
982.174	-1490
982.256	-1495
982.339	-1613
982.421	-1771
982.503	-928
982.585	-2250
982.667	-1490
982.749	-1961
982.831	-1883
982.913	-2206
982.995	-1053
983.077	-1433
983.158	-1043
983.240	-1881
983.322	-1982
983.404	-863
983.486	-2084
983.568	-1331
983.649	-1852
983.731	-985
983.813	-2521
983.894	-1719
983.976	-1915
984.058	-1459
984.139	-1390
984.221	-1720
984.302	-809
984.384	-1880
984.465	-2525
984.547	-1622
984.628	-1917
984.710	-1123
984.791	-2170
984.872	-1523
984.954	-1377
985.035	-1325
985.116	-2539
985.198	-1491
985.279	-1393
985.360	-2042
985.441	-1697
985.522	-1046
985.604	-2274
985.685	-2342
985.766	-866
985.847	-969
985.928	-1443
986.009	-2126
986.090	-2194
986.171	-1203
986.252	-2081
986.333	-2232
986.414	-1349
986.495	-1089
986.576	-2964
986.656	-1971
986.737	-2102
986.818	-1626
986.899	-1814
986.980	-1655
987.060	-1770
987.141	-2414
987.222	-2086
987.302	-1402
987.383	-1656
987.464	-1904
987.544	-2410
987.625	-1920
987.705	-1337
987.786	-1773
987.866	-1581
987.947	-1985
988.027	-1789
988.108	-2333
988.188	-2194
988.268	-2015
988.349	-1626
988.429	-1801
988.509	-1303
988.589	-2225
988.670	-2707
988.750	-1432
988.830	-1080
988.910	-1641
988.990	-2537
989.070	-1863
989.151	-1198
989.231	-1859
989.311	-1794
989.391	-1337
989.471	-1331
989.551	-1954
989.631	-1969
989.711	-1461
989.791	-2308
989.870	-1967
989.950	-1847
990.030	-1891
990.110	-1463
990.190	-1048
990.269	-2404
990.349	-1746
990.429	-2212
990.509	-1514
990.588	-1815
990.668	-1963
990.747	-1111
990.827	-2030
990.907	-1423
990.986	-2485
991.066	-1589
991.145	-1806
991.225	-1674
991.304	-1827
991.383	-2102
991.463	-2693
991.542	-2196
991.622	-2151
991.701	-1934
991.780	-2198
991.859	-1366
991.939	-1896
992.018	-1599
992.097	-1600
992.176	-1898
992.256	-1361
992.335	-2057
992.414	-2046
992.493	-2249
992.572	-1708
992.651	-1256
992.730	-1811
992.809	-2651
992.888	-2094
992.967	-1455
993.046	-1589
993.125	-2784
993.203	-2644
993.282	-1857
993.361	-1556
993.440	-1419
993.519	-2677
993.597	-1695
993.676	-1651
993.755	-1695
993.834	-1979
993.912	-2206
993.991	-1355
994.069	-2153
994.148	-1445
994.226	-1866
994.305	-1942
994.384	-1272
994.462	-1271
994.540	-2407
994.619	-1847
994.697	-2294
994.776	-2971
994.854	-1070
994.932	-2190
995.011	-2316
995.089	-1887
995.167	-2117
995.245	-1467
995.324	-2743
995.402	-1531
995.480	-1734
995.558	-1699
995.636	-2603
995.714	-2407
995.792	-508
995.870	-1750
995.948	-2179
996.026	-2388
996.104	-2929
996.182	-1190
996.260	-1613
996.338	-2154
996.416	-1705
996.494	-2587
996.572	-1553
996.649	-1623
996.727	-2243
996.805	-1612
996.883	-2259
996.960	-2134
997.038	-2222
997.116	-1755
997.193	-2179
997.271	-1403
997.348	-2566
997.426	-1380
997.504	-1941
997.581	-1812
997.658	-1714
997.736	-2523
997.813	-3457
997.891	-1124
997.968	-2495
998.046	-2008
998.123	-2087
998.200	-1921
998.277	-2511
998.355	-1139
998.432	-2390
998.509	-1848
998.586	-1806
998.663	-1980
998.741	-1814
998.818	-1731
998.895	-1693
998.972	-2170
999.049	-1747
999.126	-1786
999.203	-1892
999.280	-1157
999.357	-1990
999.434	-1745
999.511	-2151
999.587	-1759
999.664	-1866
999.741	-2022
999.818	-1531
999.895	-1899
999.971	-2017
1000.048	-2101
1000.125	-1271
1000.202	-2168
1000.278	-1519
1000.355	-1313
1000.431	-2360
1000.508	-1198
1000.584	-1825
1000.661	-1391
1000.738	-2038
1000.814	-2436
1000.890	-1934
1000.967	-1189
1001.043	-1338
1001.120	-1836
1001.196	-1828
1001.272	-1608
1001.349	-1033
1001.425	-1092
1001.501	-1634
1001.577	-2282
1001.654	-2027
1001.730	-1913
1001.806	-2346
1001.882	-2386
1001.958	-1518
1002.034	-1999
1002.110	-1518
1002.186	-1864
1002.262	-2094
1002.338	-1886
1002.414	-1572
1002.490	-2214
1002.566	-1801
1002.642	-1866
1002.718	-1610
1002.794	-1963
1002.870	-1765
1002.945	-1631
1003.021	-1827
1003.097	-2095
1003.173	-1464
1003.248	-1500
1003.324	-1415
1003.400	-1946
1003.475	-1642
1003.551	-1482
1003.626	-2701
1003.702	-1052
1003.777	-1722
1003.853	-1717
1003.928	-1449
1004.004	-1725
1004.079	-1776
1004.155	-1873
1004.230	-1039
1004.305	-1377
1004.381	-1732
1004.456	-1663
1004.531	-1731
1004.607	-1482
1004.682	-1544
1004.757	-1675
1004.832	-1301
1004.907	-1602
1004.982	-1502
1005.057	-1649
1005.133	-2526
1005.208	-1908
1005.283	-2543
1005.358	-841
1005.433	-2354
1005.508	-1587
1005.583	-1769
1005.657	-2384
1005.732	-2283
1005.807	-1935
1005.882	-2354
1005.957	-1982
1006.032	-2225
1006.106	-899
1006.181	-1214
1006.256	-1565
1006.331	-2311
1006.405	-2071
1006.480	-1091
1006.554	-1667
1006.629	-2143
1006.704	-2049
1006.778	-1652
1006.853	-1147
1006.927	-2220
1007.002	-1284
1007.076	-1572
1007.150	-1923
1007.225	-2126
1007.299	-1625
1007.373	-2126
1007.448	-1627
1007.522	-1620
1007.596	-1146
1007.671	-2164
1007.745	-1152
1007.819	-1814
1007.893	-1655
1007.967	-1042
1008.041	-2058
1008.115	-1216
1008.190	-1939
1008.264	-2384
1008.338	-2385
1008.412	-1291
1008.486	-1179
1008.560	-929
1008.633	-1197
1008.707	-1653
1008.781	-1422
1008.855	-2106
1008.929	-938
1009.003	-1607
1009.076	-2016
1009.150	-2157
1009.224	-1505
1009.298	-865
1009.371	-2043
1009.445	-1730
1009.519	-1268
1009.592	-2274
1009.666	-909
1009.739	-2181
1009.813	-1808
1009.886	-1228
1009.960	-1814
1010.033	-1880
1010.107	-1400
1010.180	-2288
1010.253	-1325
1010.327	-1498
1010.400	-1830
1010.473	-1405
1010.547	-156
1010.620	-1757
1010.693	-1521
1010.766	-1923
1010.840	-1277
1010.913	-907
1010.986	-1343
1011.059	-2051
1011.132	-1466
1011.205	-2331
1011.278	-2096
1011.351	-1531
1011.424	-1737
1011.497	-2001
1011.570	-2368
1011.643	-2022
1011.716	-1605
1011.789	-1578
1011.862	-1366
1011.934	-1640
1012.007	-2707
1012.080	-1598
1012.153	-965
1012.225	-1867
1012.298	-1983
1012.371	-2161
1012.443	-721
1012.516	-1580
1012.588	-1105
1012.661	-1592
1012.733	-1820
1012.806	-1268
1012.879	-1636
1012.951	-2279
1013.023	-1967
1013.096	-819
1013.168	-1748
1013.241	-1863
1013.313	-1217
1013.385	-1928
1013.458	-2047
1013.530	-1303
1013.602	-1760
1013.674	-994
1013.746	-908
1013.819	-2142
1013.891	-1518
1013.963	-2542
1014.035	-1847
1014.107	-1221
1014.179	-1817
1014.251	-1453
1014.323	-1259
1014.395	-2187
1014.467	-1635
1014.539	-1565
1014.611	-1652
1014.683	-1519
1014.754	-1692
1014.826	-1710
1014.898	-2123
1014.970	-1532
1015.042	-303
1015.113	-1212
1015.185	-1735
1015.257	-1953
1015.328	-1352
1015.400	-1884
1015.471	-1279
1015.543	-2032
1015.615	-1986
1015.686	-2245
1015.757	-1418
1015.829	-1084
1015.901	-2097
1015.972	-1642
1016.043	-1921
1016.115	-1590
1016.186	-1420
1016.257	-1924
1016.328	-1298
1016.400	-1940
1016.471	-2109
1016.542	-1656
1016.613	-1548
1016.685	-1401
1016.756	-978
1016.827	-2002
1016.898	-2017
1016.969	-711
1017.040	-1555
1017.111	-1426
1017.182	-1661
1017.253	-1436
1017.324	-1477
1017.395	-1080
1017.466	-1055
1017.537	-2128
1017.608	-2092
1017.678	-1213
1017.749	-1925
1017.820	-1309
1017.891	-2621
1017.961	-1590
1018.032	-1602
1018.103	-1594
1018.173	-2165
1018.244	-1552
1018.315	-1213
1018.385	-926
1018.456	-1803
1018.526	-1753
1018.597	-1692
1018.667	-2341
1018.738	-2381
1018.808	-1347
1018.878	-1438
1018.949	-1655
1019.019	-1704
1019.089	-1115
1019.160	-1575
1019.230	-2454
1019.300	-1416
1019.371	-2503
1019.441	-901
1019.511	-2017
1019.581	-2162
1019.651	-2237
1019.721	-1668
1019.791	-2356
1019.861	-1566
1019.931	-1665
1020.001	-1614
1020.071	-1382
1020.141	-1977
1020.211	-2192
1020.281	-1703
1020.351	-1607
1020.421	-1494
1020.491	-1670
1020.560	-2198
1020.630	-2157
1020.700	-1165
1020.770	-2100
1020.839	-1854
1020.909	-1588
1020.979	-1602
1021.048	-2043
1021.118	-1540
1021.187	-1844
1021.257	-852
1021.326	-1302
1021.396	-1842
1021.465	-1525
1021.535	-1417
1021.604	-2416
1021.674	-1423
1021.743	-2464
1021.812	-2096
1021.882	-2662
1021.951	-1987
1022.020	-1597
1022.089	-1450
1022.159	-1779
1022.228	-1352
1022.297	-2178
1022.366	-2450
1022.435	-2095
1022.504	-2217
1022.573	-1691
1022.642	-1731
1022.711	-1736
1022.781	-1856
1022.849	-1754
1022.918	-2137
1022.987	-1793
1023.056	-1884
1023.125	-1364
1023.194	-1901
1023.263	-2139
1023.331	-1443
1023.400	-2195
1023.469	-2460
1023.538	-1083
1023.606	-2275
1023.675	-1116
1023.744	-2834
1023.812	-2212
1023.881	-1262
1023.949	-2213
1024.018	-1838
1024.086	-1825
1024.155	-1993
1024.223	-2071
1024.292	-2214
1024.360	-2151
1024.429	-1400
1024.497	-2725
1024.565	-1245
1024.634	-2415
1024.702	-1963
1024.770	-1717
1024.838	-2296
1024.907	-1412
1024.975	-2396
1025.043	-2188
1025.111	-2179
1025.179	-2116
1025.247	-2324
1025.315	-2331
1025.383	-1685
1025.451	-1823
1025.519	-1795
1025.587	-2765
1025.655	-2161
1025.723	-2921
1025.791	-1622
1025.859	-1830
1025.927	-1382
1025.995	-1953
1026.062	-1623
1026.130	-2053
1026.198	-1919
1026.266	-1590
1026.333	-1330
1026.401	-1909
1026.469	-1526
1026.536	-2494
1026.604	-1806
1026.671	-1968
1026.739	-1981
1026.806	-2036
1026.874	-2236
1026.941	-1791
1027.009	-2709
1027.076	-1766
1027.144	-1653
1027.211	-2794
1027.278	-2212
1027.345	-1595
1027.413	-1894
1027.480	-2369
1027.547	-1880
1027.614	-2969
1027.682	-2135
1027.749	-2853
1027.816	-1628
1027.883	-2090
1027.950	-2269
1028.017	-2284
1028.084	-1966
1028.151	-3248
1028.218	-1410
1028.285	-1946
1028.352	-2447
1028.419	-1980
1028.486	-1960
1028.553	-2436
1028.619	-1271
1028.686	-2409
1028.753	-1693
1028.820	-1534
1028.886	-2037
1028.953	-1941
1029.020	-2172
1029.086	-1835
1029.153	-1813
1029.220	-2251
1029.286	-2332
1029.353	-2469
1029.419	-2201
1029.486	-2440
1029.552	-2313
1029.619	-2301
1029.685	-2231
1029.751	-1776
1029.818	-902
1029.884	-2158
1029.951	-635
1030.017	-2243
1030.083	-1674
1030.149	-2039
1030.216	-1356
1030.282	-2539
1030.348	-1859
1030.414	-2676
1030.480	-2667
1030.546	-2464
1030.612	-1589
1030.678	-2307
1030.744	-2372
1030.810	-2308
1030.876	-2137
1030.942	-2290
1031.008	-2181
1031.074	-2354
1031.140	-1562
1031.206	-2199
1031.272	-2740
1031.337	-2613
1031.403	-2062
1031.469	-2537
1031.534	-1531
1031.600	-1772
1031.666	-2746
1031.731	-2757
1031.797	-2385
1031.863	-2210
1031.928	-2729
1031.994	-1895
1032.059	-2490
1032.125	-2324
1032.190	-2475
1032.256	-2991
1032.321	-2273
1032.386	-1584
1032.452	-1782
1032.517	-2149
1032.582	-2485
1032.647	-2590
1032.713	-2421
1032.778	-2265
1032.843	-1812
1032.908	-1693
1032.974	-2057
1033.039	-3150
1033.104	-1228
1033.169	-3424
1033.234	-1730
1033.299	-1370
1033.364	-2463
1033.429	-1964
1033.494	-1179
1033.559	-2361
1033.624	-2593
1033.688	-1663
1033.753	-2040
1033.818	-2763
1033.883	-2428
1033.948	-2580
1034.013	-1634
1034.077	-2148
1034.142	-1697
1034.207	-2282
1034.271	-1717
1034.336	-2326
1034.400	-2535
1034.465	-2366
1034.530	-1888
1034.594	-2407
1034.658	-1609
1034.723	-2414
1034.787	-1612
1034.852	-2666
1034.916	-2934
1034.981	-3072
1035.045	-1692
1035.109	-1878
1035.173	-1554
1035.238	-2634
1035.302	-1892
1035.366	-3152
1035.430	-1498
1035.495	-2434
1035.559	-2694
1035.623	-2496
1035.687	-2216
1035.751	-2183
1035.815	-2496
1035.879	-2511
1035.943	-2361
1036.007	-2384
1036.071	-2510
1036.135	-2556
1036.198	-3094
1036.262	-2805
1036.326	-1885
1036.390	-2474
1036.454	-2759
1036.517	-1466
1036.581	-2527
1036.645	-2470
1036.709	-1961
1036.772	-1974
1036.836	-1769
1036.900	-2420
1036.963	-2225
1037.026	-2490
1037.090	-1949
1037.154	-3343
1037.217	-1939
1037.280	-2175
1037.344	-2319
1037.407	-1678
1037.471	-2526
1037.534	-1989
1037.597	-2755
1037.661	-2131
1037.724	-1862
1037.787	-2706
1037.850	-2381
1037.913	-2667
1037.977	-2310
1038.040	-3077
1038.103	-2120
1038.166	-2561
1038.229	-1914
1038.292	-2001
1038.355	-2440
1038.418	-2315
1038.481	-1746
1038.544	-3226
1038.607	-2186
1038.670	-2552
1038.732	-1467
1038.795	-2407
1038.858	-1686
1038.921	-2168
1038.984	-1852
1039.046	-2575
1039.109	-2292
1039.172	-2497
1039.234	-2449
1039.297	-2533
1039.360	-2395
1039.422	-2962
1039.485	-2476
1039.547	-2261
1039.610	-2008
1039.672	-2395
1039.734	-2090
1039.797	-2801
1039.859	-2810
1039.922	-1750
1039.984	-2658
1040.046	-2276
1040.109	-2176
1040.171	-2423
1040.233	-2637
1040.295	-2299
1040.358	-2772
1040.420	-2719
1040.482	-2581
1040.544	-3665
1040.606	-1729
1040.668	-2359
1040.730	-1947
1040.792	-2093
1040.854	-2518
1040.916	-2724
1040.978	-2087
1041.040	-2067
1041.102	-1922
1041.164	-2679
1041.225	-2668
1041.287	-2076
1041.349	-1670
1041.411	-2706
1041.472	-2229
1041.534	-2641
1041.596	-2342
1041.657	-2195
1041.719	-2520
1041.781	-3010
1041.842	-2903
1041.904	-2499
1041.965	-2491
1042.027	-2488
1042.088	-2703
1042.150	-2204
1042.211	-2264
1042.272	-2261
1042.334	-2587
1042.395	-2261
1042.456	-2539
1042.518	-1858
1042.579	-1958
1042.640	-2378
1042.701	-2420
1042.763	-2306
1042.824	-2672
1042.885	-1773
1042.946	-2027
1043.007	-2102
1043.068	-2424
1043.129	-2916
1043.190	-2173
1043.251	-2835
1043.312	-2152
1043.373	-2109
1043.434	-1909
1043.495	-2893
1043.556	-1727
1043.616	-1972
1043.677	-2624
1043.738	-2283
1043.799	-2225
1043.859	-2063
1043.920	-2270
1043.981	-2509
1044.041	-2667
1044.102	-1964
1044.162	-3175
1044.223	-2673
1044.284	-2014
1044.344	-3146
1044.405	-2262
1044.465	-2019
1044.525	-2302
1044.586	-1869
1044.646	-1999
1044.707	-1524
1044.767	-1379
1044.827	-2739
1044.887	-1979
1044.948	-1853
1045.008	-1688
1045.068	-2480
1045.128	-2536
1045.188	-2289
1045.249	-1540
1045.309	-2724
1045.369	-1413
1045.429	-2842
1045.489	-1825
1045.549	-2042
1045.609	-2459
1045.669	-2101
1045.729	-2104
1045.789	-1697
1045.848	-2507
1045.908	-2035
1045.968	-2091
1046.028	-2630
1046.088	-1901
1046.147	-1054
1046.207	-1662
1046.267	-2012
1046.326	-2096
1046.386	-1867
1046.446	-2386
1046.505	-1477
1046.565	-1531
1046.624	-1604
1046.684	-1217
1046.743	-1134
1046.803	-120
1046.862	-1031
1046.922	0
