'Start Wavelength	183.907
'End Wavelength	1046.922
'Gate Delay	5.000
'Gate Width (ms)	1.050
'Laser Output Level	0.000
'X Position	0.000
'Y Position	0.000
'Z Position	0.000
'Grid Point Number	1.000
'Shot Number	100.000
183.907	-34.000
183.977	-480.000
184.047	-150
184.116	499
184.186	-104
184.256	494
184.325	527
184.395	-272
184.465	140
184.534	736
184.604	-741
184.674	314
184.743	-689
184.813	-14
184.883	-194
184.952	-27
185.022	-286
185.092	386
185.161	-530
185.231	-351
185.301	463
185.370	410
185.440	-137
185.509	-329
185.579	-485
185.649	176
185.718	68
185.788	1047
185.857	-712
185.927	315
185.996	-424
186.066	2
186.136	-607
186.205	173
186.275	-697
186.344	22
186.414	98
186.483	-181
186.553	528
186.622	1341
186.692	81
186.761	362
186.831	-35
186.900	-31
186.970	248
187.039	197
187.109	223
187.178	960
187.248	-65
187.317	1011
187.387	-58
187.456	812
187.526	-9
187.595	951
187.664	440
187.734	312
187.803	427
187.873	1196
187.942	541
188.012	509
188.081	-46
188.150	198
188.220	526
188.289	855
188.358	-102
188.428	277
188.497	-250
188.567	375
188.636	-390
188.705	411
188.775	110
188.844	-737
188.913	926
188.983	380
189.052	420
189.121	702
189.191	-40
189.260	988
189.329	1166
189.399	1301
189.468	345
189.537	-23
189.606	70
189.676	-216
189.745	73
189.814	1086
189.883	-478
189.953	1442
190.022	793
190.091	4780
190.161	6221
190.230	2700
190.299	693
190.368	1156
190.437	971
190.507	413
190.576	-27
190.645	529
190.714	252
190.783	1153
190.853	984
190.922	252
190.991	-217
191.060	388
191.129	307
191.198	502
191.268	142
191.337	5
191.406	456
191.475	408
191.544	-607
191.613	105
191.682	-283
191.752	1270
191.821	19
191.890	84
191.959	57
192.028	739
192.097	233
192.166	1165
192.235	-139
192.304	969
192.373	127
192.442	465
192.511	-240
192.580	677
192.650	-155
192.719	1522
192.788	208
192.857	851
192.926	446
192.995	747
193.064	1872
193.133	2430
193.202	2703
193.271	2840
193.340	1800
193.409	2496
193.478	2781
193.547	3573
193.615	4137
193.684	4483
193.753	2352
193.822	2149
193.891	258
193.960	1137
194.029	531
194.098	1345
194.167	480
194.236	1533
194.305	635
194.374	1035
194.443	452
194.512	944
194.580	293
194.649	1475
194.718	642
194.787	907
194.856	-586
194.925	1374
194.994	143
195.062	1110
195.131	185
195.200	397
195.269	253
195.338	1515
195.407	631
195.475	1294
195.544	210
195.613	1318
195.682	-83
195.751	657
195.819	354
195.888	1528
195.957	1253
196.026	644
196.094	1150
196.163	1172
196.232	300
196.301	733
196.369	525
196.438	421
196.507	1330
196.576	137
196.644	367
196.713	677
196.782	-689
196.850	1461
196.919	1006
196.988	1192
197.056	903
197.125	1112
197.194	679
197.262	980
197.331	674
197.400	618
197.468	1128
197.537	819
197.606	970
197.674	2708
197.743	5664
197.812	2786
197.880	5433
197.949	3880
198.017	4891
198.086	3549
198.155	1242
198.223	2390
198.292	6022
198.360	3733
198.429	2029
198.497	2146
198.566	3920
198.635	7095
198.703	2675
198.772	2060
198.840	5868
198.909	7692
198.977	2162
199.046	2486
199.114	1566
199.183	1863
199.251	605
199.320	1731
199.388	1183
199.457	945
199.525	823
199.594	1479
199.662	516
199.731	1632
199.799	1037
199.867	1528
199.936	1005
200.004	1677
200.073	987
200.141	1309
200.210	983
200.278	1007
200.346	835
200.415	1598
200.483	1338
200.552	1717
200.620	1158
200.688	1260
200.757	737
200.825	2042
200.893	456
200.962	1037
201.030	712
201.098	1119
201.167	1219
201.235	1894
201.303	1002
201.372	1875
201.440	1241
201.508	1183
201.577	679
201.645	1293
201.713	768
201.781	1773
201.850	1106
201.918	1736
201.986	791
202.055	2093
202.123	1650
202.191	1971
202.259	886
202.327	1911
202.396	558
202.464	899
202.532	918
202.600	2822
202.669	1880
202.737	2001
202.805	947
202.873	1953
202.941	1015
203.009	1452
203.078	1556
203.146	2011
203.214	1569
203.282	1217
203.350	1459
203.418	1513
203.487	790
203.555	2096
203.623	598
203.691	2039
203.759	1317
203.827	1396
203.895	1395
203.963	1610
204.031	959
204.099	1685
204.168	1897
204.236	1606
204.304	1455
204.372	2376
204.440	1350
204.508	2438
204.576	1249
204.644	1699
204.712	1081
204.780	1834
204.848	1326
204.916	1931
204.984	1249
205.052	1580
205.120	1625
205.188	1588
205.256	1589
205.324	2635
205.392	2184
205.460	2682
205.528	2021
205.596	1941
205.664	2099
205.732	2550
205.799	6888
205.867	14374
205.935	3322
206.003	3640
206.071	2137
206.139	3568
206.207	1837
206.275	1470
206.343	1485
206.411	2113
206.478	2227
206.546	2441
206.614	1388
206.682	2204
206.750	1401
206.818	2851
206.885	2756
206.953	1286
207.021	2310
207.089	2124
207.157	1907
207.225	2424
207.292	2421
207.360	2414
207.428	2062
207.496	2517
207.563	2307
207.631	2407
207.699	1827
207.767	2514
207.834	1645
207.902	2419
207.970	1729
208.038	2335
208.105	2117
208.173	3544
208.241	3896
208.309	4780
208.376	2534
208.444	5146
208.512	3825
208.579	2199
208.647	2621
208.715	3847
208.782	1811
208.850	3170
208.918	1888
208.985	2351
209.053	2163
209.120	3424
209.188	1776
209.256	2830
209.323	1466
209.391	3219
209.459	3529
209.526	2673
209.594	2126
209.661	2740
209.729	2499
209.796	2816
209.864	2746
209.932	1429
209.999	3137
210.067	3442
210.134	1693
210.202	3725
210.269	3168
210.337	4148
210.404	2643
210.472	3039
210.539	2751
210.607	3015
210.674	1801
210.742	2672
210.809	3122
210.877	3202
210.944	2511
211.012	2572
211.079	3875
211.146	3284
211.214	3196
211.281	3739
211.349	3630
211.416	3027
211.484	3017
211.551	2637
211.618	3710
211.686	4133
211.753	2390
211.821	3332
211.888	3366
211.955	2680
212.023	2995
212.090	3977
212.157	3024
212.225	3926
212.292	7831
212.359	15586
212.427	36513
212.494	18709
212.561	7073
212.629	5268
212.696	3794
212.763	3841
212.831	3004
212.898	4226
212.965	3104
213.032	3684
213.100	2741
213.167	3565
213.234	3935
213.301	3941
213.369	3869
213.436	3647
213.503	2963
213.570	3786
213.638	2680
213.705	3384
213.772	2086
213.839	2799
213.906	3159
213.973	3573
214.041	2699
214.108	3714
214.175	2629
214.242	2655
214.309	3478
214.376	3645
214.444	2937
214.511	4661
214.578	3687
214.645	4654
214.712	3733
214.779	3923
214.846	3260
214.913	4551
214.980	4742
215.048	5036
215.115	5365
215.182	4148
215.249	3330
215.316	3570
215.383	3361
215.450	3232
215.517	2334
215.584	2976
215.651	1910
215.718	3085
215.785	2094
215.852	1703
215.919	2196
215.986	2370
216.053	2664
216.120	2544
216.187	2540
216.254	3063
216.321	1856
216.388	3063
216.455	3035
216.522	3725
216.589	3520
216.656	3703
216.722	4786
216.789	5848
216.856	6441
216.923	5435
216.990	4916
217.057	4436
217.124	4312
217.191	5274
217.258	6964
217.324	9538
217.391	9607
217.458	8507
217.525	6039
217.592	5481
217.659	3120
217.725	4810
217.792	3614
217.859	4558
217.926	2552
217.993	3042
218.059	2087
218.126	3059
218.193	2105
218.260	3207
218.327	2566
218.393	1360
218.460	2096
218.527	1304
218.594	2377
218.660	2561
218.727	2570
218.794	2039
218.860	1719
218.927	1708
218.994	1663
219.061	2533
219.127	1765
219.194	2774
219.261	1535
219.327	1477
219.394	1888
219.461	1837
219.527	1547
219.594	2394
219.661	1941
219.727	1911
219.794	2251
219.860	2128
219.927	2657
219.994	4131
220.060	3475
220.127	4184
220.193	4206
220.260	4549
220.326	6596
220.393	12409
220.460	17222
220.526	11883
220.593	7135
220.659	7714
220.726	7622
220.792	18077
220.859	16434
220.925	21111
220.992	27950
221.058	26555
221.125	25224
221.191	19843
221.258	8157
221.324	6126
221.391	4284
221.457	4359
221.524	3891
221.590	6276
221.657	20871
221.723	15075
221.789	12860
221.856	12630
221.922	6313
221.989	4820
222.055	2884
222.121	2395
222.188	3765
222.254	3133
222.321	2322
222.387	1748
222.453	1901
222.520	2510
222.586	1637
222.652	2898
222.719	1670
222.785	2461
222.851	1495
222.918	1973
222.984	1209
223.050	1403
223.116	924
223.183	2933
223.249	1176
223.315	1462
223.382	1182
223.448	2353
223.514	944
223.580	1833
223.647	1437
223.713	1208
223.779	1233
223.845	1682
223.911	1102
223.978	2053
224.044	1655
224.110	874
224.176	1916
224.242	1551
224.309	979
224.375	1534
224.441	448
224.507	1419
224.573	191
224.639	2365
224.705	229
224.772	1101
224.838	1011
224.904	1508
224.970	856
225.036	1542
225.102	350
225.168	2011
225.234	1634
225.300	1790
225.366	1552
225.432	2573
225.499	1757
225.565	1955
225.631	515
225.697	2297
225.763	3835
225.829	4123
225.895	4135
225.961	5487
226.027	3821
226.093	4258
226.159	6314
226.225	10611
226.291	25198
226.357	43012
226.423	21543
226.489	11038
226.554	6072
226.620	7154
226.686	7240
226.752	11237
226.818	22893
226.884	52674
226.950	47809
227.016	19456
227.082	10310
227.148	6865
227.214	5162
227.279	3567
227.345	2650
227.411	2889
227.477	3200
227.543	5768
227.609	4441
227.674	3269
227.740	2150
227.806	3247
227.872	2178
227.938	2583
228.003	2736
228.069	2234
228.135	1050
228.201	2390
228.267	1143
228.332	1929
228.398	342
228.464	2276
228.530	744
228.595	2289
228.661	524
228.727	1048
228.792	1907
228.858	1844
228.924	1351
228.990	4983
229.055	1672
229.121	3418
229.187	1124
229.252	785
229.318	795
229.384	1206
229.449	565
229.515	85
229.581	-209
229.646	2749
229.712	373
229.777	736
229.843	1336
229.909	1974
229.974	2359
230.040	2006
230.105	2452
230.171	2263
230.236	5110
230.302	9525
230.368	4699
230.433	4589
230.499	3446
230.564	3416
230.630	1409
230.695	2498
230.761	1605
230.826	917
230.892	1794
230.957	1057
231.023	1501
231.088	1593
231.154	870
231.219	2586
231.284	1461
231.350	3148
231.415	735
231.481	1827
231.546	992
231.612	1369
231.677	722
231.742	722
231.808	2434
231.873	1462
231.939	-259
232.004	2444
232.069	2148
232.135	2731
232.200	1657
232.265	1811
232.331	1060
232.396	1615
232.461	830
232.527	486
232.592	107
232.657	996
232.723	940
232.788	1351
232.853	1433
232.918	1203
232.984	96
233.049	839
233.114	319
233.179	1385
233.245	1509
233.310	2435
233.375	51
233.440	2317
233.506	2578
233.571	2347
233.636	915
233.701	766
233.766	-117
233.832	1655
233.897	287
233.962	-313
234.027	1246
234.092	1717
234.157	382
234.222	1161
234.288	1253
234.353	3694
234.418	2741
234.483	2605
234.548	1770
234.613	2448
234.678	1826
234.743	1573
234.808	3880
234.873	2619
234.938	2339
235.004	2071
235.069	1278
235.134	1163
235.199	1848
235.264	2671
235.329	843
235.394	2331
235.459	2519
235.524	2135
235.589	1919
235.654	2178
235.719	504
235.784	3221
235.849	2146
235.913	3581
235.978	3200
236.043	2688
236.108	2523
236.173	1940
236.238	2512
236.303	2954
236.368	2232
236.433	4508
236.498	3805
236.563	7347
236.627	16997
236.692	64772
236.757	56154
236.822	20790
236.887	11412
236.952	11601
237.017	8416
237.081	9532
237.146	11157
237.211	31535
237.276	64946
237.341	101770
237.405	46193
237.470	18431
237.535	10316
237.600	7679
237.664	6280
237.729	3800
237.794	6730
237.859	18247
237.923	8109
237.988	4810
238.053	4419
238.118	3996
238.182	7337
238.247	8798
238.312	1756
238.376	3286
238.441	562
238.506	3963
238.570	324
238.635	3544
238.700	2072
238.764	2054
238.829	2538
238.893	2412
238.958	1930
239.023	2093
239.087	989
239.152	2493
239.216	1421
239.281	1810
239.346	1321
239.410	1899
239.475	1434
239.539	5774
239.604	3751
239.668	2646
239.733	1092
239.797	2680
239.862	6490
239.926	5650
239.991	1868
240.055	1419
240.120	1267
240.184	1889
240.249	206
240.313	1271
240.378	2182
240.442	1996
240.507	4251
240.571	2310
240.635	1420
240.700	1924
240.764	914
240.829	1301
240.893	-712
240.957	1326
241.022	2398
241.086	3919
241.151	86
241.215	-60
241.279	2364
241.344	1383
241.408	2074
241.472	1626
241.537	2873
241.601	2652
241.665	961
241.730	2441
241.794	2321
241.858	2055
241.922	2064
241.987	2149
242.051	972
242.115	1336
242.179	1476
242.244	1520
242.308	2156
242.372	3085
242.436	873
242.501	2380
242.565	956
242.629	1989
242.693	1929
242.757	1558
242.822	1804
242.886	3057
242.950	1784
243.014	1931
243.078	1513
243.142	2811
243.206	1511
243.271	3131
243.335	3269
243.399	8247
243.463	35103
243.527	106647
243.591	32497
243.655	9757
243.719	5458
243.783	6050
243.847	8437
243.911	13323
243.975	4347
244.040	3149
244.104	3335
244.168	2647
244.232	1529
244.296	5791
244.360	10556
244.424	3764
244.488	1084
244.552	2690
244.615	-280
244.679	1999
244.743	584
244.807	361
244.871	1412
244.935	1527
244.999	-4
245.063	1555
245.127	1905
245.191	7298
245.255	6904
245.319	2184
245.383	-829
245.446	3917
245.510	388
245.574	1461
245.638	1746
245.702	-677
245.766	1793
245.829	2370
245.893	811
245.957	1495
246.021	2098
246.085	1874
246.149	1602
246.212	3030
246.276	3037
246.340	1574
246.404	1895
246.467	2594
246.531	-204
246.595	3165
246.659	2241
246.722	164
246.786	1119
246.850	1372
246.913	1662
246.977	537
247.041	1173
247.104	1600
247.168	1288
247.232	1599
247.295	5030
247.359	2423
247.423	1774
247.486	1870
247.550	2165
247.614	1265
247.677	1143
247.741	1381
247.804	1173
247.868	2300
247.932	2170
247.995	5971
248.059	1317
248.122	851
248.186	2364
248.249	2784
248.313	10904
248.376	11209
248.440	4341
248.503	1793
248.567	3473
248.630	1951
248.694	2542
248.757	5950
248.821	13409
248.884	8381
248.948	4658
249.011	8458
249.075	14225
249.138	12181
249.202	4522
249.265	3752
249.328	4233
249.392	4451
249.455	3903
249.519	3670
249.582	3467
249.645	5008
249.709	4377
249.772	5418
249.835	4355
249.899	4054
249.962	4506
250.025	3989
250.089	5273
250.152	7526
250.215	4282
250.279	5416
250.342	5530
250.405	6524
250.468	5420
250.532	8732
250.595	17560
250.658	84582
250.721	152898
250.785	43650
250.848	18897
250.911	12732
250.974	11126
251.038	10584
251.101	12417
251.164	9654
251.227	9881
251.290	13218
251.354	25118
251.417	121567
251.480	126983
251.543	82631
251.606	231529
251.669	177768
251.732	58288
251.795	35715
251.859	44034
251.922	141503
251.985	79316
252.048	25967
252.111	15966
252.174	13077
252.237	14681
252.300	28507
252.363	56350
252.426	165726
252.489	62069
252.552	23583
252.615	14351
252.678	15370
252.741	24242
252.804	61103
252.867	179747
252.930	71490
252.993	22988
253.056	15114
253.119	10435
253.182	11355
253.245	29056
253.308	18156
253.371	6515
253.434	5404
253.497	5801
253.559	7492
253.622	4448
253.685	3822
253.748	3179
253.811	3668
253.874	3712
253.937	3030
254.000	2873
254.062	4224
254.125	4049
254.188	4447
254.251	2503
254.314	2373
254.376	2543
254.439	2912
254.502	1835
254.565	3116
254.628	4946
254.690	2606
254.753	1366
254.816	1295
254.878	1315
254.941	3316
255.004	3328
255.067	2532
255.129	683
255.192	1227
255.255	164
255.317	1154
255.380	873
255.443	1331
255.505	1387
255.568	783
255.631	497
255.693	1545
255.756	382
255.819	2172
255.881	876
255.944	1822
256.006	1404
256.069	1730
256.132	736
256.194	2390
256.257	3301
256.319	2955
256.382	2195
256.444	3710
256.507	2611
256.569	2578
256.632	4160
256.694	7060
256.757	29220
256.819	99656
256.882	39889
256.944	12999
257.007	7684
257.069	6119
257.132	3515
257.194	5586
257.257	3143
257.319	3953
257.381	6428
257.444	22085
257.506	109492
257.569	118675
257.631	33211
257.693	14726
257.756	9595
257.818	6516
257.880	4326
257.943	4540
258.005	1308
258.067	1916
258.130	1920
258.192	2053
258.254	1991
258.317	2474
258.379	2378
258.441	2537
258.503	2960
258.566	3893
258.628	5588
258.690	1565
258.753	2532
258.815	2813
258.877	1531
258.939	2482
259.001	2262
259.064	2245
259.126	1582
259.188	1852
259.250	2340
259.312	1948
259.375	3702
259.437	3121
259.499	2020
259.561	1786
259.623	1459
259.685	1329
259.747	1011
259.809	4771
259.872	7020
259.934	13356
259.996	9899
260.058	2600
260.120	1575
260.182	2304
260.244	1240
260.306	1513
260.368	879
260.430	679
260.492	1096
260.554	2965
260.616	1307
260.678	3017
260.740	4908
260.802	1964
260.864	1180
260.926	-95
260.988	1688
261.050	1180
261.112	651
261.174	5857
261.236	5409
261.298	2090
261.359	2326
261.421	4005
261.483	755
261.545	1852
261.607	-872
261.669	1975
261.731	1803
261.793	3248
261.854	-131
261.916	1633
261.978	-496
262.040	928
262.102	1357
262.164	952
262.225	547
262.287	2150
262.349	334
262.411	2225
262.472	1068
262.534	1520
262.596	2083
262.658	1932
262.719	509
262.781	2523
262.843	2421
262.904	2147
262.966	2997
263.028	6581
263.090	36563
263.151	124861
263.213	34418
263.275	9569
263.336	5090
263.398	4546
263.459	1742
263.521	2565
263.583	1951
263.644	1460
263.706	528
263.767	541
263.829	1016
263.891	-29
263.952	26
264.014	257
264.075	-215
264.137	1381
264.198	735
264.260	301
264.321	592
264.383	1053
264.444	1378
264.506	1029
264.567	713
264.629	2089
264.690	-655
264.752	1219
264.813	1541
264.875	596
264.936	829
264.998	389
265.059	1495
265.120	2843
265.182	7604
265.243	48830
265.305	53333
265.366	10928
265.427	5042
265.489	4152
265.550	1544
265.611	2091
265.673	975
265.734	833
265.795	1751
265.857	2096
265.918	2718
265.979	13756
266.040	81944
266.102	71993
266.163	16034
266.224	7514
266.286	4366
266.347	2773
266.408	2453
266.469	1799
266.530	1253
266.592	1190
266.653	658
266.714	1319
266.775	-326
266.836	946
266.898	104
266.959	984
267.020	399
267.081	1450
267.142	268
267.203	1294
267.264	-789
267.326	1388
267.387	540
267.448	748
267.509	732
267.570	585
267.631	557
267.692	-154
267.753	261
267.814	-110
267.875	404
267.936	1310
267.997	267
268.058	1567
268.119	818
268.180	121
268.241	-343
268.302	1085
268.363	-333
268.424	127
268.485	-338
268.546	74
268.607	-967
268.668	29
268.729	-166
268.790	638
268.851	206
268.912	890
268.972	-407
269.033	73
269.094	-1094
269.155	582
269.216	-212
269.277	288
269.338	-55
269.398	808
269.459	-218
269.520	1359
269.581	1170
269.642	672
269.702	-390
269.763	1343
269.824	233
269.885	570
269.945	434
270.006	354
270.067	-254
270.128	1038
270.188	475
270.249	-59
270.310	-569
270.370	1196
270.431	80
270.492	-202
270.553	-741
270.613	-179
270.674	167
270.734	715
270.795	-270
270.856	417
270.916	126
270.977	81
271.038	347
271.098	-228
271.159	-55
271.219	139
271.280	-197
271.340	900
271.401	-418
271.462	1147
271.522	1047
271.583	1094
271.643	707
271.704	432
271.764	31
271.825	1128
271.885	6813
271.946	13256
272.006	2239
272.066	4705
272.127	7881
272.187	2779
272.248	987
272.308	1170
272.369	3348
272.429	2063
272.489	806
272.550	-63
272.610	1087
272.671	778
272.731	515
272.791	807
272.852	-73
272.912	-77
272.972	260
273.033	600
273.093	-405
273.153	654
273.214	13
273.274	282
273.334	829
273.394	3091
273.455	1161
273.515	457
273.575	1638
273.635	732
273.696	2317
273.756	4571
273.816	1404
273.876	906
273.936	1768
273.997	4497
274.057	346
274.117	1055
274.177	-155
274.237	4409
274.297	4747
274.358	3278
274.418	1434
274.478	1495
274.538	645
274.598	210
274.658	3041
274.718	4063
274.778	1405
274.838	-77
274.898	709
274.958	6232
275.018	5916
275.078	3206
275.138	1192
275.198	478
275.258	-345
275.318	158
275.378	728
275.438	336
275.498	10
275.558	2414
275.618	5966
275.678	1736
275.738	959
275.798	-151
275.858	441
275.918	-407
275.978	-14
276.038	1077
276.098	-83
276.157	501
276.217	332
276.277	1180
276.337	-903
276.397	148
276.457	-22
276.517	-27
276.576	361
276.636	309
276.696	60
276.756	1010
276.815	158
276.875	219
276.935	-48
276.995	567
277.055	425
277.114	292
277.174	465
277.234	1605
277.293	-93
277.353	173
277.413	422
277.472	980
277.532	69
277.592	1546
277.651	1436
277.711	3679
277.771	88
277.830	4031
277.890	3213
277.950	2864
278.009	12375
278.069	4916
278.128	2919
278.188	3734
278.248	1442
278.307	5012
278.367	2404
278.426	1641
278.486	306
278.545	549
278.605	161
278.664	605
278.724	557
278.783	1964
278.843	4684
278.902	1813
278.962	904
279.021	1953
279.081	1816
279.140	1924
279.199	1546
279.259	2521
279.318	2858
279.378	4394
279.437	7059
279.496	26802
279.556	123486
279.615	109930
279.675	20124
279.734	10952
279.793	10108
279.853	16704
279.912	6520
279.971	3444
280.031	2386
280.090	5580
280.149	9505
280.208	11395
280.268	77746
280.327	96898
280.386	16347
280.445	8205
280.505	4633
280.564	3674
280.623	2390
280.682	1803
280.742	1328
280.801	2089
280.860	226
280.919	852
280.978	598
281.037	411
281.097	154
281.156	1537
281.215	54
281.274	381
281.333	2402
281.392	1249
281.451	421
281.510	1384
281.569	332
281.628	1780
281.688	1004
281.747	734
281.806	-301
281.865	546
281.924	-351
281.983	757
282.042	-256
282.101	-532
282.160	-747
282.219	-21
282.278	-763
282.337	640
282.396	-4
282.454	720
282.513	-617
282.572	1128
282.631	-731
282.690	490
282.749	-268
282.808	135
282.867	-1105
282.926	182
282.985	-182
283.043	-89
283.102	-11
283.161	-59
283.220	363
283.279	1775
283.338	948
283.396	192
283.455	18
283.514	858
283.573	-31
283.631	1298
283.690	3
283.749	-362
283.808	865
283.866	889
283.925	-515
283.984	690
284.043	40
284.101	255
284.160	-267
284.219	703
284.277	791
284.336	389
284.395	1187
284.453	944
284.512	694
284.570	1511
284.629	875
284.688	1244
284.746	347
284.805	653
284.863	1041
284.922	1501
284.981	1509
285.039	3248
285.098	6925
285.156	20987
285.215	98471
285.273	107730
285.332	33271
285.390	13797
285.449	7023
285.507	5308
285.566	3506
285.624	2937
285.683	1668
285.741	1520
285.799	1061
285.858	1113
285.916	523
285.975	-143
286.033	806
286.091	1341
286.150	-259
286.208	1341
286.267	732
286.325	1190
286.383	204
286.442	1415
286.500	395
286.558	856
286.616	730
286.675	1127
286.733	757
286.791	536
286.850	1709
286.908	2061
286.966	918
287.024	1159
287.083	164
287.141	1106
287.199	1483
287.257	1795
287.315	1909
287.374	1665
287.432	2668
287.490	2244
287.548	1529
287.606	2400
287.664	2613
287.723	2538
287.781	2409
287.839	3901
287.897	6193
287.955	11219
288.013	21643
288.071	54279
288.129	193804
288.187	521877
288.245	268202
288.303	85271
288.361	43743
288.419	30161
288.477	20950
288.535	15600
288.593	10781
288.651	7893
288.709	5667
288.767	4484
288.825	2620
288.883	3191
288.941	1801
288.999	1910
289.057	2049
289.115	2177
289.173	449
289.231	1481
289.289	798
289.346	2185
289.404	1279
289.462	1561
289.520	747
289.578	1574
289.636	302
289.694	1026
289.751	1259
289.809	1108
289.867	1706
289.925	896
289.983	-211
290.040	948
290.098	191
290.156	451
290.214	953
290.271	785
290.329	140
290.387	759
290.444	475
290.502	751
290.560	49
290.617	925
290.675	-258
290.733	156
290.790	162
290.848	258
290.906	-471
290.963	142
291.021	-391
291.078	357
291.136	-398
291.194	304
291.251	25
291.309	397
291.366	-255
291.424	155
291.481	-315
291.539	-611
291.596	-487
291.654	121
291.711	626
291.769	-102
291.826	-396
291.884	897
291.941	-929
291.999	-224
292.056	-95
292.114	-759
292.171	-639
292.228	131
292.286	-39
292.343	-159
292.401	-26
292.458	730
292.515	-366
292.573	282
292.630	25
292.687	233
292.745	-714
292.802	559
292.859	-188
292.917	883
292.974	-553
293.031	-152
293.089	-1123
293.146	-192
293.203	-1163
293.260	109
293.318	188
293.375	345
293.432	-133
293.489	-405
293.546	-368
293.604	-301
293.661	1541
293.718	5608
293.775	1841
293.832	-45
293.889	555
293.947	1416
294.004	336
294.061	-23
294.118	-549
294.175	906
294.232	-334
294.289	559
294.346	68
294.403	1296
294.460	237
294.517	-271
294.574	-366
294.631	-197
294.688	-614
294.745	1070
294.802	4457
294.859	2513
294.916	410
294.973	1317
295.030	-470
295.087	-37
295.144	-171
295.201	208
295.258	325
295.315	577
295.372	1595
295.429	2977
295.486	993
295.542	-55
295.599	102
295.656	535
295.713	1262
295.770	2088
295.827	328
295.883	701
295.940	275
295.997	-93
296.054	-64
296.111	258
296.167	480
296.224	-357
296.281	469
296.338	836
296.394	-880
296.451	273
296.508	-234
296.564	1633
296.621	1377
296.678	6307
296.734	11186
296.791	3741
296.848	1551
296.904	635
296.961	997
297.018	3171
297.074	4469
297.131	2032
297.187	229
297.244	1144
297.301	3955
297.357	10574
297.414	2945
297.470	1202
297.527	95
297.583	875
297.640	377
297.696	439
297.753	-1008
297.809	300
297.866	-182
297.922	404
297.979	-95
298.035	-847
298.092	-564
298.148	950
298.204	592
298.261	541
298.317	1742
298.374	8214
298.430	4094
298.486	1530
298.543	75
298.599	1830
298.656	3757
298.712	10532
298.768	46659
298.824	49169
298.881	12935
298.937	4893
298.993	3083
299.050	2510
299.106	2167
299.162	1949
299.218	1323
299.275	936
299.331	756
299.387	2398
299.443	6603
299.500	10824
299.556	4346
299.612	1893
299.668	1795
299.724	4165
299.780	5315
299.837	2325
299.893	1021
299.949	3708
300.005	5763
300.061	5617
300.117	12291
300.173	6285
300.229	1312
300.285	1342
300.341	1482
300.397	-199
300.453	-141
300.510	126
300.566	173
300.622	2262
300.678	8765
300.734	14561
300.790	6550
300.845	5953
300.901	4921
300.957	7850
301.013	3216
301.069	1497
301.125	522
301.181	526
301.237	360
301.293	-123
301.349	-487
301.405	-1141
301.461	-1225
301.516	-66
301.572	-1385
301.628	-856
301.684	-767
301.740	227
301.796	-520
301.851	1168
301.907	689
301.963	3323
302.019	7436
302.074	29259
302.130	29820
302.186	13421
302.242	3931
302.297	3029
302.353	2026
302.409	2281
302.464	1633
302.520	1620
302.576	3271
302.631	5562
302.687	2134
302.743	1290
302.798	798
302.854	462
302.910	1009
302.965	893
303.021	348
303.076	1686
303.132	1294
303.187	2246
303.243	68
303.299	883
303.354	953
303.410	1302
303.465	42
303.521	1124
303.576	-197
303.632	937
303.687	1762
303.743	4853
303.798	5192
303.853	2092
303.909	1090
303.964	956
304.020	-80
304.075	935
304.130	649
304.186	1758
304.241	2926
304.297	2790
304.352	109
304.358	194
304.407	882
304.449	548
304.463	434
304.518	1475
304.539	991
304.573	215
304.629	1143
304.630	1156
304.684	1787
304.720	3560
304.739	4435
304.794	7521
304.811	6583
304.850	4395
304.902	2603
304.905	2495
304.960	2923
304.992	4745
305.015	5976
305.071	6262
305.083	5325
305.126	1987
305.173	1218
305.181	1096
305.236	1308
305.264	1076
305.292	875
305.347	1075
305.354	1237
305.402	2308
305.445	3908
305.457	4327
305.512	6572
305.535	5192
305.567	3332
305.622	3657
305.626	3780
305.678	6372
305.716	13378
305.733	15913
305.788	12505
305.807	10260
305.843	6582
305.897	7522
305.898	7529
305.953	9064
305.988	6678
306.008	5279
306.063	3024
306.078	2526
306.118	1348
306.168	1628
306.173	1656
306.228	1476
306.259	1818
306.283	2160
306.338	1224
306.349	1632
306.393	3431
306.440	6079
306.448	6429
306.503	5219
306.530	4421
306.558	4081
306.613	6840
306.620	6993
306.668	7096
306.711	5670
306.723	5281
306.778	3758
306.801	3221
306.833	2715
306.888	1773
306.892	1774
306.943	1871
306.982	2018
306.997	2053
307.052	1973
307.072	1999
307.107	2104
307.162	1999
307.163	1998
307.217	1833
307.253	2165
307.272	2411
307.327	1941
307.343	2094
307.381	2178
307.434	2151
307.436	2176
307.491	2737
307.524	3257
307.546	3507
307.600	4634
307.614	4435
307.655	3605
307.704	4301
307.710	4439
307.765	4598
307.795	5025
307.819	5384
307.874	6445
307.885	6844
307.929	9438
307.975	13731
307.984	15199
308.038	29393
308.065	39986
308.093	69166
308.148	148247
308.156	167241
308.202	254777
308.246	314348
308.257	312704
308.312	174590
308.336	118079
308.366	77496
308.421	38394
308.426	36456
308.475	25256
308.517	20016
308.530	18620
308.585	15391
308.607	13859
308.639	12001
308.694	11479
308.697	11420
308.748	10250
308.787	10214
308.803	10133
308.857	9877
308.877	10260
308.912	11573
308.967	14043
308.967	14126
309.021	22303
309.058	29774
309.076	38807
309.130	74211
309.148	90129
309.185	176127
309.238	337027
309.239	337754
309.293	372732
309.328	330407
309.348	288889
309.402	139863
309.418	105133
309.457	67314
309.508	37414
309.511	36065
309.566	26736
309.598	22668
309.620	20204
309.674	16089
309.688	15229
309.729	13130
309.778	10729
309.783	10456
309.837	8072
309.868	7456
309.892	7245
309.946	7038
309.959	7150
310.001	6827
310.049	5950
310.055	5764
310.109	4611
310.139	3771
310.163	3344
310.218	3031
310.229	2935
310.272	2724
310.319	2679
310.326	2599
310.381	2181
310.409	2020
310.435	2206
310.489	2361
310.499	2421
310.543	2415
310.589	2459
310.598	2381
310.652	1954
310.679	1675
310.706	1728
310.760	1855
310.769	1884
310.814	1864
310.859	1877
310.868	1868
310.923	1739
310.948	1739
310.977	1864
311.031	1912
311.038	1950
311.085	1611
311.128	1071
311.139	1093
311.193	1438
311.218	1627
311.247	1909
311.301	2267
311.308	2301
311.356	1834
311.398	1490
311.410	1508
311.464	1595
311.488	1618
311.518	1642
311.572	1694
311.578	1703
311.626	1854
311.668	1928
311.680	1953
311.734	2037
311.758	2092
311.788	1783
311.842	1201
311.847	1140
311.896	1322
311.937	1504
311.950	1464
312.004	1251
312.027	1177
312.058	1401
312.112	1797
312.117	1832
312.165	1692
312.207	1564
312.297	1939
312.386	1469
312.476	1161
312.566	2119
312.656	2094
312.745	1437
312.835	2326
312.925	1386
313.015	2057
313.104	1676
313.194	2613
313.284	1962
313.374	1538
313.463	1508
313.553	1702
313.643	1663
313.732	1355
313.822	967
313.912	2482
314.001	1363
314.091	812
314.180	1936
314.270	2253
314.360	1608
314.449	1701
314.539	925
314.628	1495
314.718	1539
314.808	1743
314.897	2039
314.987	1514
315.076	1945
315.166	2465
315.255	1750
315.345	2680
315.434	1972
315.524	1986
315.613	3210
315.703	6021
315.792	16242
315.881	67109
315.971	20315
316.060	4169
316.150	2029
316.239	1442
316.328	1217
316.418	2537
316.507	1489
316.597	2215
316.686	1627
316.775	1292
316.865	1959
316.954	1633
317.043	1769
317.133	2372
317.222	1173
317.311	2069
317.400	1136
317.490	3428
317.579	2783
317.668	5465
317.757	10069
317.847	33693
317.936	120833
318.025	30589
318.114	18859
318.203	7901
318.293	2557
318.382	2090
318.471	2584
318.560	1616
318.649	1233
318.738	557
318.828	2055
318.917	1160
319.006	1646
319.095	1191
319.184	1015
319.273	1588
319.362	1605
319.451	683
319.540	789
319.629	1751
319.718	1302
319.807	1072
319.896	861
319.985	1502
320.074	1163
320.163	1006
320.252	1079
320.341	1467
320.430	266
320.519	1193
320.608	876
320.697	1409
320.786	1112
320.875	1461
320.964	1502
321.053	2044
321.142	1254
321.230	2416
321.319	1769
321.408	2258
321.497	2200
321.586	1736
321.675	952
321.764	1761
321.852	1675
321.941	2064
322.030	1476
322.119	1677
322.207	2976
322.296	2582
322.385	1909
322.474	2568
322.562	3426
322.651	2211
322.740	2282
322.829	2335
322.917	1614
323.006	1890
323.095	1100
323.183	1616
323.272	1228
323.361	1552
323.449	2849
323.538	1163
323.626	2245
323.715	1459
323.804	102
323.892	1700
323.981	1568
324.069	1668
324.158	2001
324.246	1014
324.335	1611
324.424	1366
324.512	925
324.601	1448
324.689	1781
324.778	2715
324.866	1360
324.954	1260
325.043	774
325.131	354
325.220	1529
325.308	1412
325.397	1698
325.485	1021
325.574	546
325.662	484
325.750	152
325.839	1541
325.927	244
326.015	372
326.104	720
326.192	812
326.280	-262
326.369	739
326.457	-584
326.545	255
326.634	842
326.722	816
326.810	585
326.898	1679
326.987	1066
327.075	576
327.163	1178
327.251	1148
327.340	905
327.428	2046
327.516	1573
327.604	668
327.692	692
327.781	599
327.869	903
327.957	1326
328.045	582
328.133	1890
328.221	685
328.309	857
328.397	1029
328.485	1463
328.574	1102
328.662	1666
328.750	1701
328.838	1141
328.926	841
329.014	621
329.102	1066
329.190	1532
329.278	666
329.366	1292
329.454	612
329.542	801
329.630	707
329.718	1676
329.806	1368
329.893	2056
329.981	2508
330.069	9267
330.157	35750
330.245	90377
330.333	39684
330.421	5788
330.509	2514
330.597	2671
330.684	1435
330.772	1813
330.860	-34
330.948	944
331.036	996
331.123	985
331.211	786
331.299	582
331.387	1011
331.475	1085
331.562	1468
331.650	416
331.738	460
331.825	775
331.913	785
332.001	679
332.089	317
332.176	231
332.264	1344
332.352	704
332.439	86
332.527	971
332.614	-340
332.702	361
332.790	1208
332.877	609
332.965	1302
333.052	855
333.140	1147
333.228	586
333.315	193
333.403	339
333.490	775
333.578	613
333.665	2026
333.753	1465
333.840	316
333.928	927
334.015	681
334.103	1332
334.190	1854
334.278	1455
334.365	2324
334.452	1861
334.540	1443
334.627	939
334.715	1532
334.802	2123
334.889	5090
334.977	6487
335.064	3293
335.151	2032
335.239	1079
335.326	1946
335.413	826
335.501	1740
335.588	1914
335.675	1456
335.762	500
335.850	1865
335.937	3065
336.024	6036
336.111	8732
336.199	7550
336.286	3687
336.373	2367
336.460	793
336.547	2203
336.635	930
336.722	1216
336.809	668
336.896	373
336.983	1191
337.070	1550
337.157	1101
337.245	1085
337.332	585
337.419	689
337.506	-49
337.593	794
337.680	959
337.767	1745
337.854	256
337.941	1020
338.028	1126
338.115	803
338.202	1678
338.289	823
338.376	968
338.463	952
338.550	270
338.637	391
338.724	550
338.811	1039
338.898	654
338.984	608
339.071	-27
339.158	300
339.245	724
339.332	2046
339.419	-317
339.506	415
339.593	-297
339.679	1006
339.766	-3
339.853	249
339.940	1478
340.027	405
340.113	-117
340.200	369
340.287	710
340.374	-568
340.460	346
340.547	-55
340.634	1067
340.720	1723
340.807	202
340.894	280
340.980	49
341.067	224
341.154	335
341.240	-31
341.327	136
341.414	57
341.500	-66
341.587	825
341.674	1061
341.760	776
341.847	159
341.933	420
342.020	-337
342.106	801
342.193	364
342.279	1049
342.366	-416
342.452	551
342.539	-322
342.625	711
342.712	1258
342.798	743
342.885	493
342.971	-288
343.058	374
343.144	88
343.230	585
343.317	994
343.403	108
343.490	857
343.576	77
343.662	10
343.749	29
343.835	539
343.921	1558
344.008	8388
344.094	13417
344.180	2036
344.267	1154
344.353	1679
344.439	1984
344.525	675
344.612	1438
344.698	847
344.784	-27
344.870	1296
344.957	20
345.043	1473
345.129	-948
345.215	1320
345.301	337
345.387	34
345.474	-354
345.560	720
345.646	301
345.732	228
345.818	651
345.904	439
345.990	187
346.076	982
346.162	213
346.249	1814
346.335	207
346.421	1395
346.507	1062
346.593	3187
346.679	331
346.765	712
346.851	218
346.937	-468
347.023	767
347.108	866
347.194	207
347.280	466
347.366	997
347.452	2451
347.538	3452
347.624	3926
347.710	1296
347.796	234
347.882	840
347.967	329
348.053	571
348.139	535
348.225	114
348.311	168
348.397	57
348.482	428
348.568	489
348.654	626
348.740	1582
348.825	1055
348.911	2574
348.997	2976
349.083	4208
349.168	323
349.254	618
349.340	432
349.425	237
349.511	129
349.597	788
349.682	362
349.768	2113
349.854	1155
349.939	564
350.025	479
350.110	1234
350.196	677
350.282	-307
350.367	942
350.453	424
350.538	555
350.624	17
350.709	682
350.795	237
350.880	540
350.966	926
351.051	437
351.137	221
351.222	226
351.308	879
351.393	1237
351.479	129
351.564	323
351.649	37
351.735	245
351.820	709
351.906	164
351.991	76
352.076	761
352.162	767
352.247	616
352.332	842
352.418	326
352.503	-304
352.588	2328
352.673	1125
352.759	-41
352.844	107
352.929	660
353.014	-624
353.100	976
353.185	337
353.270	330
353.355	580
353.441	650
353.526	363
353.611	524
353.696	-787
353.781	1459
353.866	-220
353.952	1474
354.037	-350
354.122	1916
354.207	946
354.292	979
354.377	231
354.462	968
354.547	370
354.632	895
354.717	690
354.802	1133
354.887	318
354.972	437
355.057	238
355.142	-438
355.227	923
355.312	287
355.397	842
355.482	1470
355.567	198
355.652	1198
355.737	1381
355.822	1857
355.907	582
355.991	1258
356.076	329
356.161	821
356.246	-172
356.331	802
356.416	578
356.501	6930
356.585	3953
356.670	-475
356.755	2248
356.840	1297
356.924	5204
357.009	16658
357.094	5329
357.179	869
357.263	497
357.348	1035
357.433	-258
357.517	370
357.602	598
357.687	245
357.771	573
357.856	785
357.941	975
358.025	7737
358.110	27539
358.195	10065
358.279	1550
358.364	842
358.448	1810
358.533	3491
358.617	2035
358.702	2236
358.787	928
358.871	-62
358.956	59
359.040	403
359.125	-44
359.209	616
359.294	-446
359.378	445
359.462	776
359.547	1159
359.631	466
359.716	287
359.800	-297
359.885	690
359.969	-147
360.053	634
360.138	254
360.222	-361
360.306	-322
360.391	-33
360.475	530
360.559	16
360.644	418
360.728	671
360.812	3238
360.896	7645
360.981	1633
361.065	-49
361.149	1276
361.233	239
361.318	-549
361.402	-103
361.486	318
361.570	51
361.654	407
361.739	520
361.823	5979
361.907	9253
361.991	861
362.075	198
362.159	-197
362.243	2957
362.327	3438
362.411	8578
362.495	2680
362.580	1089
362.664	989
362.748	265
362.832	1551
362.916	3631
363.000	17228
363.084	26034
363.168	14647
363.252	3655
363.336	1540
363.420	812
363.503	1013
363.587	1174
363.671	-87
363.755	-456
363.839	1166
363.923	-293
364.007	1371
364.091	1448
364.175	1481
364.258	7355
364.342	17290
364.426	37419
364.510	15088
364.594	4825
364.677	3905
364.761	7886
364.845	4294
364.929	1179
365.013	857
365.096	1083
365.180	435
365.264	509
365.347	1381
365.431	240
365.515	-334
365.598	-65
365.682	797
365.766	-642
365.849	-406
365.933	-184
366.017	1501
366.100	-466
366.184	-175
366.267	674
366.351	-260
366.435	-655
366.518	-529
366.602	614
366.685	916
366.769	-358
366.852	-352
366.936	897
367.019	-67
367.103	-664
367.186	585
367.270	301
367.353	-298
367.436	1364
367.520	-192
367.603	900
367.687	-888
367.770	-389
367.853	1424
367.937	2434
368.020	1682
368.104	-153
368.187	707
368.270	260
368.353	-362
368.437	-224
368.520	672
368.603	183
368.687	-87
368.770	2141
368.853	730
368.936	922
369.020	497
369.103	-154
369.186	-185
369.269	51
369.352	672
369.436	114
369.519	327
369.602	-897
369.685	1589
369.768	-90
369.851	688
369.934	-179
370.018	-316
370.101	-484
370.184	2378
370.267	565
370.350	837
370.433	713
370.516	8220
370.599	23673
370.682	8638
370.765	3093
370.848	2509
370.931	3180
371.014	1464
371.097	-510
371.180	389
371.263	677
371.346	-905
371.429	1541
371.511	-686
371.594	-323
371.677	644
371.760	1320
371.843	1977
371.926	11622
372.009	22528
372.091	7417
372.174	1674
372.257	4261
372.340	-108
372.423	1008
372.505	1484
372.588	507
372.671	1311
372.754	1890
372.836	1316
372.919	789
373.002	944
373.085	-115
373.167	1276
373.250	1918
373.332	4172
373.415	14114
373.498	27190
373.580	13712
373.663	44247
373.746	42352
373.828	5691
373.911	2588
373.993	-73
374.076	819
374.159	1218
374.241	1760
374.324	2294
374.406	2953
374.489	6352
374.571	13150
374.654	2996
374.736	2598
374.819	7959
374.901	16705
374.983	14960
375.066	2414
375.148	550
375.231	1038
375.313	677
375.395	788
375.478	18
375.560	336
375.643	652
375.725	2809
375.807	10292
375.890	7528
375.972	163
376.054	653
376.136	396
376.219	299
376.301	3101
376.383	5844
376.465	1120
376.548	24
376.630	1212
376.712	5435
376.794	1355
376.877	529
376.959	72
377.041	214
377.123	184
377.205	-168
377.287	-773
377.369	977
377.452	-11
377.534	579
377.616	-131
377.698	366
377.780	-499
377.862	109
377.944	1065
378.026	-54
378.108	255
378.190	296
378.272	678
378.354	73
378.436	-55
378.518	-685
378.600	-302
378.682	593
378.764	1180
378.846	1285
378.928	584
379.010	126
379.091	1082
379.173	603
379.255	-1102
379.337	312
379.419	591
379.501	3329
379.583	745
379.664	-350
379.746	-490
379.828	2299
379.910	935
379.991	2381
380.073	-449
380.155	342
380.237	488
380.318	-249
380.400	316
380.482	542
380.564	106
380.645	985
380.727	594
380.809	1626
380.890	264
380.972	-1233
381.053	111
381.135	498
381.217	-11
381.298	2043
381.380	116
381.461	761
381.543	6032
381.624	5386
381.706	48
381.787	1275
381.869	1069
381.951	5435
382.032	16662
382.113	10216
382.195	19
382.276	2064
382.358	1404
382.439	4929
382.521	8237
382.602	12456
382.684	4432
382.765	6137
382.846	5028
382.928	8910
383.009	3979
383.090	4224
383.172	15623
383.253	19368
383.334	6610
383.416	8022
383.497	4238
383.578	1797
383.659	3254
383.741	14787
383.822	35394
383.903	13585
383.984	4405
384.066	8274
384.147	3575
384.228	1996
384.309	1254
384.390	886
384.471	518
384.553	1140
384.634	145
384.715	1768
384.796	869
384.877	-108
384.958	1908
385.039	499
385.120	-287
385.201	2023
385.282	1197
385.363	1901
385.444	1051
385.525	2591
385.606	5082
385.687	3919
385.768	1635
385.849	896
385.930	10621
386.011	15191
386.092	3381
386.173	1379
386.254	2071
386.335	1884
386.416	310
386.496	1548
386.577	1832
386.658	1041
386.739	401
386.820	1826
386.901	124
386.981	1541
387.062	1429
387.143	1842
387.224	2097
387.304	3542
387.385	2462
387.466	192
387.547	2145
387.627	928
387.708	2067
387.789	4576
387.869	3938
387.950	2470
388.031	1455
388.111	99
388.192	2312
388.273	2721
388.353	1029
388.434	1441
388.514	1530
388.595	6384
388.676	4934
388.756	2370
388.837	2476
388.917	1408
388.998	-305
389.078	1677
389.159	2659
389.239	1035
389.320	2214
389.400	-92
389.480	1318
389.561	985
389.641	2159
389.722	1217
389.802	266
389.883	2053
389.963	4271
390.043	1902
390.124	359
390.204	2305
390.284	3730
390.365	4785
390.445	29636
390.525	129264
390.605	96581
390.686	11924
390.766	3974
390.846	2531
390.927	796
391.007	552
391.087	2808
391.167	1353
391.247	34
391.328	2451
391.408	2320
391.488	2371
391.568	110
391.648	1042
391.728	2819
391.808	2692
391.888	2093
391.969	3482
392.049	3073
392.129	3628
392.209	3070
392.289	6054
392.369	4331
392.449	4478
392.529	4111
392.609	5664
392.689	6349
392.769	8666
392.849	9296
392.929	12729
393.009	16719
393.089	24363
393.169	58062
393.248	232107
393.328	803896
393.408	735304
393.488	173287
393.568	45694
393.648	23250
393.728	14575
393.807	10634
393.887	11531
393.967	10881
394.047	10505
394.127	14592
394.206	30948
394.286	140216
394.366	505533
394.446	444080
394.525	93103
394.605	24429
394.685	13398
394.764	9898
394.844	8461
394.924	8048
395.003	5854
395.083	5686
395.163	6140
395.242	5867
395.322	5360
395.402	5411
395.481	8052
395.561	6915
395.640	12439
395.720	15515
395.799	14869
395.879	20264
395.958	46859
396.038	203910
396.117	656019
396.197	595065
396.276	149769
396.356	41321
396.435	23228
396.515	20644
396.594	23390
396.673	53037
396.753	253200
396.832	692912
396.912	392134
396.991	66770
397.070	22524
397.150	11210
397.229	10053
397.308	12038
397.388	14748
397.467	8556
397.546	4414
397.625	2050
397.705	4332
397.784	2636
397.863	1669
397.942	2207
398.022	1415
398.101	401
398.180	2599
398.259	1156
398.338	3015
398.417	1002
398.497	60
398.576	1871
398.655	-295
398.734	1245
398.813	1016
398.892	1077
398.971	1837
399.050	173
399.129	-216
399.208	274
399.287	2064
399.366	477
399.445	1178
399.524	1073
399.603	-929
399.682	1490
399.761	69
399.840	927
399.919	1468
399.998	116
400.077	-792
400.156	-816
400.235	2734
400.313	-447
400.392	-931
400.471	1320
400.550	1189
400.629	-781
400.708	564
400.786	-332
400.865	-981
400.944	-880
401.023	1229
401.102	-480
401.180	-24
401.259	-174
401.338	-876
401.416	669
401.495	-38
401.574	477
401.652	-540
401.731	466
401.810	-1109
401.888	-1081
401.967	-50
402.046	526
402.124	1143
402.203	-875
402.281	526
402.360	-951
402.438	396
402.517	-1234
402.596	478
402.674	-41
402.753	57
402.831	-226
402.910	1172
402.988	1332
403.066	3436
403.145	2730
403.223	2614
403.302	3586
403.380	3677
403.459	1609
403.537	126
403.615	-40
403.694	-758
403.772	644
403.850	-8
403.929	244
404.007	58
404.085	1817
404.164	-739
404.242	477
404.320	5509
404.398	13850
404.477	9429
404.555	9503
404.633	8203
404.711	7936
404.789	3940
404.868	-281
404.946	-436
405.024	-125
405.102	469
405.180	-436
405.258	-1364
405.336	340
405.415	-753
405.493	195
405.571	866
405.649	-969
405.727	-990
405.805	110
405.883	187
405.961	-206
406.039	-394
406.117	-784
406.195	454
406.273	821
406.351	5751
406.429	2332
406.507	-349
406.585	-445
406.663	466
406.740	-160
406.818	-652
406.896	-441
406.974	1299
407.052	-974
407.130	2889
407.208	2218
407.285	1068
407.363	-731
407.441	695
407.519	465
407.596	3022
407.674	20787
407.752	75686
407.830	43626
407.907	4328
407.985	-214
408.063	297
408.141	-537
408.218	654
408.296	-961
408.373	-324
408.451	-92
408.529	-397
408.606	-460
408.684	-509
408.762	487
408.839	-78
408.917	-768
408.994	-74
409.072	-1191
409.149	-595
409.227	1338
409.304	1201
409.382	1801
409.459	1989
409.537	3445
409.614	2109
409.692	625
409.769	1611
409.846	2792
409.924	4394
410.001	-375
410.079	1183
410.156	1645
410.233	1344
410.311	1301
410.388	689
410.465	373
410.543	-408
410.620	190
410.697	745
410.775	-482
410.852	-1007
410.929	395
411.006	1274
411.083	-333
411.161	-103
411.238	105
411.315	456
411.392	-169
411.469	876
411.547	326
411.624	-1529
411.701	-67
411.778	625
411.855	-132
411.932	-407
412.009	-107
412.086	586
412.163	78
412.240	-631
412.317	-524
412.394	-1084
412.471	-51
412.548	-681
412.625	-371
412.702	-324
412.779	-249
412.856	836
412.933	-768
413.010	2093
413.087	2715
413.164	821
413.241	1471
413.318	-580
413.395	144
413.471	-229
413.548	-762
413.625	546
413.702	-713
413.779	-976
413.855	-852
413.932	-870
414.009	-1085
414.086	-26
414.162	-461
414.239	-231
414.316	220
414.393	1315
414.469	-973
414.546	-105
414.623	-421
414.699	-516
414.776	56
414.853	-217
414.929	199
415.006	-329
415.082	-334
415.159	268
415.236	259
415.312	-470
415.389	237
415.465	-292
415.542	-201
415.618	-617
415.695	-608
415.771	-1096
415.848	-754
415.924	-132
416.000	-263
416.077	686
416.153	-259
416.230	-695
416.306	-919
416.383	-61
416.459	-16
416.535	-412
416.612	-76
416.688	-445
416.764	-1272
416.841	-867
416.917	-125
416.993	216
417.069	276
417.146	101
417.222	50
417.298	-114
417.374	-1103
417.451	-19
417.527	-748
417.603	-1162
417.679	456
417.755	254
417.831	-1022
417.908	0
417.984	-672
418.060	-1190
418.136	-182
418.212	-481
418.288	-656
418.364	-83
418.440	-829
418.516	509
418.592	-153
418.668	412
418.744	-514
418.820	806
418.896	-169
418.972	-658
419.048	-645
419.124	1177
419.200	-497
419.276	257
419.352	-634
419.428	-300
419.504	-1699
419.579	-202
419.655	-447
419.731	820
419.807	239
419.883	333
419.959	-437
420.034	511
420.110	-499
420.186	397
420.262	185
420.337	-537
420.413	-268
420.489	571
420.565	1398
420.640	-406
420.716	-120
420.792	-258
420.867	692
420.943	-132
421.019	-58
421.094	197
421.170	181
421.245	380
421.321	650
421.397	1963
421.472	15248
421.548	41246
421.623	17792
421.699	2294
421.774	1913
421.850	1170
421.925	1557
422.001	2378
422.076	2998
422.152	2202
422.227	3110
422.302	6902
422.378	9664
422.453	19482
422.529	62467
422.604	225298
422.679	373807
422.755	178107
422.830	46330
422.905	18858
422.981	9414
423.056	5876
423.131	4641
423.207	3004
423.282	1612
423.357	2674
423.432	938
423.508	1860
423.583	830
423.658	1165
423.733	665
423.808	741
423.883	1097
423.959	1196
424.034	999
424.109	1528
424.184	176
424.259	234
424.334	856
424.409	-74
424.484	-323
424.559	-443
424.634	-164
424.709	418
424.784	964
424.859	-16
424.934	-679
425.009	121
425.084	851
425.159	-212
425.234	17
425.309	-307
425.384	286
425.459	-535
425.534	-433
425.609	-463
425.683	-641
425.758	67
425.833	127
425.908	-85
425.983	-681
426.058	1018
426.132	422
426.207	-491
426.282	455
426.357	-513
426.431	-124
426.506	-534
426.581	-512
426.655	87
426.730	-136
426.805	-613
426.879	555
426.954	22
427.029	-425
427.103	1032
427.178	2915
427.253	1119
427.327	-257
427.402	-1268
427.476	-493
427.551	-608
427.625	123
427.700	-27
427.774	-822
427.849	-406
427.923	-1312
427.998	109
428.072	300
428.147	2667
428.221	17488
428.296	54983
428.370	25109
428.444	1459
428.519	269
428.593	-38
428.667	293
428.742	527
428.816	4440
428.890	30562
428.965	43152
429.039	8633
429.113	565
429.188	299
429.262	-626
429.336	-84
429.410	-53
429.485	789
429.559	72
429.633	-111
429.707	-31
429.781	3873
429.855	26274
429.930	34789
430.004	7213
430.078	3119
430.152	21777
430.226	97363
430.300	83161
430.374	11020
430.448	2455
430.522	1139
430.596	1304
430.670	8203
430.744	40884
430.818	39563
430.892	5718
430.966	297
431.040	-519
431.114	-1297
431.188	79
431.262	-138
431.336	-1163
431.410	-201
431.484	-834
431.557	354
431.631	-51
431.705	759
431.779	14071
431.853	54052
431.927	31099
432.000	3641
432.074	-327
432.148	154
432.222	-1941
432.295	-370
432.369	-592
432.443	-331
432.516	1006
432.590	3331
432.664	1049
432.737	-961
432.811	-1135
432.885	-321
432.958	695
433.032	-132
433.106	-845
433.179	-275
433.253	-611
433.326	349
433.400	-738
433.473	-613
433.547	-817
433.620	-186
433.694	-816
433.767	-449
433.841	-2257
433.914	-589
433.988	-341
434.061	-1014
434.134	-895
434.208	-913
434.281	-771
434.355	-997
434.428	-585
434.501	-126
434.575	-743
434.648	-629
434.721	-443
434.795	-984
434.868	-1574
434.941	-1024
435.014	-1334
435.088	-36
435.161	-565
435.234	142
435.307	-830
435.381	-58
435.454	468
435.527	977
435.600	1007
435.673	405
435.746	-119
435.819	-78
435.892	-198
435.966	-248
436.039	-403
436.112	341
436.185	-1029
436.258	-1002
436.331	-990
436.404	-647
436.477	-902
436.550	-1113
436.623	149
436.696	-712
436.769	-818
436.842	-74
436.915	-1185
436.987	-747
437.060	-409
437.133	-433
437.206	-444
437.279	-387
437.352	-911
437.425	-589
437.498	-560
437.570	-167
437.643	-154
437.716	-471
437.789	-654
437.861	-649
437.934	-570
438.007	-564
438.080	-809
438.152	-379
438.225	-81
438.298	3092
438.370	7564
438.443	2349
438.516	-570
438.588	-285
438.661	-2014
438.734	-334
438.806	-854
438.879	-196
438.951	-725
439.024	-623
439.096	-1066
439.169	-504
439.241	-482
439.314	-919
439.386	-1014
439.459	-553
439.531	-1428
439.604	-1626
439.676	85
439.749	-1001
439.821	-410
439.893	-153
439.966	-556
440.038	-968
440.110	-1015
440.183	-417
440.255	-798
440.327	-278
440.400	1062
440.472	2738
440.544	1222
440.617	61
440.689	441
440.761	-343
440.833	-330
440.905	-603
440.978	-389
441.050	-895
441.122	-466
441.194	-746
441.266	-1035
441.338	-559
441.411	-977
441.483	554
441.555	490
441.627	128
441.699	-509
441.771	-721
441.843	-189
441.915	-315
441.987	124
442.059	-508
442.131	-11
442.203	-51
442.275	-652
442.347	1921
442.419	3814
442.491	24294
442.563	53311
442.635	20595
442.706	2362
442.778	987
442.850	403
442.922	-593
442.994	530
443.066	93
443.137	968
443.209	725
443.281	1688
443.353	6115
443.425	33404
443.496	114132
443.568	99922
443.640	34549
443.711	5779
443.783	1549
443.855	-1
443.926	-412
443.998	-1028
444.070	526
444.141	-411
444.213	-237
444.285	83
444.356	-120
444.428	-677
444.499	-511
444.571	-196
444.642	-120
444.714	-838
444.785	117
444.857	-178
444.928	17
445.000	326
445.071	608
445.143	1242
445.214	1849
445.285	4404
445.357	15123
445.428	83921
445.500	179441
445.571	100786
445.642	46181
445.714	12568
445.785	4255
445.856	664
445.928	521
445.999	-467
446.070	-290
446.141	-227
446.213	131
446.284	-292
446.355	-57
446.426	-787
446.497	253
446.569	-298
446.640	-608
446.711	40
446.782	-283
446.853	-513
446.924	351
446.995	-1137
447.066	-521
447.138	-600
447.209	-102
447.280	-658
447.351	-833
447.422	-1192
447.493	-553
447.564	-155
447.635	-1002
447.706	-1735
447.777	-346
447.847	-449
447.918	-564
447.989	-145
448.060	-1043
448.131	154
448.202	-845
448.273	-332
448.344	-467
448.414	-164
448.485	-905
448.556	239
448.627	-470
448.698	254
448.768	-809
448.839	-1072
448.910	-389
448.981	-1151
449.051	39
449.122	-899
449.193	-392
449.263	-465
449.334	-807
449.405	-204
449.475	463
449.546	-156
449.616	854
449.687	-151
449.758	536
449.828	-514
449.899	-261
449.969	-580
450.040	213
450.110	479
450.181	632
450.251	-1114
450.322	96
450.392	17
450.463	-183
450.533	-657
450.604	421
450.674	-575
450.744	-451
450.815	-731
450.885	-190
450.955	33
451.026	-844
451.096	-608
451.166	-412
451.237	-711
451.307	-448
451.377	255
451.447	-344
451.518	-625
451.588	-461
451.658	363
451.728	110
451.799	-298
451.869	35
451.939	-150
452.009	305
452.079	-648
452.149	266
452.219	-599
452.289	-488
452.360	-575
452.430	-69
452.500	13
452.570	949
452.640	2205
452.710	3627
452.780	4418
452.850	2336
452.920	868
452.990	613
453.060	540
453.129	-582
453.199	-888
453.269	145
453.339	-327
453.409	-814
453.479	457
453.549	-221
453.619	-430
453.688	-724
453.758	949
453.828	896
453.898	-8
453.968	-560
454.037	-800
454.087	-188
454.107	42
454.168	-664
454.177	-792
454.247	-473
454.249	-424
454.316	214
454.330	203
454.386	106
454.411	43
454.456	-153
454.492	-65
454.525	-19
454.574	281
454.595	380
454.655	77
454.665	-1
454.734	-328
454.736	-295
454.804	-45
454.817	66
454.873	419
454.898	380
454.943	299
454.979	277
455.013	239
455.060	856
455.082	1115
455.141	1284
455.152	1694
455.221	5923
455.222	6147
455.291	22563
455.303	30816
455.360	59368
455.384	85981
455.430	119843
455.465	88460
455.499	62735
455.546	25045
455.569	9022
455.627	3829
455.638	2850
455.707	878
455.708	903
455.777	1098
455.789	1075
455.846	630
455.869	570
455.916	501
455.950	646
455.985	677
456.031	529
456.054	466
456.112	655
456.124	653
456.193	530
456.193	514
456.262	1675
456.274	1655
456.332	1236
456.355	1022
456.401	692
456.436	902
456.470	954
456.516	613
456.540	478
456.597	587
456.609	546
456.678	757
456.678	741
456.747	800
456.759	799
456.817	963
456.840	852
456.886	439
456.920	763
456.955	1073
457.001	1492
457.024	1692
457.082	1209
457.093	1111
457.162	924
457.163	944
457.232	1184
457.243	1092
457.301	899
457.324	986
457.370	1145
457.405	1643
457.439	1959
457.485	1721
457.508	1725
457.566	1783
457.577	1820
457.646	3205
457.647	3231
457.715	5488
457.727	5960
457.784	9317
457.808	12005
457.853	15364
457.889	17587
457.922	16230
457.969	11252
457.991	11966
458.050	15093
458.060	15842
458.129	25783
458.130	26092
458.198	23001
458.211	21176
458.267	12706
458.292	8621
458.336	6213
458.372	5880
458.405	7933
458.453	11515
458.474	14859
458.533	27892
458.543	28952
458.611	40770
458.614	41091
458.680	23361
458.694	18072
458.749	9191
458.775	6681
458.818	4541
458.855	4067
458.887	3713
458.936	2999
458.955	2853
459.016	2487
459.024	2443
459.093	2824
459.097	2811
459.162	2260
459.177	2336
459.230	2634
459.257	2740
459.299	2945
459.338	2844
459.368	2765
459.418	3104
459.437	3091
459.499	2552
459.505	2468
459.574	2581
459.579	2564
459.643	2731
459.659	2753
459.711	2782
459.740	2828
459.780	2827
459.820	2747
459.849	2557
459.900	2332
459.917	2422
459.981	3361
459.986	3388
460.054	3426
460.061	3395
460.123	3168
460.141	3179
460.191	3506
460.222	3773
460.260	3832
460.302	3918
460.328	4145
460.382	4331
460.397	4490
460.462	6055
460.465	6383
460.534	14075
460.543	15044
460.602	50551
460.623	63927
460.671	101678
460.703	133621
460.739	117720
460.783	88260
460.808	69494
460.864	13124
460.876	10089
460.944	4557
460.945	4504
461.013	4493
461.024	4430
461.081	4008
461.104	3956
461.150	3767
461.184	3622
461.218	3766
461.264	3808
461.286	3707
461.345	3732
461.355	3739
461.423	3898
461.425	3900
461.491	3577
461.505	3455
461.559	3123
461.585	3093
461.628	3185
461.665	3373
461.696	3486
461.745	3537
461.764	3469
461.825	3012
461.832	3061
461.901	3765
461.905	3803
461.969	2836
461.985	2611
462.037	3400
462.065	3825
462.105	3371
462.145	3077
462.173	3582
462.225	3848
462.241	3577
462.305	3701
462.310	3769
462.378	3974
462.385	4005
462.446	3964
462.465	3977
462.514	4256
462.545	4467
462.582	4006
462.625	3578
462.650	3830
462.705	4131
462.718	4110
462.785	4134
462.786	4134
462.854	3560
462.865	3535
462.922	3259
462.945	3138
462.990	3362
463.025	3543
463.058	3702
463.104	3925
463.126	3983
463.184	4020
463.194	3992
463.262	3562
463.264	3564
463.330	4602
463.344	4713
463.398	4637
463.424	4656
463.466	3917
463.504	3180
463.533	3375
463.583	3779
463.601	3819
463.663	3968
463.669	3940
463.737	3409
463.743	3381
463.805	3855
463.823	3929
463.873	4462
463.903	4721
463.940	4577
463.982	4519
464.008	4506
464.062	4428
464.076	4496
464.142	5016
464.144	5009
464.211	4040
464.221	3947
464.279	3992
464.301	3929
464.347	3921
464.381	4024
464.414	4243
464.461	4592
464.482	4753
464.540	4911
464.550	4992
464.617	5350
464.620	5370
464.685	7113
464.699	7386
464.753	11521
464.779	13687
464.820	15691
464.859	17678
464.888	15955
464.938	12625
464.956	12525
465.018	11864
465.023	11880
465.091	11973
465.098	11965
465.158	11382
465.177	11246
465.226	11854
465.257	12083
465.293	11848
465.336	11565
465.361	11676
465.416	11913
465.428	12027
465.495	12486
465.496	12505
465.563	12063
465.575	11979
465.631	12507
465.654	12754
465.698	13247
465.734	13452
465.765	13452
465.813	13451
465.833	13453
465.893	13465
465.900	13503
465.968	13557
465.972	13536
466.035	14699
466.052	14960
466.102	15474
466.131	15793
466.170	16132
466.210	16323
466.237	16806
466.290	17757
466.304	17882
466.369	18186
466.372	18247
466.439	19129
466.449	19190
466.506	19998
466.528	20301
466.573	20685
466.607	20894
466.641	21130
466.687	21352
466.708	21684
466.766	22455
466.775	22713
466.842	24263
466.845	24290
466.909	24288
466.925	24223
466.977	24464
467.004	24522
467.044	24999
467.083	25368
467.111	27239
467.163	30608
467.178	31138
467.242	33029
467.245	32867
467.312	28128
467.321	27442
467.379	25263
467.400	24396
467.446	24345
467.480	24221
467.559	21332
467.638	21400
467.717	20039
467.796	19530
467.875	19683
467.955	18787
468.034	18695
468.113	18465
468.192	18442
468.271	19112
468.350	20762
468.429	21900
468.508	22155
468.588	19521
468.667	15590
468.746	15064
468.825	14840
468.904	14803
468.983	14170
469.062	14858
469.141	15595
469.220	14622
469.299	14135
469.378	17197
469.456	24531
469.535	21446
469.614	18314
469.693	17236
469.772	17756
469.851	17248
469.930	16062
470.009	17103
470.088	15612
470.166	16282
470.245	16446
470.324	16875
470.403	15911
470.482	15877
470.560	15338
470.639	13949
470.718	14691
470.797	13262
470.875	14255
470.954	13816
471.033	14158
471.111	13388
471.190	14230
471.269	12875
471.347	12762
471.426	13465
471.505	16717
471.583	18828
471.662	18287
471.740	15663
471.819	15209
471.898	14716
471.976	14400
472.055	15239
472.133	14834
472.212	17167
472.290	14406
472.369	13212
472.447	13523
472.526	13116
472.604	15115
472.683	13389
472.761	12009
472.839	11843
472.918	13597
472.996	11829
473.075	11941
473.153	12381
473.231	11113
473.310	12642
473.388	11217
473.466	12898
473.545	14412
473.623	15781
473.701	14292
473.780	13352
473.858	12109
473.936	13891
474.014	13060
474.093	13752
474.171	14059
474.249	14874
474.327	10834
474.405	11550
474.484	11722
474.562	11586
474.640	12573
474.718	13120
474.796	15519
474.874	14374
474.952	13565
475.030	13675
475.108	15299
475.187	19325
475.265	17145
475.343	15888
475.421	16007
475.499	12472
475.577	12791
475.655	11241
475.733	10873
475.811	10407
475.889	10525
475.966	10172
476.044	9013
476.122	9237
476.200	9981
476.278	9076
476.356	8778
476.434	10060
476.512	9066
476.590	9841
476.667	10168
476.745	8364
476.823	8942
476.901	8670
476.979	8043
477.056	9493
477.134	9141
477.212	9471
477.290	8438
477.367	9242
477.445	8240
477.523	8534
477.601	8731
477.678	8177
477.756	8853
477.834	7762
477.911	7660
477.989	8257
478.066	6838
478.144	8109
478.222	8889
478.299	8945
478.377	10485
478.454	9780
478.532	7324
478.609	6510
478.687	8112
478.764	7643
478.842	7578
478.919	7526
478.997	6286
479.074	6749
479.152	6842
479.229	7754
479.307	6022
479.384	7025
479.461	6964
479.539	5763
479.616	7036
479.694	6488
479.771	6017
479.848	6877
479.926	4877
480.003	7551
480.080	7065
480.157	6877
480.235	5206
480.312	6379
480.389	5841
480.467	5245
480.544	5655
480.621	6412
480.698	6206
480.775	6933
480.853	5591
480.930	6304
481.007	6142
481.084	8717
481.161	15255
481.238	10349
481.315	5530
481.392	5484
481.470	5947
481.547	5177
481.624	5846
481.701	5066
481.778	5145
481.855	5722
481.932	5950
482.009	5648
482.086	5759
482.163	6301
482.240	7403
482.317	9615
482.393	7224
482.470	5838
482.547	5890
482.624	5814
482.701	5284
482.778	5364
482.855	5004
482.932	5891
483.009	6008
483.085	7349
483.162	10491
483.239	10189
483.316	6295
483.393	6571
483.469	6081
483.546	5254
483.623	5215
483.699	5807
483.776	5478
483.853	5529
483.930	6058
484.006	9440
484.083	14222
484.160	40283
484.236	81814
484.313	60504
484.389	42383
484.466	37918
484.543	35355
484.619	35461
484.696	37307
484.772	34283
484.849	32449
484.925	32643
485.002	31385
485.078	31104
485.155	31371
485.231	29645
485.308	30335
485.384	29830
485.461	30143
485.537	28990
485.614	30474
485.690	28644
485.766	26864
485.843	26741
485.919	27099
485.995	26562
486.072	25583
486.148	26312
486.224	25758
486.301	26062
486.377	25814
486.453	24890
486.530	29083
486.606	43126
486.682	46597
486.758	38085
486.835	35313
486.911	33768
486.987	32658
487.063	33165
487.139	36429
487.215	38735
487.292	34765
487.368	31585
487.444	33405
487.520	35907
487.596	40946
487.672	56150
487.748	115425
487.824	165591
487.900	67415
487.976	35191
488.052	28419
488.128	28574
488.204	24434
488.280	25016
488.356	25536
488.432	24786
488.508	23122
488.584	21903
488.660	20696
488.736	22296
488.812	22864
488.888	27691
488.964	28591
489.039	27546
489.115	28239
489.191	27252
489.267	23324
489.343	21881
489.418	20735
489.494	21797
489.570	19462
489.646	22114
489.722	20561
489.797	20215
489.873	20928
489.949	24027
490.024	24145
490.100	17424
490.176	18589
490.251	18511
490.327	18467
490.403	16256
490.478	19420
490.554	16475
490.629	17250
490.705	16210
490.781	17331
490.856	15507
490.932	17969
491.007	15754
491.083	17824
491.158	15215
491.234	16850
491.309	16187
491.385	14321
491.460	14991
491.536	16605
491.611	15446
491.686	14925
491.762	16116
491.837	14751
491.913	18504
491.988	16684
492.063	20331
492.139	13674
492.214	13706
492.289	12645
492.365	11448
492.440	14257
492.515	11087
492.590	13218
492.666	11971
492.741	14198
492.816	13498
492.891	13685
492.967	18247
493.042	18767
493.117	24575
493.192	30083
493.267	67661
493.342	289939
493.418	418459
493.493	54324
493.568	14487
493.643	13019
493.718	12088
493.793	10145
493.868	12122
493.943	9445
494.018	11848
494.093	9862
494.168	9620
494.243	9939
494.318	9938
494.393	8858
494.468	9644
494.543	7991
494.618	8749
494.693	9090
494.768	7286
494.842	9425
494.917	8050
494.992	9635
495.067	8448
495.142	7538
495.217	9934
495.292	8435
495.366	8732
495.441	8913
495.516	9047
495.591	9782
495.665	13873
495.740	20403
495.815	13179
495.890	8952
495.964	8332
496.039	11117
496.114	11309
496.188	17306
496.263	15697
496.338	9001
496.412	9539
496.487	10737
496.561	9470
496.636	11928
496.710	12349
496.785	13171
496.860	13753
496.934	12538
497.009	13276
497.083	14164
497.158	14352
497.232	14753
497.307	19052
497.381	20299
497.455	21687
497.530	24934
497.604	25235
497.679	27195
497.753	36695
497.827	46599
497.902	54026
497.976	52845
498.050	50233
498.125	51569
498.199	59899
498.273	68828
498.348	71104
498.422	61758
498.496	52781
498.570	41372
498.645	35547
498.719	30000
498.793	26180
498.867	23582
498.941	20792
499.016	18294
499.090	19234
499.164	17101
499.238	13910
499.312	12327
499.386	13231
499.460	10699
499.534	9301
499.609	9635
499.683	9490
499.757	7646
499.831	8954
499.905	10640
499.979	8107
500.053	6766
500.127	7741
500.201	6299
500.275	6937
500.349	6420
500.422	6016
500.496	6660
500.570	8478
500.644	9809
500.718	8064
500.792	6540
500.866	7276
500.940	6092
501.013	6098
501.087	5300
501.161	5870
501.235	4243
501.309	6635
501.382	6116
501.456	7561
501.530	4761
501.603	3291
501.677	5955
501.751	3383
501.825	6365
501.898	5225
501.972	5700
502.046	4057
502.119	4090
502.193	5318
502.266	3718
502.340	5464
502.413	4505
502.487	4365
502.561	3273
502.634	4678
502.708	4149
502.781	3932
502.855	4710
502.928	3305
503.002	3139
503.075	3722
503.149	3285
503.222	3939
503.295	3345
503.369	4496
503.442	3535
503.516	5768
503.589	5310
503.662	4854
503.736	5194
503.809	7086
503.882	6908
503.956	10580
504.029	17874
504.102	46649
504.175	70962
504.249	25163
504.322	9883
504.395	6469
504.468	5025
504.542	4330
504.615	3968
504.688	4314
504.761	2237
504.834	4972
504.907	3902
504.980	4021
505.053	3355
505.127	993
505.200	6765
505.273	3301
505.346	2895
505.419	3160
505.492	3689
505.565	3202
505.638	3661
505.711	2961
505.784	2385
505.857	2705
505.930	4139
506.003	1497
506.076	4419
506.149	2059
506.221	534
506.294	2921
506.367	2648
506.440	3488
506.513	3863
506.586	2522
506.659	1228
506.731	2447
506.804	2385
506.877	2364
506.950	2915
507.022	2669
507.095	1189
507.168	2653
507.241	3494
507.313	2720
507.386	1030
507.459	2988
507.531	2521
507.604	2520
507.677	3469
507.749	2490
507.822	5474
507.894	15000
507.967	24776
508.040	14986
508.112	12275
508.185	10818
508.257	7841
508.330	10372
508.402	8004
508.475	7570
508.547	8239
508.620	7948
508.692	7726
508.765	8972
508.837	6660
508.909	8187
508.982	7356
509.054	7708
509.127	6470
509.199	6608
509.271	6644
509.344	7177
509.416	6791
509.488	5937
509.560	8077
509.633	7326
509.705	6706
509.777	7334
509.849	8134
509.922	7125
509.994	7533
510.066	10003
510.138	10850
510.210	29244
510.283	23037
510.355	17881
510.427	14345
510.499	13909
510.571	12883
510.643	11792
510.715	13524
510.787	10078
510.859	13589
510.931	11173
511.003	11914
511.076	12529
511.148	11197
511.219	10839
511.291	12308
511.363	12209
511.435	10251
511.507	9407
511.579	10202
511.651	11629
511.723	9922
511.795	8833
511.867	9969
511.939	10153
512.010	9388
512.082	10220
512.154	7971
512.226	12031
512.298	19106
512.369	26841
512.441	20278
512.513	16697
512.585	12987
512.656	14860
512.728	12593
512.800	12475
512.871	12828
512.943	13626
513.015	10507
513.086	12853
513.158	11840
513.230	10520
513.301	11408
513.373	12367
513.444	11379
513.516	10155
513.588	10800
513.659	10633
513.731	10975
513.802	9005
513.874	13379
513.945	10980
514.016	9670
514.088	10491
514.159	10131
514.231	12538
514.302	21655
514.374	19344
514.445	14375
514.516	16617
514.588	12697
514.659	13141
514.730	14179
514.802	16755
514.873	23296
514.944	25947
515.016	18046
515.087	15063
515.158	14464
515.229	18976
515.301	27439
515.372	41783
515.443	23255
515.514	16903
515.585	12414
515.656	13864
515.728	12150
515.799	10750
515.870	11735
515.941	11015
516.012	11746
516.083	17524
516.154	15382
516.225	14214
516.296	14479
516.367	11752
516.438	10890
516.509	11288
516.580	11764
516.651	20225
516.722	42136
516.793	23058
516.864	12243
516.935	11515
517.006	13482
517.077	13218
517.148	19644
517.219	56035
517.289	80782
517.360	16928
517.431	11222
517.502	8853
517.573	9847
517.643	10425
517.714	13986
517.785	13734
517.856	11410
517.926	13412
517.997	12509
518.068	12559
518.138	15687
518.209	17041
518.280	42943
518.350	145122
518.421	56631
518.492	15917
518.562	13907
518.633	15607
518.703	18378
518.774	35845
518.845	90385
518.915	85514
518.986	25598
519.056	15417
519.127	15796
519.197	14837
519.268	13378
519.338	9939
519.408	9122
519.479	8952
519.549	8012
519.620	9763
519.690	7076
519.760	7808
519.831	6689
519.901	5775
519.971	7111
520.042	6418
520.112	5246
520.182	7166
520.253	7280
520.323	6590
520.393	6641
520.463	9132
520.534	3416
520.604	8296
520.674	7093
520.744	6265
520.814	6198
520.885	6441
520.955	4900
521.025	6214
521.095	5912
521.165	7991
521.235	5077
521.305	6034
521.375	6109
521.445	6935
521.515	4428
521.585	6845
521.655	3580
521.725	6987
521.795	7601
521.865	3950
521.935	7180
522.005	5476
522.075	5741
522.145	6569
522.215	5346
522.285	5831
522.355	5491
522.424	5370
522.494	5550
522.564	6480
522.634	7162
522.704	10753
522.774	5824
522.843	6186
522.913	5375
522.983	5468
523.053	4059
523.122	5676
523.192	4602
523.262	7169
523.331	6217
523.401	5868
523.471	4276
523.540	5423
523.610	4330
523.680	5363
523.749	5021
523.819	5922
523.888	5671
523.958	4612
524.027	3774
524.097	4925
524.166	3727
524.236	3629
524.305	5283
524.375	4164
524.444	3407
524.514	6758
524.583	3644
524.653	3625
524.722	4879
524.791	2308
524.861	5892
524.930	2890
524.999	2670
525.069	5268
525.138	3563
525.207	3279
525.277	3639
525.346	3570
525.415	4227
525.484	4621
525.554	4287
525.623	6384
525.692	9714
525.761	8337
525.830	9843
525.900	11877
525.969	17521
526.038	29745
526.107	61115
526.176	191876
526.245	152574
526.314	43592
526.383	92938
526.452	128507
526.522	225613
526.591	209520
526.660	32162
526.729	22011
526.797	26046
526.867	31869
526.935	103095
527.004	446964
527.073	267268
527.142	24887
527.211	10944
527.280	7878
527.349	5194
527.418	4095
527.487	4713
527.555	3156
527.624	2545
527.693	1955
527.762	4490
527.831	1813
527.899	3665
527.968	2581
528.037	1158
528.106	3152
528.174	3766
528.243	2998
528.312	2689
528.380	3087
528.449	823
528.518	4496
528.586	1446
528.655	3300
528.723	2183
528.792	2192
528.861	1610
528.929	527
528.998	2940
529.066	1802
529.135	1961
529.203	1624
529.272	587
529.340	2306
529.409	2783
529.477	1547
529.545	1348
529.614	3575
529.682	440
529.751	1098
529.819	3804
529.887	1185
529.956	1286
530.024	2357
530.092	-140
530.161	1931
530.229	994
530.297	828
530.365	2647
530.434	1762
530.502	1193
530.570	1732
530.638	713
530.707	1642
530.775	2498
530.843	853
530.911	196
530.979	2208
531.047	63
531.115	2112
531.183	1766
531.252	1660
531.320	930
531.388	1013
531.456	1475
531.524	39
531.592	2774
531.660	2335
531.728	452
531.796	230
531.864	1617
531.932	1586
532.000	630
532.067	1241
532.135	1790
532.203	2671
532.271	545
532.339	2944
532.407	3587
532.475	3232
532.542	1941
532.610	2100
532.678	239
532.746	5717
532.814	11283
532.881	2759
532.949	2584
533.017	1477
533.084	2236
533.152	1538
533.220	856
533.287	1316
533.355	1417
533.423	2576
533.490	1353
533.558	1688
533.625	2541
533.693	2995
533.761	3123
533.828	3060
533.896	747
533.963	5401
534.031	4750
534.098	4529
534.166	3192
534.233	2808
534.300	5430
534.368	4266
534.435	2888
534.503	4624
534.570	4914
534.637	4672
534.705	5792
534.772	8662
534.840	14568
534.907	83734
534.974	105914
535.041	10641
535.109	3736
535.176	2472
535.243	2474
535.310	3665
535.378	1659
535.445	2760
535.512	2013
535.579	3056
535.646	1370
535.714	4052
535.781	8150
535.848	5494
535.915	5165
535.982	4698
536.049	4291
536.116	5954
536.183	3005
536.250	3372
536.317	2997
536.384	3758
536.451	3887
536.518	4003
536.585	1079
536.652	5056
536.719	3528
536.786	1853
536.853	2246
536.920	3544
536.987	2421
537.053	2135
537.120	6909
537.187	6623
537.254	2297
537.321	2752
537.388	3768
537.454	2324
537.521	2810
537.588	3487
537.654	5228
537.721	7263
537.788	6394
537.855	4627
537.921	4784
537.988	3230
538.055	4492
538.121	2735
538.188	3752
538.254	3974
538.321	4585
538.388	3966
538.454	3169
538.521	4049
538.587	3000
538.654	2666
538.720	3679
538.787	4197
538.853	3764
538.920	3017
538.986	1935
539.053	4121
539.119	3099
539.185	2591
539.252	4458
539.318	3427
539.385	6190
539.451	6696
539.517	6432
539.583	5635
539.650	5219
539.716	6502
539.782	4005
539.849	3870
539.915	4610
539.981	3572
540.047	3031
540.114	4327
540.180	5509
540.246	3017
540.312	3515
540.378	3970
540.444	6151
540.510	5429
540.576	6059
540.643	4556
540.709	2452
540.775	4796
540.841	2914
540.907	5672
540.973	7646
541.039	7419
541.105	6292
541.171	5530
541.237	4387
541.303	5209
541.369	7125
541.435	5705
541.500	5032
541.566	2707
541.632	3450
541.698	3318
541.764	4081
541.830	3783
541.896	3015
541.961	3960
542.027	3094
542.093	4213
542.159	4776
542.224	4847
542.290	7685
542.356	6390
542.421	6603
542.487	6341
542.553	4735
542.618	5472
542.684	4219
542.750	3765
542.815	3270
542.881	2830
542.947	6650
543.012	5288
543.078	3172
543.143	3768
543.209	3791
543.274	3925
543.340	4782
543.405	5881
543.471	4910
543.536	4326
543.602	4945
543.667	3127
543.732	5793
543.798	4170
543.863	5225
543.928	4358
543.994	4020
544.059	4049
544.124	4491
544.190	4434
544.255	5327
544.320	4825
544.386	4008
544.451	5290
544.516	5115
544.581	4734
544.646	7044
544.712	9951
544.777	5897
544.842	5080
544.907	5070
544.972	4542
545.037	5115
545.102	6199
545.168	5170
545.233	5107
545.298	5809
545.363	5717
545.428	6187
545.493	6680
545.558	5834
545.623	5724
545.688	4235
545.753	5150
545.818	5461
545.883	6105
545.947	4743
546.012	6190
546.077	4635
546.142	7060
546.207	5584
546.272	7000
546.337	6440
546.401	7749
546.466	7406
546.531	5521
546.596	7157
546.661	7086
546.725	7369
546.790	6253
546.855	7301
546.919	7151
546.984	8224
547.049	7991
547.113	9692
547.178	9558
547.243	11538
547.307	13666
547.372	13254
547.436	14147
547.501	14245
547.565	16071
547.630	15149
547.695	14169
547.759	14191
547.823	13801
547.888	15075
547.952	15819
548.017	16343
548.081	21632
548.146	16945
548.210	15808
548.274	16844
548.339	16454
548.403	15534
548.468	14180
548.532	14612
548.596	14688
548.660	13832
548.725	16662
548.789	16015
548.853	17913
548.917	16274
548.982	15091
549.046	14133
549.110	12856
549.174	12781
549.238	14704
549.303	15879
549.367	18358
549.431	16631
549.495	15215
549.559	14851
549.623	18049
549.687	18797
549.751	18235
549.815	21095
549.879	22274
549.943	19343
550.007	23122
550.071	20687
550.135	18998
550.199	19118
550.263	17937
550.327	18631
550.391	19142
550.455	20777
550.519	21016
550.582	21595
550.646	24501
550.710	25990
550.774	25299
550.838	25870
550.901	27304
550.965	28240
551.029	29256
551.093	32839
551.156	37120
551.220	45323
551.284	55483
551.347	39263
551.411	29329
551.475	26396
551.538	28341
551.602	25485
551.666	23842
551.729	21250
551.793	22910
551.856	22225
551.920	23197
551.983	21708
552.047	19750
552.110	20809
552.174	22106
552.237	21492
552.301	18942
552.364	18258
552.428	18132
552.491	17674
552.554	19624
552.618	18430
552.681	18906
552.745	18242
552.808	21178
552.871	22218
552.934	20730
552.998	20655
553.061	21034
553.124	19634
553.187	21299
553.251	23244
553.314	24751
553.377	27687
553.440	40135
553.503	122307
553.567	193124
553.630	39265
553.693	22363
553.756	19763
553.819	19906
553.882	17981
553.945	18464
554.008	17655
554.071	17338
554.134	18473
554.197	17074
554.260	16731
554.323	18410
554.386	17312
554.449	18108
554.512	17283
554.575	16452
554.638	16393
554.701	16827
554.764	16379
554.827	16081
554.889	14753
554.952	13967
555.015	13809
555.078	13486
555.141	14240
555.203	14021
555.266	14255
555.329	13615
555.391	12496
555.454	13143
555.517	12644
555.580	13639
555.642	12290
555.705	12175
555.768	12549
555.830	13591
555.893	11360
555.955	10980
556.018	10024
556.080	10404
556.143	10666
556.206	9974
556.268	10971
556.330	10566
556.393	9095
556.455	9487
556.518	9114
556.580	9320
556.643	8492
556.705	9121
556.767	7740
556.830	9212
556.892	7770
556.955	8231
557.017	8178
557.079	8035
557.142	7465
557.204	8271
557.266	9192
557.328	8471
557.391	6598
557.453	6430
557.515	6635
557.577	7300
557.639	7868
557.701	7842
557.764	7792
557.826	8260
557.888	9151
557.950	11187
558.012	12246
558.074	17703
558.136	48151
558.198	122214
558.260	37254
558.322	14319
558.384	16971
558.446	18573
558.508	23479
558.570	30557
558.632	34962
558.694	46412
558.756	79742
558.818	282346
558.880	703489
558.942	194254
559.003	136347
559.065	63811
559.127	26129
559.189	25834
559.251	29434
559.312	43889
559.374	114531
559.436	422910
559.498	185103
559.559	30296
559.621	24576
559.683	28054
559.744	47722
559.806	179407
559.868	265441
559.929	42964
559.991	23612
560.052	36731
560.114	117984
560.176	70458
560.237	64196
560.299	104234
560.360	18172
560.422	6300
560.483	5820
560.545	4923
560.606	4188
560.667	3180
560.729	2426
560.790	3844
560.852	3009
560.913	3453
560.974	2569
561.036	2053
561.097	3137
561.158	3675
561.220	3452
561.281	2284
561.342	2090
561.403	3624
561.465	2725
561.526	3888
561.587	5100
561.648	2296
561.709	2821
561.771	2904
561.832	3021
561.893	2277
561.954	2417
562.015	2176
562.076	2402
562.137	2388
562.198	2528
562.259	2783
562.320	1768
562.381	2696
562.442	1769
562.503	2804
562.564	2336
562.625	2883
562.686	1790
562.747	1414
562.808	1698
562.869	1898
562.930	1709
562.991	1895
563.051	1460
563.112	2366
563.173	1832
563.234	1256
563.294	2118
563.355	1923
563.416	2196
563.477	2241
563.537	1931
563.598	2185
563.659	2063
563.720	2272
563.780	1693
563.841	2056
563.901	2385
563.962	1214
564.023	2549
564.083	2498
564.144	2184
564.204	1748
564.265	1716
564.325	2595
564.386	2291
564.446	2235
564.507	1764
564.567	2282
564.628	2823
564.688	2183
564.749	1811
564.809	2131
564.869	2437
564.930	2875
564.990	2619
565.050	3007
565.111	2881
565.171	2443
565.231	2728
565.292	4727
565.352	2180
565.412	3583
565.472	2695
565.532	3773
565.593	3055
565.653	4089
565.713	3000
565.773	4063
565.833	3216
565.893	4903
565.953	3385
566.013	4319
566.074	4448
566.134	4334
566.194	4179
566.254	6012
566.314	5531
566.374	5990
566.434	6477
566.494	6808
566.554	7772
566.614	8540
566.673	8038
566.733	8745
566.793	11251
566.853	11621
566.913	11567
566.973	12334
567.033	13068
567.092	11038
567.152	10016
567.212	11403
567.272	12145
567.331	13995
567.391	15118
567.451	15661
567.511	17479
567.570	15908
567.630	14366
567.690	14057
567.749	15748
567.809	17321
567.868	20447
567.928	24841
567.988	29871
568.047	37461
568.107	49934
568.166	75235
568.226	126791
568.285	183293
568.345	155218
568.404	116571
568.464	96355
568.523	86011
568.582	87020
568.642	96771
568.701	125368
568.761	194478
568.820	314321
568.879	308898
568.939	212734
568.998	148960
569.057	107383
569.116	79525
569.176	63331
569.235	51109
569.294	40531
569.353	33278
569.413	28808
569.472	24522
569.531	21149
569.590	18093
569.649	16440
569.708	15536
569.767	13633
569.827	12475
569.886	10430
569.945	9896
570.004	9054
570.063	9184
570.122	9167
570.181	8760
570.240	7499
570.299	6393
570.358	5468
570.417	6681
570.475	5464
570.534	6038
570.593	4855
570.652	5247
570.711	5002
570.770	6051
570.829	6208
570.887	6471
570.946	4967
571.005	4201
571.064	3621
571.122	4263
571.181	3669
571.240	3861
571.299	2934
571.357	3866
571.416	3234
571.475	2944
571.533	2802
571.592	3528
571.650	2367
571.709	3094
571.768	3804
571.826	3438
571.885	2237
571.943	2121
572.002	2319
572.060	3016
572.119	2898
572.177	1923
572.236	2561
572.294	2313
572.352	2973
572.411	2660
572.469	2185
572.528	1610
572.586	2786
572.644	1831
572.703	2746
572.761	1170
572.819	1331
572.877	1064
572.936	2034
572.994	2242
573.052	1249
573.110	1313
573.169	2150
573.227	1901
573.285	2096
573.343	1341
573.401	2036
573.459	2564
573.517	1210
573.576	2721
573.634	2149
573.692	1423
573.750	2261
573.808	1615
573.866	1413
573.924	2046
573.982	2139
574.040	2280
574.098	2279
574.155	3060
574.213	2347
574.271	1881
574.329	1284
574.387	1993
574.445	1347
574.503	2090
574.560	1354
574.618	2065
574.676	686
574.734	2022
574.792	1744
574.849	2013
574.907	958
574.965	1849
575.022	1473
575.080	1966
575.138	2303
575.195	1331
575.253	1335
575.311	1533
575.368	2202
575.426	1191
575.483	1454
575.541	1730
575.598	1843
575.656	1564
575.713	2237
575.771	1740
575.828	1078
575.886	1988
575.943	2047
576.001	1132
576.058	1688
576.115	1613
576.173	1259
576.230	1835
576.287	1359
576.345	2064
576.402	917
576.459	1994
576.517	276
576.574	2766
576.631	1570
576.688	1668
576.746	1110
576.803	1286
576.860	367
576.917	1662
576.974	1474
577.031	1855
577.089	1345
577.146	1943
577.203	2050
577.260	3002
577.317	1687
577.374	2400
577.431	1986
577.488	2035
577.545	1071
577.602	2267
577.659	2877
577.716	4275
577.773	6815
577.830	2635
577.886	2475
577.943	2084
578.000	1961
578.057	2162
578.114	2920
578.171	4070
578.227	4555
578.284	3650
578.341	3074
578.398	2845
578.454	3132
578.511	1901
578.568	2323
578.625	1060
578.681	1297
578.738	1740
578.794	1300
578.851	1333
578.908	1861
578.964	2056
579.021	2127
579.077	1184
579.134	1975
579.190	1759
579.247	1399
579.303	2201
579.360	1723
579.416	1549
579.473	2124
579.529	2220
579.586	1971
579.642	1716
579.698	2971
579.755	3337
579.811	3085
579.867	3456
579.924	2355
579.980	2689
580.036	4165
580.093	4486
580.149	6918
580.205	7632
580.261	5737
580.317	4161
580.374	3436
580.430	2880
580.486	2562
580.542	2824
580.598	2861
580.619	2783
580.654	2649
580.692	2245
580.710	2047
580.765	2609
580.767	2629
580.823	2234
580.838	2445
580.879	2995
580.911	2850
580.935	2756
580.984	3703
580.991	3839
581.047	2667
581.057	2796
581.103	3356
581.130	2906
581.159	2435
581.203	3727
581.215	4080
581.270	3696
581.276	3644
581.326	3155
581.349	2916
581.382	2556
581.422	2656
581.438	2685
581.494	2494
581.494	2490
581.550	2323
581.567	2570
581.606	3064
581.640	2893
581.661	2805
581.713	2951
581.717	2967
581.773	2142
581.786	2196
581.829	2319
581.859	2548
581.885	2717
581.932	2045
581.940	1944
581.996	2496
582.004	2518
582.052	2549
582.077	2599
582.107	2724
582.150	3014
582.163	3085
582.219	2912
582.223	2889
582.274	2595
582.296	2583
582.330	2585
582.368	2631
582.386	2690
582.441	3152
582.441	3152
582.497	3345
582.514	3597
582.552	4449
582.587	4949
582.608	5104
582.659	4053
582.663	3979
582.719	3611
582.732	3778
582.774	4284
582.805	3596
582.830	3093
582.877	4263
582.885	4434
582.941	4109
582.950	4068
582.996	3884
583.023	3857
583.052	3968
583.095	4414
583.107	4526
583.162	5386
583.168	5457
583.218	5685
583.240	5347
583.273	5074
583.313	4852
583.328	4760
583.384	3898
583.385	3891
583.439	3504
583.458	3500
583.494	3589
583.531	4062
583.549	4354
583.603	4151
583.605	4134
583.660	4199
583.676	4014
583.715	3714
583.748	4267
583.770	4577
583.820	4538
583.825	4554
583.881	4944
583.893	4679
583.936	3639
583.965	4166
583.991	4576
584.038	4038
584.046	3988
584.101	4797
584.110	4694
584.156	3995
584.183	4331
584.211	4667
584.255	4867
584.266	4986
584.321	5161
584.328	5152
584.376	4737
584.400	4748
584.431	4883
584.472	5323
584.486	5433
584.541	6016
584.545	6006
584.596	5854
584.617	5778
584.651	5812
584.689	6028
584.706	5973
584.761	6170
584.762	6167
584.816	6182
584.834	6470
584.871	6906
584.906	6958
584.926	7030
584.978	7700
584.980	7727
585.035	8744
585.051	8885
585.090	9142
585.123	9507
585.145	9809
585.195	11382
585.200	11609
585.254	14180
585.267	15504
585.309	20546
585.340	24807
585.364	26515
585.412	20726
585.419	19944
585.473	18658
585.484	18900
585.528	21536
585.556	24827
585.583	30384
585.628	47717
585.637	53261
585.692	109372
585.700	119473
585.747	162095
585.772	132617
585.801	81836
585.845	32876
585.856	25296
585.910	15667
585.917	14896
585.965	13370
585.989	12582
586.019	11876
586.061	11769
586.074	11625
586.128	11359
586.133	11347
586.183	11753
586.205	11801
586.237	11749
586.277	11873
586.292	11936
586.346	11711
586.349	11757
586.401	12379
586.421	12289
586.455	12358
586.493	13172
586.509	13435
586.564	13237
586.565	13248
586.618	14295
586.637	15080
586.672	16114
586.709	16483
586.727	16643
586.781	17095
586.781	17090
586.835	17043
586.853	17136
586.889	16921
586.925	16912
586.944	17178
586.996	18083
586.998	18102
587.052	18479
587.068	18863
587.106	19590
587.140	20274
587.161	20824
587.212	22076
587.215	22114
587.269	23144
587.284	23308
587.323	23905
587.356	24799
587.377	25502
587.427	27287
587.431	27389
587.485	29605
587.499	29939
587.539	31131
587.571	32444
587.593	33360
587.643	35716
587.648	35915
587.702	38040
587.715	38899
587.755	41783
587.786	43488
587.810	45242
587.858	49465
587.864	49878
587.917	55164
587.930	56368
587.971	61554
588.001	66178
588.025	69656
588.073	76408
588.079	77366
588.133	88630
588.145	91262
588.187	101789
588.217	110278
588.241	118039
588.288	134427
588.295	136740
588.348	159268
588.360	164717
588.402	187212
588.431	205602
588.456	222956
588.503	258939
588.510	264798
588.564	320021
588.575	333515
588.617	393751
588.646	442287
588.671	498747
588.718	623098
588.725	650305
588.778	895511
588.789	952857
588.832	1269575
588.861	1491070
588.886	1663658
588.932	1875776
588.939	1867498
588.993	1701082
589.004	1713902
589.047	1711243
589.075	1592723
589.100	1392927
589.147	973665
589.154	935040
589.207	703777
589.218	664867
589.261	603968
589.290	579275
589.314	593328
589.361	644263
589.368	665127
589.421	877467
589.433	930815
589.475	1257311
589.504	1483020
589.528	1591695
589.576	1677921
589.582	1649001
589.635	1466376
589.647	1396338
589.689	1003860
589.718	724354
589.742	593655
589.790	382409
589.795	368736
589.849	267042
589.861	246260
589.902	203659
589.932	175837
589.955	161333
590.004	134953
590.009	132764
590.062	112631
590.075	108150
590.115	96831
590.146	88808
590.168	84682
590.218	76456
590.222	75733
590.275	67742
590.289	65782
590.328	61587
590.360	58504
590.381	56091
590.431	50453
590.435	50155
590.488	46403
590.503	45449
590.541	43409
590.574	41626
590.594	40520
590.645	38161
590.647	38032
590.700	35249
590.716	34399
590.753	33521
590.787	32933
590.806	31998
590.859	29659
590.859	29619
590.912	28288
590.930	27950
590.965	26634
591.001	25423
591.018	25236
591.071	24668
591.072	24673
591.124	22833
591.143	22218
591.177	22096
591.214	21937
591.230	21788
591.283	21354
591.285	21345
591.336	20495
591.356	20156
591.389	19796
591.427	19446
591.442	19204
591.495	18246
591.498	18185
591.547	17707
591.569	17509
591.600	16980
591.640	16275
591.653	16290
591.706	16362
591.711	16377
591.759	15809
591.782	15552
591.811	15539
591.853	15430
591.864	15491
591.917	15884
591.924	15930
591.969	15147
591.995	14712
592.022	14569
592.066	14370
592.075	14297
592.127	13784
592.137	13700
592.180	13774
592.208	13802
592.233	13845
592.279	13966
592.285	13959
592.338	13899
592.350	13866
592.390	12779
592.421	11990
592.443	12192
592.491	12648
592.495	12668
592.548	12943
592.562	13018
592.600	12914
592.633	12825
592.653	12397
592.704	11232
592.705	11307
592.775	11850
592.846	11483
592.916	11202
592.987	11571
593.058	12146
593.128	11698
593.199	10785
593.270	10794
593.341	9886
593.411	10580
593.482	10355
593.553	10732
593.623	11310
593.694	10193
593.764	10365
593.835	10066
593.906	10780
593.976	9993
594.047	10896
594.117	10439
594.188	9993
594.258	9924
594.329	10897
594.399	11069
594.470	10377
594.540	10966
594.611	10534
594.681	10721
594.751	10649
594.822	11467
594.892	12385
594.963	11348
595.033	11342
595.103	10711
595.174	11031
595.244	10693
595.314	10952
595.384	10419
595.455	11656
595.525	11403
595.595	12133
595.665	11376
595.736	12311
595.806	11879
595.876	10999
595.946	11075
596.016	12634
596.087	12564
596.157	12308
596.227	11769
596.297	13188
596.367	12366
596.437	14155
596.507	13514
596.577	14418
596.647	13815
596.717	14650
596.787	13624
596.857	14206
596.927	13783
596.997	14406
597.067	15630
597.137	18037
597.207	15783
597.277	14863
597.347	13515
597.417	14838
597.487	13355
597.557	13556
597.626	14086
597.696	14578
597.766	14578
597.836	13493
597.906	13373
597.975	13519
598.045	12467
598.115	12487
598.185	14241
598.254	15983
598.324	16945
598.394	17268
598.464	16224
598.533	15989
598.603	15495
598.672	14015
598.742	14530
598.812	15510
598.881	15917
598.951	15144
599.020	15787
599.090	16034
599.159	15777
599.229	16136
599.299	14549
599.368	15682
599.437	14758
599.507	15132
599.576	15231
599.646	15939
599.715	15399
599.785	12755
599.854	12373
599.924	13094
599.993	12504
600.062	12353
600.132	12440
600.201	12840
600.270	15324
600.340	16808
600.409	15865
600.478	15447
600.547	16446
600.617	14840
600.686	11700
600.755	10746
600.824	10730
600.894	10668
600.963	9847
601.032	10212
601.101	10172
601.170	9476
601.239	8912
601.308	9705
601.378	9207
601.447	9214
601.516	8870
601.585	9775
601.654	9377
601.723	9639
601.792	9538
601.861	11095
601.930	13178
601.999	10458
602.068	9397
602.137	9720
602.206	10342
602.275	10469
602.343	10053
602.412	9675
602.481	10268
602.550	10381
602.619	10309
602.688	11146
602.756	10481
602.825	10636
602.894	10688
602.963	10685
603.032	12494
603.100	11771
603.169	11668
603.238	11088
603.307	12070
603.375	11917
603.444	11996
603.513	12609
603.581	12647
603.650	12303
603.719	12665
603.787	12837
603.856	13166
603.924	13196
603.993	13184
604.061	14205
604.130	15357
604.198	15365
604.267	15955
604.335	15716
604.404	14901
604.472	16381
604.541	15695
604.609	16124
604.678	16500
604.746	16521
604.815	16948
604.883	17358
604.951	18135
605.020	18156
605.088	18589
605.156	18770
605.225	19437
605.293	19019
605.361	19138
605.429	20246
605.498	20218
605.566	20152
605.634	20694
605.702	21298
605.771	22611
605.839	22978
605.907	22925
605.975	21797
606.043	19682
606.111	20250
606.180	21472
606.248	24771
606.316	24739
606.384	19669
606.452	20753
606.520	21269
606.588	22172
606.656	22316
606.724	21430
606.792	20697
606.860	18207
606.928	16868
606.996	16216
607.064	15927
607.132	15515
607.200	16707
607.267	17654
607.335	19085
607.403	18442
607.471	17421
607.539	17569
607.607	17550
607.674	15342
607.742	15536
607.810	14942
607.878	15038
607.946	15457
608.013	15833
608.081	15988
608.149	17200
608.216	16306
608.284	18340
608.352	18552
608.419	16183
608.487	18022
608.555	16725
608.622	18522
608.690	18750
608.757	20984
608.825	21685
608.893	19868
608.960	19346
609.028	18269
609.095	19239
609.163	18330
609.230	16426
609.298	15755
609.365	15777
609.432	17036
609.500	19542
609.567	21777
609.635	24868
609.702	25854
609.769	24781
609.837	19655
609.904	17418
609.971	17953
610.039	23182
610.106	32484
610.173	65787
610.241	164982
610.308	88138
610.375	25051
610.442	19599
610.509	17839
610.577	18696
610.644	17291
610.711	19032
610.778	19211
610.845	20262
610.912	21185
610.980	25140
611.047	32167
611.114	25185
611.181	20569
611.248	19759
611.315	22012
611.382	22367
611.449	22217
611.516	23526
611.583	22721
611.650	22839
611.717	24245
611.784	25183
611.851	27245
611.918	30928
611.984	40160
612.051	67776
612.118	152209
612.185	396730
612.252	239184
612.319	49214
612.386	33970
612.452	29906
612.519	26692
612.586	26791
612.653	26772
612.719	27071
612.786	26138
612.853	24245
612.919	23301
612.986	24451
613.053	22819
613.120	20429
613.186	19458
613.253	22217
613.319	20033
613.386	20628
613.453	20340
613.519	20810
613.586	20130
613.652	22245
613.719	20215
613.785	21834
613.852	22119
613.918	23691
613.985	32843
614.051	53004
614.118	116865
614.184	108694
614.250	30090
614.317	23874
614.383	22189
614.449	22350
614.516	21281
614.582	22379
614.648	21230
614.715	20921
614.781	20495
614.847	20601
614.914	20548
614.980	20338
615.046	19853
615.112	21544
615.179	22208
615.245	23929
615.311	28415
615.377	44517
615.443	46132
615.509	31010
615.575	27731
615.642	26120
615.708	27425
615.774	29912
615.840	33900
615.906	44643
615.972	68420
616.038	130793
616.104	242693
616.170	530991
616.236	433499
616.302	86676
616.368	51672
616.434	35394
616.500	30705
616.565	34847
616.631	43447
616.697	35561
616.763	36720
616.829	57058
616.895	103910
616.961	99652
617.026	40389
617.092	24737
617.158	22934
617.224	20630
617.289	20033
617.355	17849
617.421	16593
617.487	18206
617.552	16091
617.618	16156
617.684	15547
617.749	18454
617.815	15622
617.880	15712
617.946	14936
618.012	15580
618.077	15460
618.143	14931
618.208	15094
618.274	16102
618.339	16124
618.405	11921
618.470	13558
618.536	13226
618.601	13327
618.667	11990
618.732	12167
618.798	11402
618.863	11234
618.928	10804
618.994	11157
619.059	11176
619.124	10774
619.190	11378
619.255	10649
619.320	10310
619.386	11563
619.451	9889
619.516	10177
619.581	10738
619.647	10243
619.712	10691
619.777	9678
619.842	10706
619.907	9765
619.972	10763
620.038	10405
620.103	10181
620.168	9302
620.233	10998
620.298	10155
620.363	10670
620.428	11666
620.493	11389
620.558	10295
620.623	11388
620.688	10188
620.753	11401
620.818	10834
620.883	11403
620.948	10858
621.013	11060
621.078	10669
621.143	10721
621.207	12327
621.272	10144
621.337	9783
621.402	10564
621.467	10352
621.532	10819
621.596	9924
621.661	9888
621.726	10077
621.791	9835
621.855	10629
621.920	9577
621.985	9550
622.049	10857
622.114	10222
622.179	10347
622.243	10529
622.308	10548
622.373	13396
622.437	12115
622.502	10591
622.566	11210
622.631	8932
622.695	11580
622.760	10863
622.824	11576
622.889	10957
622.953	10421
623.018	11963
623.082	11367
623.147	11505
623.211	11332
623.276	11748
623.340	9667
623.404	9528
623.469	10425
623.533	10988
623.597	9680
623.662	9851
623.726	8917
623.790	9162
623.854	7931
623.919	8454
623.983	8731
624.047	8940
624.111	8956
624.176	8992
624.240	8989
624.304	10784
624.368	9335
624.432	9720
624.496	9911
624.560	9715
624.625	10204
624.689	10746
624.753	10797
624.817	10629
624.881	9512
624.945	8300
625.009	8811
625.073	8541
625.137	8478
625.201	9571
625.265	9429
625.329	9688
625.393	9164
625.456	9166
625.520	9751
625.584	9826
625.648	10080
625.712	11085
625.776	9708
625.839	9502
625.903	7830
625.967	7801
626.031	9325
626.095	9384
626.158	9237
626.222	6884
626.286	7213
626.349	5736
626.413	4791
626.477	5862
626.540	5593
626.604	5625
626.668	6113
626.731	5145
626.795	4814
626.858	5086
626.922	5172
626.986	6073
627.049	3641
627.113	5989
627.176	6423
627.240	5691
627.303	5942
627.366	5224
627.430	5318
627.493	5219
627.557	4569
627.620	6644
627.684	5904
627.747	5166
627.810	4048
627.874	4746
627.937	4214
628.000	6963
628.064	5138
628.127	2783
628.190	4560
628.253	4540
628.317	3612
628.380	3696
628.443	4026
628.506	2980
628.569	3725
628.632	2913
628.696	3508
628.759	3102
628.822	3320
628.885	2852
628.948	2894
629.011	3451
629.074	2560
629.137	2672
629.200	2219
629.263	4169
629.326	1981
629.389	2040
629.452	3909
629.515	2798
629.578	2258
629.641	3385
629.704	2144
629.767	2395
629.830	3377
629.892	2125
629.955	1984
630.018	3892
630.081	1541
630.144	2558
630.207	762
630.269	3837
630.332	2143
630.395	3018
630.458	2877
630.520	1191
630.583	3401
630.646	3414
630.708	2740
630.771	2344
630.834	3839
630.896	2096
630.959	2587
631.021	1973
631.084	2095
631.146	3058
631.209	3163
631.272	2456
631.334	3598
631.397	2088
631.459	2431
631.522	3023
631.584	3227
631.646	4051
631.709	3736
631.771	3631
631.834	3971
631.896	3093
631.958	2280
632.021	3422
632.083	1966
632.145	3366
632.208	1558
632.270	3643
632.332	3088
632.395	1821
632.457	2884
632.519	1994
632.581	3669
632.643	1694
632.706	2721
632.768	1930
632.830	2580
632.892	2070
632.954	2632
633.016	3105
633.078	1856
633.141	2445
633.203	1787
633.265	2656
633.327	3478
633.389	1528
633.451	3250
633.513	1243
633.575	2953
633.637	3222
633.698	2191
633.760	3084
633.822	3650
633.884	2455
633.946	3719
634.008	3183
634.070	5026
634.132	6506
634.193	6181
634.255	5180
634.317	4749
634.379	5576
634.441	5211
634.502	4532
634.564	5501
634.626	8045
634.687	10194
634.749	4570
634.811	3275
634.873	2058
634.934	2418
634.996	2451
635.057	1479
635.119	1344
635.181	3035
635.242	3337
635.304	470
635.365	5102
635.427	2030
635.488	1702
635.550	2069
635.611	3241
635.673	648
635.734	4264
635.796	2920
635.857	3982
635.918	2800
635.980	6033
636.041	4467
636.102	5870
636.164	5949
636.225	6317
636.286	2787
636.348	4043
636.409	3812
636.470	2267
636.531	2275
636.593	1761
636.654	2597
636.715	2066
636.776	2630
636.838	1425
636.899	2200
636.960	2486
637.021	2697
637.082	5392
637.143	4920
637.204	1313
637.265	1141
637.326	2470
637.387	2224
637.448	615
637.509	2349
637.570	1815
637.631	2686
637.692	885
637.753	654
637.814	1303
637.875	599
637.936	2220
637.997	943
638.058	1392
638.119	1194
638.179	1505
638.240	1427
638.301	1249
638.362	675
638.423	1219
638.483	2435
638.544	-993
638.605	1768
638.666	443
638.726	2040
638.787	967
638.848	632
638.908	546
638.969	1378
639.030	729
639.090	392
639.151	146
639.211	2005
639.272	1311
639.332	871
639.393	1638
639.453	1013
639.514	1351
639.574	2214
639.635	1094
639.695	743
639.756	-577
639.816	983
639.877	21
639.937	1542
639.997	1669
640.058	460
640.118	442
640.178	2130
640.239	943
640.299	1176
640.359	264
640.420	1605
640.480	1563
640.540	1801
640.600	2962
640.661	1622
640.721	826
640.781	4155
640.841	1537
640.901	2969
640.961	1936
641.021	1825
641.082	292
641.142	626
641.202	2423
641.262	134
641.322	1541
641.382	16
641.442	1309
641.502	980
641.562	1798
641.622	-35
641.682	1641
641.742	2475
641.802	1484
641.861	1518
641.921	152
641.981	1170
642.041	852
642.101	1096
642.161	-740
642.221	1250
642.280	146
642.340	643
642.400	564
642.460	2415
642.519	223
642.579	1127
642.639	1884
642.698	-956
642.758	2642
642.818	2012
642.877	133
642.937	605
642.997	1396
643.056	902
643.116	286
643.175	2346
643.235	906
643.294	1381
643.354	2131
643.414	3327
643.473	3713
643.532	5293
643.592	9383
643.651	17920
643.711	32589
643.770	66834
643.830	163973
643.889	358346
643.948	80476
644.008	10428
644.067	5488
644.126	3761
644.186	3492
644.245	3122
644.304	567
644.363	3706
644.423	956
644.482	1827
644.541	2213
644.600	792
644.659	3610
644.719	4214
644.778	6583
644.837	12287
644.896	29145
644.955	68004
645.014	22479
645.073	5388
645.132	2148
645.191	2684
645.250	2121
645.309	3082
645.368	1801
645.427	4538
645.486	5623
645.545	13457
645.604	2801
645.663	2627
645.722	2225
645.781	3179
645.840	3276
645.898	5371
645.957	10050
646.016	15178
646.075	28546
646.134	57358
646.192	157936
646.251	236354
646.310	31913
646.369	7572
646.427	5299
646.486	2432
646.545	2264
646.603	2823
646.662	1742
646.721	2282
646.779	1570
646.838	1145
646.896	3462
646.955	4139
647.014	7005
647.072	13093
647.131	41580
647.189	19603
647.248	1706
647.306	2021
647.365	1858
647.423	-333
647.481	2193
647.540	453
647.598	1110
647.657	837
647.715	2006
647.773	-96
647.832	1545
647.890	-31
647.948	561
648.007	1041
648.065	214
648.123	692
648.181	2253
648.240	4252
648.298	2015
648.356	1664
648.414	1746
648.472	1883
648.531	1712
648.589	1788
648.647	1234
648.705	1616
648.763	529
648.821	1792
648.879	1514
648.937	1923
648.995	1852
649.053	3701
649.111	5617
649.169	11520
649.227	19694
649.285	44309
649.343	129506
649.401	62922
649.459	9873
649.516	9805
649.574	14408
649.632	40336
649.690	50051
649.748	12193
649.806	9695
649.863	20541
649.921	29312
649.979	18389
650.037	3156
650.094	415
650.152	1405
650.210	861
650.268	1167
650.325	1746
650.383	1317
650.440	-85
650.498	164
650.556	135
650.613	-443
650.671	497
650.728	101
650.786	-128
650.843	927
650.901	-1352
650.958	1053
651.016	72
651.073	-488
651.131	89
651.188	-1352
651.246	47
651.303	-800
651.360	600
651.418	-193
651.475	112
651.532	-1383
651.590	1346
651.647	-1595
651.704	323
651.762	-501
651.819	185
651.876	83
651.933	-462
651.990	277
652.048	-868
652.105	-849
652.162	1376
652.219	-396
652.276	-218
652.333	193
652.390	-461
652.448	-243
652.505	166
652.562	430
652.619	791
652.676	3645
652.733	4571
652.790	-370
652.847	-1624
652.904	-354
652.961	-1557
653.017	-1070
653.074	53
653.131	-583
653.188	-864
653.245	-707
653.302	-640
653.359	-846
653.415	-294
653.472	-981
653.529	108
653.586	-408
653.642	-1152
653.699	1028
653.756	-1136
653.813	-758
653.869	281
653.926	-1020
653.983	-1114
654.039	26
654.096	-1060
654.152	356
654.209	-1614
654.266	-19
654.322	-666
654.379	1
654.435	395
654.492	-187
654.548	-262
654.605	-839
654.661	446
654.717	-434
654.774	-671
654.830	-32
654.887	606
654.943	-117
655.000	953
655.056	581
655.112	586
655.168	-813
655.225	189
655.281	724
655.337	-95
655.394	753
655.450	917
655.506	-318
655.562	-17
655.618	1746
655.675	615
655.731	1778
655.787	1558
655.843	2999
655.899	2648
655.955	4487
656.011	4161
656.067	4640
656.123	7555
656.179	7793
656.235	10239
656.291	7768
656.347	7766
656.403	6263
656.459	4687
656.515	3925
656.571	2741
656.627	2469
656.683	1694
656.739	1818
656.795	1457
656.850	152
656.906	1530
656.962	526
657.018	-85
657.074	281
657.129	719
657.185	1244
657.241	2579
657.297	593
657.352	261
657.408	-413
657.464	460
657.519	78
657.575	-726
657.630	-271
657.686	-440
657.742	-616
657.797	-385
657.853	-19
657.908	790
657.964	-1340
658.019	-285
658.075	-861
658.130	-141
658.186	-878
658.241	82
658.297	-1260
658.352	-1430
658.407	-534
658.463	-1117
658.518	-657
658.573	536
658.629	-1197
658.684	-798
658.739	-212
658.795	-770
658.850	-202
658.905	-1183
658.960	-1455
659.016	-787
659.071	-1030
659.126	-699
659.181	-714
659.236	267
659.291	944
659.346	-440
659.401	-358
659.457	1880
659.512	2438
659.567	973
659.622	119
659.677	-210
659.732	-1314
659.787	-837
659.842	-519
659.897	-260
659.952	-583
660.007	-880
660.061	-1097
660.116	-840
660.171	-840
660.226	4
660.281	-286
660.336	-961
660.391	860
660.445	-1110
660.500	152
660.555	-869
660.610	-688
660.664	779
660.719	-357
660.774	24
660.828	-256
660.883	-1145
660.938	-648
660.992	-1123
661.047	-652
661.101	-1329
661.156	-803
661.211	-580
661.265	-1086
661.320	-1320
661.374	-1063
661.429	-788
661.483	-29
661.538	-2048
661.592	-895
661.647	-495
661.701	206
661.755	-108
661.810	-669
661.864	-914
661.919	-1129
661.973	-805
662.027	-1414
662.081	-1439
662.136	-905
662.190	-856
662.244	-1312
662.299	-652
662.353	-793
662.407	-701
662.461	-776
662.515	-1222
662.569	-678
662.624	-417
662.678	-1312
662.732	-480
662.786	-1872
662.840	-355
662.894	-199
662.948	-1174
663.002	-1099
663.056	-979
663.110	-1016
663.164	-373
663.218	-787
663.272	-679
663.326	-1333
663.380	-509
663.434	-1540
663.488	-1632
663.542	-466
663.595	-992
663.649	-877
663.703	-590
663.757	-694
663.811	-630
663.864	-389
663.918	-911
663.972	-738
664.026	292
664.079	-616
664.133	-1027
664.187	-371
664.240	-745
664.294	-781
664.348	-781
664.401	-477
664.455	-622
664.508	-1081
664.562	-261
664.615	-632
664.669	-1054
664.722	706
664.776	179
664.829	-810
664.883	-817
664.936	-1187
664.990	-804
665.043	104
665.097	-816
665.150	717
665.203	-1384
665.257	-1544
665.310	-850
665.363	-124
665.417	146
665.470	-441
665.523	-1297
665.576	-765
665.630	-1354
665.683	-1285
665.736	-883
665.789	-1303
665.842	-936
665.895	-1538
665.949	-1140
666.002	-1013
666.055	-188
666.108	-337
666.161	-1219
666.214	-560
666.267	-896
666.320	-456
666.373	-1231
666.426	-943
666.479	-1638
666.532	-825
666.585	-1039
666.638	-552
666.691	-1582
666.744	-1218
666.796	-1312
666.849	-1015
666.902	-715
666.955	-1094
667.008	-1710
667.060	-1278
667.113	-770
667.166	-990
667.219	-1111
667.271	-1384
667.324	-807
667.377	-671
667.430	-1272
667.482	222
667.535	-788
667.587	-120
667.640	-1223
667.693	-1399
667.745	-1631
667.798	-1541
667.850	-1398
667.903	-798
667.955	-1345
668.008	-1114
668.060	-1098
668.113	-1439
668.165	-446
668.218	-1766
668.270	-273
668.322	-1825
668.375	-946
668.427	-387
668.479	-1328
668.532	-607
668.584	-671
668.636	-1804
668.689	-1442
668.741	-1449
668.793	-1100
668.845	-1518
668.898	-812
668.950	-851
669.002	-1182
669.054	-1166
669.106	-645
669.158	-899
669.211	-379
669.263	-891
669.315	91
669.367	803
669.419	-817
669.471	296
669.523	797
669.575	2209
669.627	348
669.679	-622
669.731	-613
669.783	99
669.835	900
669.886	-273
669.938	-579
669.990	-1125
670.042	-1340
670.094	-1472
670.146	-995
670.197	-1587
670.249	-369
670.301	-1280
670.353	-1080
670.404	-557
670.456	-959
670.508	245
670.560	919
670.611	3016
670.663	5843
670.715	15955
670.766	28009
670.818	7244
670.869	387
670.921	-666
670.972	-929
671.024	-875
671.075	-911
671.127	-1538
671.178	-1004
671.230	-1092
671.281	-1483
671.333	-692
671.384	-908
671.436	-938
671.487	944
671.538	531
671.590	1924
671.641	4054
671.692	7399
671.744	17158
671.795	11933
671.846	3495
671.897	626
671.949	-240
672.000	-323
672.051	64
672.102	-1060
672.153	-483
672.204	-726
672.256	-716
672.307	30
672.358	-1348
672.409	-838
672.460	-1479
672.511	-527
672.562	-1414
672.613	-635
672.664	-688
672.715	-1173
672.766	-137
672.817	-755
672.868	-1379
672.919	-918
672.970	-1245
673.021	-611
673.071	-1104
673.122	1
673.173	-509
673.224	-855
673.275	-1519
673.326	-679
673.376	-823
673.427	-1666
673.478	-1053
673.528	-549
673.579	-1322
673.630	-324
673.680	-457
673.731	-1287
673.782	-1326
673.832	-1176
673.883	-1157
673.934	-1438
673.984	-1011
674.035	-1456
674.085	-897
674.136	-741
674.186	-791
674.237	-1207
674.287	-1333
674.338	-1256
674.388	-875
674.438	-1097
674.489	-1255
674.539	-956
674.589	-623
674.640	-1251
674.690	-1597
674.740	-816
674.791	-2015
674.841	-1352
674.891	-865
674.942	-1064
674.992	-1227
675.042	-795
675.092	-1218
675.142	-1030
675.193	-644
675.243	-1043
675.293	-1130
675.343	-1589
675.393	-1533
675.443	-948
675.493	-707
675.543	-1667
675.593	-274
675.643	-1472
675.693	-1091
675.743	-955
675.793	-860
675.843	-1336
675.893	-855
675.943	-436
675.993	-1452
676.043	-1210
676.093	-1126
676.142	-1121
676.192	-1101
676.242	-1674
676.292	-866
676.341	-606
676.391	-1119
676.441	-1320
676.491	-1575
676.540	-1471
676.590	-997
676.640	-1179
676.689	-1755
676.739	-1604
676.789	-1105
676.838	-1134
676.888	-1177
676.937	-1662
676.987	-1083
677.037	-1179
677.086	-2229
677.136	-1588
677.185	-1823
677.235	-2106
677.284	-1266
677.333	-1627
677.383	-1420
677.432	-1780
677.482	-1490
677.531	-1431
677.580	-1742
677.630	-815
677.679	-1708
677.728	-1321
677.778	-679
677.827	-1162
677.876	-995
677.925	-1288
677.975	-1244
678.024	-1334
678.073	-948
678.122	-1161
678.171	-896
678.220	-1428
678.269	-1263
678.319	-1412
678.368	-1371
678.417	-1421
678.466	-479
678.515	-1539
678.564	-2106
678.613	-1798
678.662	-1967
678.711	-1328
678.760	-1878
678.809	-1448
678.857	-2375
678.906	-503
678.955	-1717
679.004	-640
679.053	-1159
679.102	-894
679.151	-1541
679.199	-1410
679.248	-1449
679.297	-1873
679.346	-1661
679.394	-2267
679.443	-1588
679.492	-1501
679.540	-1984
679.589	-2059
679.638	-1350
679.686	-1290
679.735	-1275
679.784	-2117
679.832	-1741
679.881	-776
679.929	-2076
679.978	-1808
680.026	-1374
680.075	-2068
680.123	-1805
680.172	-1296
680.220	-1098
680.268	-1996
680.317	-2240
680.365	-1631
680.414	-1544
680.462	-1621
680.510	-1000
680.559	-1745
680.607	-1976
680.655	-1398
680.703	-1976
680.752	-1225
680.800	-1109
680.848	-2466
680.896	-2024
680.945	-1522
680.993	-1990
681.041	-1792
681.089	-2385
681.137	-1731
681.185	-2314
681.233	-1209
681.258	-1059
681.281	-923
681.329	-1903
681.377	-1701
681.380	-1662
681.425	-1081
681.473	-1029
681.502	-1589
681.521	-1987
681.569	-997
681.617	-1270
681.624	-1329
681.665	-1785
681.713	-670
681.745	-1501
681.761	-1896
681.809	-2424
681.857	-1774
681.867	-1719
681.904	-1581
681.952	-1015
681.989	-1772
682.000	-1998
682.048	-2296
682.096	-1664
682.111	-1651
682.143	-1665
682.191	-1319
682.233	-1112
682.239	-1089
682.286	-1699
682.334	-1590
682.354	-1509
682.382	-1434
682.430	-1161
682.476	-1164
682.477	-1168
682.525	-1980
682.572	-1696
682.598	-1676
682.620	-1659
682.667	-986
682.715	-1652
682.720	-1663
682.763	-1878
682.810	-986
682.841	-1147
682.857	-1245
682.905	-1254
682.952	-1155
682.963	-1233
683.000	-1500
683.047	-485
683.085	-219
683.095	-171
683.142	-896
683.190	-763
683.206	-917
683.237	-1163
683.284	-184
683.328	-1053
683.332	-1133
683.379	-1229
683.426	-1493
683.449	-1138
683.473	-748
683.521	-1424
683.568	-817
683.571	-840
683.615	-1327
683.662	-788
683.693	-984
683.709	-1065
683.757	-531
683.804	-703
683.814	-639
683.851	-520
683.898	-339
683.936	-275
683.945	-242
683.992	-650
684.039	-884
684.057	-917
684.086	-1027
684.133	-899
684.179	-1030
684.180	-1040
684.227	-1108
684.274	-910
684.300	-806
684.321	-707
684.368	-498
684.415	-766
684.422	-723
684.462	-486
684.509	-1353
684.543	-945
684.556	-802
684.603	-869
684.649	-1367
684.665	-1272
684.696	-1027
684.743	-465
684.786	-438
684.790	-452
684.837	383
684.883	-951
684.908	-542
684.930	-100
684.977	-480
685.023	-537
685.029	-494
685.070	-349
685.117	-286
685.150	-658
685.164	-758
685.210	-61
685.257	-36
685.272	19
685.303	13
685.350	-854
685.393	-399
685.396	-351
685.443	-876
685.490	-240
685.514	59
685.536	202
685.583	-321
685.629	-747
685.636	-763
685.675	-744
685.722	-172
685.757	-529
685.768	-657
685.815	-615
685.861	164
685.878	94
685.908	66
685.954	-158
686.000	-467
686.000	-478
686.047	-193
686.093	-218
686.121	-378
686.139	-425
686.185	-48
686.232	-460
686.242	-391
686.278	-122
686.324	13
686.363	-469
686.370	-542
686.416	143
686.463	752
686.484	600
686.509	310
686.555	111
686.601	-110
686.606	-86
686.647	216
686.693	509
686.727	198
686.739	35
686.785	405
686.831	265
686.848	237
686.877	297
686.923	-166
686.969	-16
686.969	-16
687.015	-168
687.061	253
687.090	299
687.107	339
687.153	584
687.199	412
687.211	451
687.245	556
687.291	56
687.332	359
687.336	400
687.382	589
687.428	394
687.453	682
687.474	796
687.520	554
687.565	275
687.574	188
687.611	209
687.657	856
687.695	1095
687.702	1144
687.748	2071
687.794	2636
687.816	2631
687.839	2207
687.885	1749
687.931	792
687.937	779
687.976	869
688.022	194
688.058	192
688.067	291
688.113	771
688.158	519
688.179	687
688.204	717
688.249	1049
688.295	577
688.300	602
688.340	901
688.386	1018
688.421	599
688.431	449
688.477	304
688.522	134
688.542	143
688.567	394
688.613	597
688.658	543
688.663	619
688.703	830
688.749	61
688.784	649
688.794	909
688.839	532
688.884	1347
688.905	1275
688.930	953
688.975	760
689.020	706
689.026	709
689.065	1034
689.110	626
689.146	1032
689.155	1080
689.201	713
689.246	825
689.267	658
689.291	668
689.336	1467
689.381	1101
689.388	1154
689.426	1097
689.471	822
689.509	709
689.516	752
689.561	523
689.606	1440
689.630	1288
689.651	998
689.696	722
689.741	716
689.750	719
689.785	1000
689.830	1291
689.871	1027
689.875	983
689.920	925
689.965	1060
689.992	871
690.010	862
690.054	1145
690.099	1713
690.112	1686
690.144	1333
690.189	1344
690.233	841
690.233	845
690.278	974
690.323	2199
690.354	1622
690.367	1357
690.412	1556
690.457	1808
690.474	1752
690.501	1705
690.546	2144
690.590	2070
690.595	2057
690.635	1907
690.680	2418
690.716	2174
690.724	2213
690.769	3053
690.813	3548
690.836	3804
690.857	4383
690.902	5366
690.946	6583
690.957	6931
690.991	9836
691.035	13547
691.077	17462
691.080	17486
691.124	16373
691.168	15095
691.198	14578
691.213	13612
691.257	10081
691.301	7249
691.318	6031
691.346	5476
691.390	4687
691.434	3553
691.439	3490
691.478	3554
691.522	3191
691.559	2658
691.567	2589
691.611	2547
691.655	2443
691.680	2335
691.699	2282
691.743	2260
691.787	1750
691.800	1745
691.831	1849
691.875	1822
691.919	1885
691.921	1882
691.964	2075
692.008	1905
692.041	1960
692.052	1939
692.096	2068
692.139	1799
692.162	1639
692.183	1559
692.227	1852
692.271	1613
692.282	1663
692.315	1889
692.359	1657
692.402	2000
692.403	2011
692.447	2129
692.490	2375
692.523	2621
692.534	2608
692.578	2444
692.622	1892
692.643	1907
692.666	2027
692.709	1888
692.753	1693
692.763	1790
692.797	2225
692.840	2061
692.884	2238
692.884	2249
692.928	2594
692.971	2722
693.004	2628
693.015	2534
693.059	2206
693.102	2315
693.124	2311
693.146	2538
693.189	2314
693.233	2940
693.245	2907
693.276	2686
693.320	2905
693.363	2897
693.365	2886
693.407	3410
693.450	3865
693.485	4471
693.493	4701
693.537	5798
693.580	6586
693.605	7258
693.624	8711
693.667	11793
693.710	15111
693.725	16323
693.753	22096
693.797	30814
693.840	40188
693.845	41103
693.883	38942
693.926	36380
693.966	34342
693.970	33680
694.013	26033
694.056	18440
694.086	13090
694.099	12454
694.142	10378
694.185	8548
694.206	7434
694.229	6794
694.272	6125
694.315	5219
694.326	4916
694.358	4578
694.401	4305
694.444	3941
694.446	3920
694.487	3732
694.530	3346
694.566	2916
694.573	2911
694.616	2884
694.659	2929
694.686	2983
694.702	3002
694.745	2837
694.787	2811
694.806	2786
694.830	2882
694.873	3123
694.916	3223
694.926	3195
694.959	2797
695.002	2417
695.044	2203
695.046	2173
695.087	2351
695.130	2869
695.166	3151
695.172	3133
695.215	2938
695.258	2720
695.286	2644
695.301	2706
695.343	2714
695.386	2966
695.406	2945
695.428	2870
695.471	2646
695.514	2580
695.526	2553
695.556	2695
695.599	3026
695.641	3076
695.646	3090
695.684	3131
695.726	2999
695.766	2849
695.769	2843
695.811	2813
695.854	2653
695.886	2599
695.896	2657
695.938	2448
695.981	2731
696.005	2821
696.023	2997
696.065	3212
696.108	3568
696.125	3671
696.150	3410
696.192	2943
696.235	2503
696.245	2386
696.277	2748
696.319	3279
696.361	3703
696.365	3728
696.404	3639
696.446	3570
696.485	3509
696.488	3543
696.530	3609
696.572	3816
696.604	4054
696.614	4007
696.656	3663
696.698	3302
696.724	3084
696.740	3251
696.783	3650
696.825	4061
696.844	4207
696.867	3947
696.909	3434
696.951	2966
696.964	2822
696.992	3065
697.034	3248
697.076	3565
697.083	3593
697.118	3439
697.160	3319
697.202	3108
697.203	3092
697.244	3393
697.286	3626
697.323	3764
697.327	3725
697.369	3196
697.411	2809
697.442	2450
697.453	2558
697.494	3009
697.536	3477
697.562	3725
697.578	3645
697.620	3374
697.661	3100
697.682	2963
697.703	3172
697.744	3629
697.786	4017
697.801	4128
697.828	4087
697.869	4035
697.911	4063
697.921	4027
697.952	3985
697.994	3985
698.035	3936
698.040	3914
698.077	3548
698.118	3222
698.160	2765
698.160	2751
698.201	3222
698.243	3680
698.279	4049
698.284	4046
698.325	3907
698.367	3788
698.399	3629
698.408	3627
698.449	3587
698.491	3549
698.518	3514
698.532	3526
698.573	3497
698.614	3498
698.638	3485
698.656	3600
698.697	3822
698.738	4065
698.757	4151
698.779	3967
698.820	3615
698.862	3254
698.877	3113
698.903	3544
698.944	4201
698.985	4860
698.996	5029
699.026	4661
699.067	4129
699.116	3485
699.235	4747
699.354	4368
699.474	4915
699.593	3882
699.713	5003
699.832	4077
699.951	5145
700.070	4344
700.190	4966
700.309	3504
700.428	5030
700.547	4827
700.667	4886
700.786	4421
700.905	5280
701.024	3728
701.143	3653
701.262	4286
701.381	4632
701.500	3470
701.619	4599
701.738	3984
701.857	4942
701.976	3453
702.095	5517
702.214	3094
702.333	5252
702.452	2403
702.571	3924
702.690	3642
702.809	3586
702.928	4166
703.047	4717
703.165	3958
703.284	4355
703.403	4274
703.522	4574
703.640	3899
703.759	4289
703.878	3369
703.997	3423
704.115	3312
704.234	4536
704.353	3415
704.471	3649
704.590	3283
704.708	3828
704.827	3423
704.946	3372
705.064	2899
705.183	3717
705.301	2551
705.420	3900
705.538	3895
705.656	4728
705.775	7205
705.893	27040
706.012	33524
706.130	4827
706.249	3257
706.367	4660
706.485	3298
706.604	3347
706.722	3396
706.840	4702
706.958	8405
707.077	6064
707.195	2748
707.313	4056
707.431	3135
707.549	2714
707.668	2312
707.786	3829
707.904	3240
708.022	3510
708.140	2909
708.258	3580
708.376	2844
708.494	3568
708.612	3689
708.730	3743
708.848	3094
708.966	2503
709.084	3292
709.202	3953
709.320	2591
709.438	3259
709.556	2579
709.674	3607
709.791	2397
709.909	3608
710.027	2478
710.145	3037
710.263	2759
710.380	2689
710.498	2461
710.616	3253
710.733	2505
710.851	3331
710.969	2693
711.086	1712
711.204	2300
711.322	3084
711.439	1693
711.557	2593
711.674	2262
711.792	2912
711.909	5207
712.027	7966
712.144	2947
712.262	3667
712.379	2605
712.497	2918
712.614	2578
712.732	2791
712.849	2938
712.966	2546
713.084	2037
713.201	3311
713.318	2011
713.436	3327
713.553	2557
713.670	3656
713.787	2894
713.905	3912
714.022	2580
714.139	3208
714.256	4795
714.373	7870
714.490	15583
714.608	48461
714.725	219602
714.842	201959
714.959	11766
715.076	5846
715.193	3990
715.310	4153
715.427	2709
715.544	4029
715.661	4899
715.778	3334
715.895	2490
716.011	3127
716.128	2481
716.245	2706
716.362	2780
716.479	2816
716.596	2977
716.713	3197
716.829	2332
716.946	2959
717.063	1694
717.180	2887
717.296	1865
717.413	3033
717.530	2334
717.646	2751
717.763	1452
717.880	2536
717.996	1926
718.113	2300
718.229	2937
718.346	2606
718.462	1684
718.579	2635
718.695	2978
718.812	2041
718.928	2300
719.045	2376
719.161	1794
719.277	2354
719.394	3307
719.510	4217
719.626	2728
719.743	4118
719.859	6473
719.975	12828
720.092	57240
720.208	121129
720.324	11632
720.440	2951
720.557	1760
720.673	2575
720.789	1790
720.905	3039
721.021	1871
721.137	3021
721.253	1505
721.369	2064
721.486	1540
721.602	2159
721.718	1708
721.834	2649
721.950	1558
722.066	2480
722.181	665
722.297	2238
722.413	2109
722.529	2719
722.645	2345
722.761	3063
722.877	2559
722.993	3034
723.108	2944
723.224	2962
723.340	1922
723.456	3246
723.571	2883
723.687	2524
723.803	1673
723.918	2008
724.034	1342
724.150	2905
724.265	1769
724.381	2428
724.497	1652
724.612	2333
724.728	1211
724.843	2085
724.959	1748
725.074	2189
725.190	2558
725.305	2655
725.421	1663
725.536	2240
725.651	2244
725.767	2584
725.882	1807
725.997	2187
726.113	1096
726.228	2013
726.343	1238
726.459	2088
726.574	2097
726.689	1705
726.804	736
726.920	1963
727.035	1478
727.150	2389
727.265	1712
727.380	2160
727.495	3196
727.610	3275
727.725	2306
727.841	5462
727.956	16861
728.071	10597
728.186	2214
728.301	2034
728.416	1680
728.531	2710
728.645	2011
728.760	2807
728.875	3014
728.990	3673
729.105	2589
729.220	1874
729.335	1203
729.449	1903
729.564	1586
729.679	2096
729.794	1506
729.908	2495
730.023	1942
730.138	2372
730.253	1673
730.367	1647
730.482	1187
730.596	2456
730.711	2011
730.826	3602
730.940	3176
731.055	2817
731.169	1638
731.284	1710
731.398	1235
731.513	3129
731.627	1789
731.742	2663
731.856	2087
731.970	2923
732.085	2823
732.199	5812
732.313	8008
732.428	22504
732.542	63587
732.656	32763
732.771	5839
732.885	4362
732.999	2960
733.113	3420
733.227	2437
733.342	3038
733.456	1583
733.570	2335
733.684	1807
733.798	2319
733.912	1571
734.026	2686
734.140	1790
734.254	1897
734.368	1721
734.482	2321
734.596	1711
734.710	2434
734.824	1780
734.938	2142
735.052	2420
735.166	2840
735.280	2562
735.393	2494
735.507	732
735.621	1990
735.735	1836
735.849	2767
735.962	1706
736.076	2673
736.190	1586
736.303	2613
736.417	2337
736.531	2556
736.644	1280
736.758	1537
736.872	882
736.985	2538
737.099	1385
737.212	2604
737.326	2298
737.439	2454
737.553	1489
737.666	1917
737.780	1617
737.893	2145
738.007	1189
738.120	2367
738.233	1323
738.347	2254
738.460	2299
738.573	2284
738.687	1986
738.800	2548
738.913	1681
739.026	3105
739.140	3116
739.253	2831
739.366	1635
739.479	2027
739.592	1453
739.705	1735
739.818	2201
739.932	2856
740.045	1634
740.158	1954
740.271	2180
740.384	2271
740.497	2697
740.610	3927
740.723	3069
740.836	3570
740.949	2933
741.062	2762
741.174	1421
741.287	2700
741.400	1828
741.513	3706
741.626	2809
741.739	3999
741.851	1871
741.964	2926
742.077	2047
742.189	4487
742.302	8971
742.415	7416
742.527	3122
742.640	2354
742.753	1559
742.865	2638
742.978	2306
743.090	1762
743.203	921
743.316	1362
743.428	943
743.541	2470
743.653	700
743.766	2348
743.878	1303
743.990	2978
744.103	6810
744.215	12838
744.327	3084
744.440	2894
744.552	1421
744.664	1871
744.777	1408
744.889	1652
745.001	1552
745.113	1728
745.226	1614
745.338	2205
745.450	771
745.562	996
745.674	1258
745.786	1693
745.898	1376
746.010	1300
746.122	907
746.234	1952
746.347	1374
746.459	2357
746.570	2995
746.682	7740
746.794	18511
746.906	7515
747.018	2054
747.130	2258
747.242	533
747.354	1818
747.466	1318
747.577	1257
747.689	1283
747.801	1622
747.913	1016
748.024	1887
748.136	838
748.248	1789
748.359	743
748.471	615
748.583	1291
748.694	2457
748.806	3193
748.918	1747
749.029	1322
749.141	1067
749.252	1015
749.364	1591
749.475	911
749.587	648
749.698	337
749.809	1313
749.921	531
750.032	1541
750.144	986
750.255	1775
750.366	458
750.478	1611
750.589	1145
750.700	648
750.811	1177
750.923	1130
751.034	-1
751.145	2289
751.256	769
751.367	1583
751.479	1386
751.590	2079
751.701	1899
751.812	1220
751.923	1571
752.034	1092
752.145	1015
752.256	1925
752.367	386
752.478	1697
752.589	1004
752.700	1833
752.811	518
752.922	1468
753.032	561
753.143	521
753.254	567
753.365	2302
753.476	1116
753.586	1323
753.697	798
753.808	1359
753.919	814
754.029	1469
754.140	991
754.251	1381
754.361	397
754.472	1754
754.582	504
754.693	1813
754.804	1295
754.914	1225
755.025	74
755.135	1168
755.246	812
755.356	1325
755.466	1003
755.577	1426
755.687	1174
755.798	1078
755.908	340
756.018	1739
756.129	1011
756.239	888
756.349	412
756.460	1530
756.570	919
756.680	1576
756.790	973
756.900	2210
757.011	922
757.121	1347
757.231	1142
757.341	2286
757.451	690
757.561	1376
757.671	1132
757.781	1168
757.891	818
758.001	1257
758.111	1558
758.221	1070
758.331	375
758.441	2182
758.551	582
758.661	2153
758.771	1538
758.880	1934
758.990	924
759.100	1433
759.210	1928
759.320	1926
759.429	1223
759.539	2569
759.649	1495
759.758	2563
759.868	1718
759.978	1387
760.087	1797
760.197	3077
760.307	1447
760.416	2092
760.526	1389
760.635	2409
760.745	1703
760.854	1781
760.964	2669
761.073	1771
761.182	1527
761.292	2189
761.401	1730
761.511	2634
761.620	1801
761.729	1885
761.839	1687
761.948	2398
762.057	1768
762.166	3519
762.276	608
762.385	3977
762.494	1683
762.603	3026
762.712	1553
762.822	2182
762.931	1599
763.040	2235
763.149	2338
763.258	3155
763.367	2853
763.476	3033
763.585	2983
763.694	3279
763.803	3056
763.912	4458
764.021	3247
764.130	3606
764.238	4554
764.347	4896
764.456	4628
764.565	6267
764.674	6039
764.783	6144
764.891	5617
765.000	8279
765.109	8731
765.217	9586
765.326	12342
765.435	15045
765.543	16971
765.652	21337
765.761	29677
765.869	42616
765.978	64055
766.086	108381
766.195	201190
766.303	417238
766.412	659635
766.520	548127
766.629	311725
766.737	149492
766.846	83787
766.954	55180
767.062	40602
767.171	33443
767.279	23235
767.387	18045
767.496	13676
767.604	12778
767.712	11000
767.820	10529
767.928	9098
768.037	8614
768.145	7547
768.253	9002
768.361	6833
768.469	7791
768.577	6793
768.685	8988
768.793	8813
768.901	9858
769.009	10960
769.117	13360
769.225	18111
769.333	27188
769.441	40435
769.549	75939
769.657	165362
769.765	407308
769.873	532000
769.981	304748
770.088	113462
770.196	56208
770.304	35259
770.412	24689
770.519	17029
770.627	13911
770.735	11126
770.842	9907
770.950	8086
771.058	7336
771.165	6759
771.273	5970
771.380	4525
771.488	4240
771.595	3842
771.703	3963
771.810	3484
771.918	3467
772.025	2525
772.133	3780
772.240	2928
772.348	4021
772.455	3237
772.562	3521
772.670	1900
772.777	2962
772.884	1820
772.991	2681
773.099	1752
773.206	1383
773.313	2632
773.420	2103
773.528	475
773.635	2093
773.742	1542
773.849	2852
773.956	1433
774.063	2101
774.170	777
774.277	2080
774.384	781
774.491	2205
774.598	1924
774.705	1595
774.812	754
774.919	2136
775.026	1676
775.133	2464
775.239	1218
775.346	1536
775.453	1719
775.560	1234
775.667	490
775.773	1234
775.880	1671
775.987	1630
776.093	1434
776.200	1308
776.307	999
776.413	1536
776.520	114
776.627	2442
776.733	1189
776.840	1581
776.946	6077
777.053	14839
777.159	34974
777.266	19383
777.372	29726
777.478	24211
777.585	9479
777.691	2905
777.798	1020
777.904	3207
778.010	2551
778.117	1980
778.223	1020
778.329	1313
778.435	941
778.542	1720
778.648	380
778.754	209
778.860	489
778.966	890
779.072	416
779.178	622
779.284	572
779.391	743
779.497	-278
779.603	2923
779.708	218
779.815	4174
779.920	13685
780.026	24168
780.132	2590
780.238	1133
780.344	253
780.450	2307
780.556	1198
780.661	991
780.767	336
780.873	1591
780.979	456
781.085	419
781.190	-178
781.296	1149
781.402	360
781.507	-192
781.613	221
781.719	-402
781.824	693
781.930	1272
782.035	786
782.141	737
782.246	105
782.352	617
782.457	1003
782.563	1343
782.668	-110
782.773	166
782.879	-102
782.984	845
783.090	1032
783.195	1198
783.300	468
783.405	1192
783.511	-618
783.616	1446
783.721	892
783.826	1041
783.932	805
784.037	601
784.142	632
784.247	394
784.352	723
784.457	1411
784.562	856
784.667	1068
784.772	-113
784.877	1001
784.982	906
785.087	658
785.192	1002
785.297	468
785.402	841
785.507	563
785.611	194
785.716	1221
785.821	87
785.926	1037
786.031	-575
786.135	1470
786.240	-144
786.345	-1182
786.450	876
786.554	510
786.659	-1
786.763	-344
786.868	191
786.973	756
787.077	-29
787.182	534
787.286	89
787.391	1228
787.495	-1176
787.600	615
787.704	-1154
787.809	608
787.913	-595
788.017	1279
788.122	-595
788.226	562
788.330	167
788.435	-252
788.539	-70
788.643	160
788.747	-127
788.852	7
788.956	-1114
789.060	1151
789.164	232
789.268	-666
789.372	692
789.476	292
789.580	172
789.684	44
789.788	-217
789.892	-569
789.996	-253
790.100	-63
790.204	-59
790.308	140
790.412	-288
790.516	1146
790.620	125
790.724	788
790.828	167
790.931	446
791.035	1982
791.139	964
791.242	-1435
791.346	879
791.450	-760
791.554	269
791.657	-874
791.761	1543
791.864	325
791.968	401
792.072	262
792.175	-20
792.279	330
792.382	959
792.486	241
792.589	100
792.693	398
792.796	-814
792.899	1030
793.003	1319
793.106	-824
793.209	378
793.313	389
793.416	-798
793.519	1306
793.623	886
793.726	129
793.829	639
793.932	218
794.035	-62
794.138	1289
794.242	1340
794.345	280
794.448	1292
794.551	636
794.654	7806
794.757	12446
794.860	1763
794.963	746
795.066	72
795.169	1197
795.272	-4
795.375	115
795.477	147
795.580	-45
795.683	-453
795.786	273
795.889	-502
795.991	538
796.094	996
796.197	-1621
796.300	1006
796.402	-1083
796.505	-587
796.608	-357
796.710	836
796.813	-891
796.915	133
797.018	351
797.120	1038
797.223	-1255
797.326	1741
797.428	-27
797.530	-347
797.633	-252
797.735	1381
797.838	-1170
797.940	377
798.042	-1393
798.145	694
798.247	486
798.349	-1226
798.452	204
798.554	-511
798.656	-2054
798.758	561
798.860	-732
798.962	-166
799.065	-731
799.167	-1107
799.269	70
799.371	1100
799.473	-347
799.575	-461
799.677	-464
799.779	1305
799.881	-2308
799.983	861
800.085	-236
800.187	-118
800.289	-1455
800.390	-699
800.492	-890
800.594	942
800.696	-1253
800.798	344
800.899	-705
801.001	-288
801.103	-814
801.205	231
801.306	-165
801.408	-1260
801.509	119
801.611	250
801.713	-329
801.814	490
801.916	-561
802.017	-227
802.119	-1608
802.220	-286
802.322	-2606
802.423	1357
802.525	-2049
802.626	-308
802.727	-487
802.829	132
802.930	-1613
803.031	1269
803.133	-1566
803.234	-66
803.335	-519
803.436	-999
803.538	-188
803.639	-1063
803.740	-317
803.841	-404
803.942	12
804.043	538
804.144	-1790
804.245	361
804.346	-1093
804.447	-68
804.548	-758
804.649	-90
804.750	-572
804.851	-397
804.952	-939
805.053	-468
805.154	-1354
805.255	691
805.355	-1005
805.456	728
805.557	-1473
805.658	-1218
805.758	49
805.859	35
805.960	-1141
806.061	-247
806.161	-702
806.262	332
806.362	-513
806.463	-200
806.564	-426
806.664	-109
806.765	-832
806.865	-66
806.966	-609
807.066	-370
807.166	-156
807.267	621
807.367	-650
807.468	-141
807.568	-1700
807.668	455
807.769	471
807.869	-736
807.969	-1230
808.069	-61
808.170	-1172
808.270	-411
808.370	-354
808.470	-236
808.570	-1625
808.670	-183
808.770	-381
808.870	-177
808.970	-285
809.070	115
809.170	-931
809.271	-67
809.370	-437
809.470	-59
809.570	-921
809.670	-510
809.770	-872
809.870	44
809.970	-565
810.070	-741
810.169	-590
810.269	-783
810.369	-261
810.469	-966
810.568	-950
810.668	-595
810.768	-949
810.867	-38
810.967	-1340
811.066	-949
811.166	-1117
811.265	661
811.365	-897
811.464	-23
811.564	-643
811.663	-1
811.763	-1793
811.862	576
811.962	586
812.061	-300
812.160	-1422
812.260	-66
812.359	-1019
812.458	-321
812.557	-661
812.657	-235
812.756	-460
812.855	-325
812.954	-932
813.053	803
813.153	-578
813.252	-1349
813.351	-792
813.450	-308
813.549	-863
813.648	199
813.747	-1169
813.846	597
813.945	-1143
814.044	658
814.143	-260
814.242	470
814.341	-1401
814.439	357
814.538	-548
814.637	-72
814.736	-496
814.835	725
814.933	-842
815.032	527
815.131	92
815.229	708
815.328	-608
815.427	274
815.525	418
815.624	1003
815.722	-379
815.821	562
815.919	-446
816.018	-297
816.116	797
816.215	912
816.313	730
816.412	1230
816.510	1310
816.609	2818
816.707	1549
816.805	2042
816.904	1302
817.002	2776
817.100	2343
817.198	3626
817.296	2490
817.395	3263
817.493	4848
817.591	6045
817.689	8093
817.787	11690
817.885	19146
817.983	35799
818.081	74502
818.179	172557
818.277	376032
818.375	304839
818.473	108558
818.571	47752
818.669	31467
818.767	28693
818.865	25846
818.963	29431
819.061	41443
819.158	70730
819.256	142456
819.354	308975
819.452	552799
819.549	357851
819.647	138453
819.745	62232
819.842	37595
819.940	25847
820.038	17486
820.135	13995
820.233	11269
820.330	7482
820.428	6166
820.525	6348
820.623	4636
820.720	4677
820.818	4191
820.915	4322
821.012	4693
821.110	3721
821.207	2875
821.304	2733
821.402	3872
821.499	8213
821.596	12208
821.693	6694
821.791	2057
821.888	1348
821.985	1025
822.082	987
822.179	3771
822.276	5175
822.373	3111
822.470	1353
822.567	644
822.664	258
822.761	1073
822.858	-50
822.955	854
823.052	219
823.149	233
823.246	759
823.343	-762
823.440	1619
823.536	-820
823.633	293
823.730	-86
823.827	619
823.923	615
824.020	1377
824.117	1676
824.213	3687
824.310	980
824.407	1251
824.503	215
824.600	319
824.696	-138
824.793	790
824.889	-643
824.986	347
825.082	11
825.179	677
825.275	-484
825.371	384
825.468	-92
825.564	-51
825.660	-246
825.757	902
825.853	206
825.949	-434
826.045	-103
826.142	-346
826.238	-654
826.334	619
826.430	-1614
826.526	286
826.622	-1371
826.718	-322
826.814	-964
826.910	266
827.006	-815
827.102	-588
827.198	-250
827.294	69
827.390	-498
827.486	164
827.582	-1480
827.678	-1338
827.774	-301
827.869	-265
827.965	340
828.061	-1081
828.157	-1532
828.252	-437
828.348	-2529
828.444	487
828.539	-529
828.635	-215
828.731	-567
828.826	-467
828.922	-231
829.017	-300
829.113	-694
829.208	-331
829.304	-1459
829.399	1161
829.495	-1221
829.590	93
829.685	-1756
829.781	-293
829.876	-1528
829.971	-542
830.066	-873
830.162	-117
830.257	-1510
830.352	-290
830.447	-517
830.543	76
830.638	-2477
830.733	455
830.828	-1069
830.923	-131
831.018	-1069
831.113	-624
831.208	-1290
831.303	-639
831.398	-2018
831.493	-586
831.588	-935
831.683	-491
831.778	-734
831.873	-457
831.967	-488
832.062	-767
832.157	-1407
832.252	414
832.346	-1307
832.441	-6
832.536	-819
832.631	19
832.725	-574
832.820	-1419
832.914	-842
833.009	-1439
833.104	-1421
833.198	-332
833.293	-1270
833.387	-605
833.482	-467
833.576	-1523
833.670	-479
833.765	-546
833.859	-1753
833.954	189
834.048	-1060
834.142	-582
834.237	-1043
834.331	-531
834.425	-547
834.519	-364
834.613	-452
834.708	-613
834.802	-985
834.896	-1175
834.990	-1062
835.084	-516
835.178	-1125
835.272	-1309
835.366	-2060
835.460	-207
835.554	-1200
835.648	-86
835.742	-1683
835.836	-744
835.930	-1317
836.024	-799
836.117	-323
836.211	-1360
836.305	-1107
836.399	-244
836.493	-2126
836.586	-138
836.680	-1306
836.774	-1281
836.867	-76
836.961	-1274
837.055	-2014
837.148	-478
837.242	-233
837.335	-936
837.429	-1309
837.522	-535
837.616	-2008
837.709	-645
837.803	-2061
837.896	-205
837.989	-1358
838.083	47
838.176	-1424
838.269	-1170
838.363	-1085
838.456	-78
838.549	-1481
838.642	-862
838.735	-681
838.829	100
838.922	-2049
839.015	-127
839.108	-1446
839.201	-177
839.294	-746
839.387	-31
839.480	-1488
839.573	11
839.666	-745
839.759	-1069
839.852	-1999
839.945	-976
840.038	-1098
840.131	-391
840.223	-1416
840.316	-449
840.409	-2013
840.502	-1071
840.594	-996
840.687	-978
840.780	-402
840.873	-170
840.965	-1368
841.058	-881
841.150	-1551
841.243	-1423
841.336	-336
841.428	-390
841.521	-1830
841.613	-636
841.706	-1551
841.798	180
841.890	-1471
841.983	-434
842.075	-320
842.167	-1025
842.260	-1951
842.352	-394
842.444	-1069
842.537	82
842.629	-472
842.721	-186
842.813	-1132
842.905	-1125
842.997	-927
843.090	-688
843.182	-462
843.274	-1540
843.366	-904
843.458	-830
843.550	-878
843.642	-937
843.734	-772
843.826	-449
843.918	-26
844.009	104
844.101	-1787
844.193	-171
844.285	-416
844.377	2027
844.469	3759
844.560	8146
844.652	6081
844.744	1908
844.835	-311
844.927	-508
845.019	-944
845.110	-567
845.202	-1000
845.293	-624
845.385	-2077
845.476	-429
845.568	-1093
845.659	-960
845.751	-759
845.842	-554
845.934	-1016
846.025	-1317
846.116	-667
846.208	-536
846.299	-1089
846.390	-551
846.482	-1623
846.573	-867
846.664	-1403
846.755	-1456
846.846	-504
846.937	-1828
847.029	-773
847.120	-935
847.211	-1887
847.302	677
847.393	-1913
847.484	-274
847.575	-1246
847.666	-594
847.757	-1971
847.847	-652
847.938	-45
848.029	-869
848.120	-1016
848.211	-441
848.302	-1581
848.392	-165
848.483	-382
848.574	-1165
848.664	-1091
848.755	-1472
848.846	-768
848.936	-404
849.027	-746
849.118	46
849.208	-878
849.299	41
849.389	279
849.480	3152
849.570	6176
849.661	15192
849.751	23420
849.841	7189
849.932	-102
850.022	-399
850.112	-743
850.203	-1047
850.293	-941
850.383	-1318
850.474	-1884
850.564	-777
850.654	-1289
850.744	-551
850.834	-802
850.924	-544
851.014	-1145
851.104	-779
851.194	-1427
851.284	-574
851.374	-728
851.464	-725
851.554	-1908
851.644	-1274
851.734	-401
851.824	-642
851.914	-1415
852.004	-432
852.094	-1799
852.183	-512
852.273	-783
852.363	-562
852.452	-1620
852.542	-663
852.632	-1684
852.721	-640
852.811	-1096
852.901	-4
852.990	-1421
853.080	-62
853.169	-672
853.259	-88
853.348	-794
853.438	1291
853.527	843
853.617	1883
853.706	4917
853.795	10919
853.885	27384
853.974	53114
854.063	100268
854.152	147372
854.242	50466
854.331	7332
854.420	2473
854.509	2349
854.598	1599
854.687	133
854.777	-302
854.866	-551
854.955	-36
855.044	-187
855.133	-855
855.222	-328
855.311	-673
855.400	620
855.488	-778
855.577	-630
855.666	93
855.755	943
855.844	290
855.933	748
856.021	-820
856.110	183
856.199	-1611
856.288	-733
856.376	-1172
856.465	-1624
856.554	-1362
856.642	-597
856.731	-408
856.819	11
856.908	-1510
856.996	-536
857.085	-815
857.173	-339
857.262	-1269
857.350	-526
857.438	-1473
857.527	-276
857.615	-1678
857.703	-264
857.792	-1241
857.880	-370
857.968	-1746
858.056	-810
858.145	-1122
858.233	-178
858.321	-1256
858.409	-334
858.497	-1558
858.585	-642
858.673	-765
858.761	-562
858.849	-1076
858.937	-973
859.025	-1167
859.113	52
859.201	-964
859.289	1378
859.377	-967
859.465	-94
859.552	-935
859.640	-690
859.728	-1084
859.816	181
859.903	-607
859.991	-658
860.079	-1507
860.166	-1129
860.254	-1355
860.342	-447
860.429	-1657
860.517	-1213
860.604	-1674
860.692	-613
860.779	-1973
860.867	-1227
860.954	-1142
861.042	-543
861.129	-1396
861.216	-1198
861.304	-1046
861.391	-793
861.478	-1626
861.565	-494
861.653	-417
861.740	-1991
861.827	-1420
861.914	-141
862.001	-1727
862.089	-209
862.176	-360
862.263	-1537
862.350	-1297
862.437	-925
862.524	-1692
862.611	293
862.698	-229
862.785	1722
862.871	1940
862.958	-505
863.045	-872
863.132	-913
863.219	-1788
863.306	-1094
863.392	-809
863.479	-759
863.566	-1091
863.652	-482
863.739	-1011
863.826	-395
863.912	-1251
863.999	-1564
864.086	-1682
864.172	-923
864.259	-1219
864.345	-632
864.432	-1326
864.518	-711
864.604	-629
864.691	-299
864.777	-520
864.863	-799
864.950	111
865.036	-944
865.122	-740
865.209	383
865.295	229
865.381	670
865.467	-148
865.553	2080
865.639	2449
865.726	5389
865.812	11256
865.898	23998
865.984	36770
866.070	73145
866.156	72944
866.242	16943
866.328	2730
866.414	641
866.499	306
866.585	-234
866.671	132
866.757	471
866.843	-879
866.928	-37
867.014	-862
867.100	615
867.186	-654
867.271	-353
867.357	-748
867.442	-148
867.528	-626
867.614	1042
867.699	1943
867.785	4288
867.870	6130
867.956	7732
868.041	3717
868.127	3130
868.212	4698
868.297	3934
868.383	1354
868.468	1337
868.553	1820
868.639	-156
868.724	-1376
868.809	-856
868.894	-484
868.979	311
869.065	-1134
869.150	-736
869.235	-964
869.320	-489
869.405	-1736
869.490	-1285
869.575	-1162
869.660	-155
869.745	-757
869.830	-896
869.915	-152
870.000	57
870.085	-783
870.169	614
870.254	627
870.339	-554
870.424	-1039
870.509	-309
870.593	-1324
870.678	-65
870.763	-177
870.847	458
870.932	-1077
871.016	1271
871.101	744
871.186	-368
871.270	-1213
871.355	-916
871.439	-472
871.523	662
871.608	-165
871.692	-29
871.777	220
871.861	457
871.945	-410
872.030	-307
872.114	-803
872.198	-892
872.282	-1198
872.367	-1073
872.451	-1011
872.535	-1153
872.619	-737
872.703	-841
872.787	-1893
872.871	-991
872.955	-1425
873.039	-446
873.123	-1255
873.207	317
873.291	-2039
873.375	-356
873.459	-878
873.543	-994
873.627	-1443
873.711	-1143
873.794	-910
873.878	-1082
873.962	-899
874.045	-369
874.129	-1772
874.137	-1701
874.213	-989
874.245	-1185
874.296	-1505
874.352	-1300
874.380	-1201
874.460	-943
874.464	-935
874.547	-39
874.568	-201
874.631	-646
874.676	-305
874.714	-13
874.784	-171
874.798	-205
874.881	-124
874.892	-314
874.965	-1602
874.999	-966
875.048	-130
875.107	-704
875.131	-915
875.215	539
875.215	537
875.298	-1929
875.323	-1551
875.381	-625
875.430	-942
875.465	-1159
875.538	-838
875.548	-795
875.631	-1556
875.646	-1461
875.714	-1037
875.753	-534
875.798	79
875.861	-423
875.881	-589
875.964	-1229
875.968	-1172
876.047	-151
876.076	-444
876.130	-1017
876.183	-389
876.213	-42
876.291	-776
876.296	-822
876.379	-674
876.398	-747
876.462	-1009
876.506	-463
876.545	36
876.613	-1073
876.628	-1308
876.711	175
876.721	51
876.794	-916
876.828	-429
876.877	204
876.935	-371
876.960	-553
877.043	158
877.043	156
877.125	-284
877.150	227
877.208	1491
877.258	863
877.291	375
877.365	421
877.374	439
877.456	650
877.472	635
877.539	568
877.579	380
877.622	51
877.687	-45
877.704	-13
877.787	-177
877.794	-144
877.869	316
877.901	160
877.952	-162
878.008	239
878.034	348
878.115	-946
878.117	-966
878.199	-315
878.222	-414
878.282	-558
878.329	-288
878.364	-142
878.437	112
878.447	164
878.529	-466
878.544	-328
878.611	155
878.651	111
878.694	63
878.758	-151
878.776	-196
878.858	-358
878.865	-393
878.941	-793
878.972	-715
879.023	-555
879.078	-740
879.105	-816
879.185	-36
879.187	-20
879.269	-311
879.292	-281
879.351	-222
879.399	-667
879.433	-888
879.506	-57
879.516	-0
879.598	-684
879.613	-686
879.680	-62
879.720	8
879.762	-394
879.827	-467
879.844	-353
879.926	-406
879.933	-320
880.007	273
880.040	-121
880.089	-710
880.147	-297
880.171	-57
880.253	-431
880.254	-433
880.335	-481
880.360	-522
880.417	-538
880.467	46
880.499	400
880.574	-369
880.580	-445
880.662	84
880.680	38
880.744	-74
880.787	-31
880.825	-54
880.893	-851
880.907	-996
880.989	-144
881.000	-241
881.070	-451
881.106	-158
881.152	-68
881.213	-347
881.233	-382
881.315	-415
881.319	-423
881.396	-419
881.426	-199
881.478	88
881.532	-121
881.559	-223
881.639	-306
881.641	-304
881.722	-353
881.745	-238
881.803	106
881.852	-167
881.885	-354
881.958	-343
881.966	-345
882.047	-562
882.064	-557
882.129	-395
882.171	-435
882.210	-580
882.277	-433
882.291	-330
882.372	-491
882.383	-350
882.454	-52
882.489	-593
882.535	-904
882.596	-475
882.616	-333
882.697	-741
882.702	-711
882.778	36
882.808	88
882.859	-179
882.914	-22
882.940	-19
883.020	-439
883.021	-435
883.102	-229
883.127	-236
883.183	-602
883.233	-556
883.264	-376
883.339	-160
883.345	-147
883.426	85
883.445	77
883.507	-7
883.551	-145
883.587	-273
883.657	-497
883.668	-459
883.749	267
883.763	268
883.830	-518
883.869	-529
883.910	-240
883.975	-725
883.991	-760
884.072	175
884.081	180
884.152	-86
884.187	94
884.233	162
884.292	-435
884.314	-500
884.394	-242
884.398	-233
884.475	-29
884.504	175
884.555	332
884.610	-137
884.636	-313
884.716	18
884.716	26
884.797	17
884.821	220
884.877	113
884.927	-364
884.958	-346
885.033	-46
885.038	-35
885.118	-143
885.139	-82
885.199	-92
885.244	-333
885.279	-316
885.350	21
885.359	112
885.439	525
885.456	656
885.520	238
885.561	-66
885.600	55
885.667	346
885.680	356
885.760	54
885.773	69
885.840	561
885.878	612
885.920	278
885.984	97
886.000	152
886.080	141
886.089	141
886.160	-150
886.195	-353
886.240	-302
886.300	-147
886.320	2
886.400	721
886.406	757
886.480	377
886.511	162
886.560	99
886.616	127
886.640	94
886.720	-400
886.722	-409
886.800	188
886.827	376
886.879	119
886.932	-245
886.959	-119
887.038	291
887.039	291
887.119	-270
887.143	-418
887.198	156
887.248	686
887.278	476
887.354	-312
887.358	-293
887.437	279
887.459	361
887.517	693
887.564	1046
887.596	976
887.669	612
887.676	586
887.755	443
887.774	340
887.835	10
887.880	-88
887.914	100
887.985	220
887.994	216
888.073	256
888.090	248
888.153	224
888.195	232
888.232	307
888.300	470
888.311	451
888.391	259
888.405	205
888.470	441
888.510	595
888.549	626
888.615	713
888.628	658
888.708	260
888.720	183
888.787	484
888.825	708
888.866	586
888.930	326
888.945	291
889.024	118
889.035	86
889.103	-32
889.140	-61
889.182	220
889.245	570
889.261	640
889.340	1002
889.349	1038
889.419	1005
889.454	986
889.498	953
889.559	890
889.577	871
889.656	794
889.664	785
889.735	1196
889.768	1390
889.814	1188
889.873	912
889.978	1038
890.083	1136
890.187	566
890.292	622
890.397	396
890.501	830
890.606	427
890.710	1039
890.815	1299
890.919	987
891.024	778
891.128	1029
891.233	2091
891.337	536
891.442	506
891.546	722
891.650	-383
891.755	724
891.859	1335
891.963	271
892.068	1004
892.172	930
892.276	393
892.380	779
892.484	1276
892.589	1115
892.693	310
892.797	237
892.901	1057
893.005	1022
893.109	1203
893.213	1277
893.317	483
893.421	43
893.525	84
893.629	459
893.733	511
893.837	104
893.941	541
894.045	1445
894.148	201
894.252	535
894.356	524
894.460	998
894.564	666
894.667	932
894.771	660
894.875	707
894.978	539
895.082	736
895.186	672
895.289	955
895.393	736
895.496	515
895.600	-59
895.703	535
895.807	-35
895.910	683
896.014	-222
896.117	461
896.221	202
896.324	379
896.427	265
896.531	491
896.634	-201
896.737	930
896.840	273
896.944	-375
897.047	552
897.150	-78
897.253	85
897.356	-229
897.460	493
897.563	387
897.666	708
897.769	62
897.872	-174
897.975	-82
898.078	954
898.181	573
898.284	151
898.387	443
898.490	1259
898.593	522
898.695	692
898.798	-34
898.901	676
899.004	1450
899.107	796
899.209	175
899.312	936
899.415	808
899.518	182
899.620	368
899.723	663
899.826	515
899.928	803
900.031	142
900.133	61
900.236	51
900.338	570
900.441	706
900.543	313
900.646	502
900.748	466
900.851	442
900.953	39
901.055	172
901.158	-8
901.260	1375
901.362	202
901.465	1064
901.567	76
901.669	773
901.771	871
901.873	85
901.976	-137
902.078	4
902.180	-247
902.282	-132
902.384	60
902.486	471
902.588	-22
902.690	372
902.792	660
902.894	1233
902.996	1410
903.098	1752
903.200	375
903.302	765
903.404	910
903.505	145
903.607	668
903.709	1521
903.811	107
903.913	-26
904.014	253
904.116	46
904.218	1020
904.319	616
904.421	1240
904.523	2368
904.624	1508
904.726	965
904.827	566
904.929	2083
905.030	1633
905.132	1026
905.233	1456
905.335	379
905.436	54
905.537	690
905.639	114
905.740	1279
905.841	577
905.943	1408
906.044	1994
906.145	967
906.247	426
906.348	530
906.449	592
906.550	964
906.651	464
906.752	423
906.854	214
906.955	-418
907.056	118
907.157	416
907.258	74
907.359	-205
907.460	-241
907.561	83
907.662	594
907.762	685
907.863	-243
907.964	244
908.065	-267
908.166	-653
908.267	139
908.367	61
908.468	470
908.569	283
908.670	-67
908.770	931
908.871	-260
908.971	492
909.072	52
909.173	469
909.273	-245
909.374	-175
909.474	66
909.575	366
909.675	-31
909.776	504
909.876	-219
909.977	-245
910.077	1084
910.177	665
910.278	226
910.378	159
910.478	-617
910.579	-41
910.679	413
910.779	441
910.879	412
910.980	546
911.080	-45
911.180	344
911.280	145
911.380	266
911.480	129
911.580	-794
911.680	221
911.780	924
911.880	400
911.980	381
912.080	235
912.180	123
912.280	1090
912.380	297
912.480	95
912.580	384
912.679	-298
912.779	6
912.879	366
912.979	273
913.078	-351
913.178	-178
913.278	608
913.377	477
913.477	-293
913.577	-216
913.676	313
913.776	22
913.875	323
913.975	12
914.074	366
914.174	-271
914.273	327
914.373	964
914.472	-29
914.572	-41
914.671	-174
914.770	445
914.870	735
914.969	-120
915.068	-90
915.167	-350
915.267	-95
915.366	7
915.465	445
915.564	467
915.663	39
915.763	-309
915.862	264
915.961	-534
916.060	-51
916.159	-554
916.258	-100
916.357	-447
916.456	355
916.555	279
916.654	148
916.752	517
916.851	-108
916.950	-697
917.049	280
917.148	325
917.247	1219
917.345	2
917.444	37
917.543	320
917.642	-775
917.740	773
917.839	412
917.937	15
918.036	973
918.135	-454
918.233	-716
918.332	-499
918.430	-298
918.529	371
918.627	265
918.726	636
918.824	1057
918.923	-113
919.021	359
919.119	-120
919.218	-671
919.316	-90
919.414	-456
919.512	777
919.611	100
919.709	-342
919.807	1027
919.905	199
920.003	-44
920.102	229
920.200	32
920.298	-311
920.396	-33
920.494	715
920.592	-764
920.690	-46
920.788	164
920.886	433
920.984	484
921.082	287
921.180	767
921.277	-82
921.375	-72
921.473	424
921.571	502
921.669	-101
921.766	100
921.864	171
921.962	2
922.060	-84
922.157	568
922.255	259
922.352	45
922.450	242
922.548	204
922.645	-526
922.743	171
922.840	732
922.938	1163
923.035	228
923.133	918
923.230	860
923.327	1036
923.425	417
923.522	925
923.619	244
923.717	918
923.814	980
923.911	780
924.008	314
924.106	267
924.203	1449
924.300	-413
924.397	470
924.494	1455
924.591	355
924.688	975
924.786	524
924.883	39
924.979	1241
925.077	559
925.173	276
925.270	462
925.367	64
925.464	1504
925.561	762
925.658	1163
925.755	869
925.852	1501
925.948	1938
926.045	3038
926.142	3815
926.239	4259
926.335	4032
926.432	3699
926.529	4438
926.625	4110
926.722	2411
926.818	1481
926.915	468
927.011	1102
927.108	371
927.204	1049
927.301	1150
927.397	1587
927.494	1498
927.590	1154
927.687	621
927.783	893
927.879	720
927.976	1093
928.072	-282
928.168	829
928.264	431
928.361	551
928.457	681
928.553	-112
928.649	580
928.745	846
928.841	933
928.937	341
929.033	-451
929.129	585
929.225	-85
929.321	943
929.417	247
929.513	414
929.609	654
929.705	368
929.801	587
929.897	39
929.993	477
930.089	578
930.184	716
930.280	771
930.376	593
930.471	185
930.567	7
930.663	703
930.758	330
930.854	1023
930.950	412
931.045	-19
931.141	648
931.236	942
931.332	-151
931.427	-68
931.523	891
931.618	851
931.714	-318
931.809	749
931.905	84
932.000	123
932.095	-396
932.191	875
932.286	340
932.381	286
932.476	214
932.572	459
932.667	-103
932.762	382
932.857	524
932.952	-106
933.047	-350
933.142	207
933.237	186
933.332	488
933.427	445
933.522	4
933.617	-360
933.712	732
933.807	227
933.902	350
933.997	118
934.092	-251
934.187	304
934.282	-79
934.376	124
934.471	932
934.566	-206
934.661	683
934.755	244
934.850	-70
934.945	184
935.039	743
935.134	55
935.228	363
935.323	475
935.417	12
935.512	-547
935.606	42
935.701	37
935.795	-431
935.890	120
935.984	516
936.079	475
936.173	376
936.267	593
936.362	-527
936.456	42
936.550	148
936.644	-238
936.738	567
936.833	-85
936.927	660
937.021	778
937.115	467
937.209	-54
937.303	743
937.397	-173
937.491	-443
937.585	495
937.679	539
937.773	-416
937.867	-296
937.961	643
938.055	111
938.149	1209
938.243	418
938.337	634
938.430	1132
938.524	1719
938.618	4821
938.712	3314
938.805	711
938.899	680
938.993	1532
939.086	2474
939.180	7052
939.274	8375
939.367	1271
939.461	1521
939.554	-69
939.648	-665
939.741	188
939.835	160
939.928	61
940.022	689
940.115	-213
940.208	646
940.302	613
940.395	484
940.488	-667
940.582	680
940.675	-477
940.768	247
940.861	216
940.954	1406
941.048	414
941.141	-684
941.234	220
941.327	2040
941.420	2667
941.513	614
941.606	920
941.699	559
941.792	7
941.885	254
941.978	-110
942.071	428
942.164	-761
942.257	206
942.349	132
942.442	70
942.535	-325
942.628	-292
942.721	571
942.813	-1407
942.906	256
942.999	104
943.091	-297
943.184	101
943.277	-1056
943.369	-227
943.462	-927
943.554	-397
943.647	-670
943.739	-425
943.832	-75
943.924	-919
944.017	405
944.109	-860
944.201	-825
944.294	261
944.386	-190
944.478	-552
944.571	-107
944.663	229
944.755	-245
944.847	-639
944.940	-794
945.032	-806
945.124	434
945.216	706
945.308	780
945.400	-127
945.492	70
945.584	554
945.676	-625
945.768	221
945.860	654
945.952	1182
946.044	1104
946.136	254
946.228	-18
946.320	-1379
946.412	354
946.503	-228
946.595	220
946.687	-188
946.779	-703
946.870	-235
946.962	163
947.054	-780
947.145	801
947.237	-491
947.329	-242
947.420	-1008
947.512	-194
947.603	-453
947.695	554
947.786	-776
947.878	-392
947.969	-372
948.061	359
948.152	-33
948.243	-166
948.335	-214
948.426	-644
948.517	-815
948.609	309
948.700	-183
948.791	-937
948.882	-906
948.973	179
949.065	-260
949.156	-244
949.247	-151
949.338	-604
949.429	-100
949.520	-59
949.611	-1360
949.702	156
949.793	27
949.884	-601
949.975	-87
950.066	-1321
950.157	-336
950.247	20
950.338	-572
950.429	-485
950.520	-640
950.611	-1219
950.701	-1678
950.792	-178
950.883	178
950.973	-426
951.064	-514
951.155	-24
951.245	93
951.336	-136
951.427	-811
951.517	296
951.608	-211
951.698	-778
951.788	113
951.879	-653
951.969	-478
952.060	-668
952.150	-770
952.240	-549
952.331	-1244
952.421	329
952.511	-317
952.602	-989
952.692	-598
952.782	-138
952.872	-264
952.962	-206
953.052	-925
953.143	-1098
953.233	-720
953.323	-802
953.413	-296
953.503	-139
953.593	-38
953.683	-743
953.773	-1436
953.863	-1216
953.953	-785
954.042	283
954.132	-770
954.222	-131
954.312	175
954.402	-1351
954.492	-981
954.581	-717
954.671	-672
954.761	-1299
954.850	850
954.940	-1060
955.030	-888
955.119	-942
955.209	-863
955.298	-1325
955.388	-787
955.477	-269
955.567	-953
955.656	-207
955.746	-964
955.835	-632
955.925	-713
956.014	-259
956.103	-69
956.193	-524
956.282	-725
956.371	-483
956.461	-793
956.550	-200
956.639	-748
956.728	-916
956.817	294
956.906	-872
956.995	-838
957.085	-620
957.174	94
957.263	-129
957.352	-416
957.441	-986
957.530	-807
957.619	-434
957.708	-450
957.796	-883
957.885	-213
957.974	-1417
958.063	-324
958.152	-1747
958.241	-1061
958.329	-762
958.418	-1084
958.507	-1871
958.596	-360
958.684	-259
958.773	347
958.861	-960
958.950	-731
959.039	-488
959.127	-1017
959.216	369
959.304	-811
959.393	-870
959.481	-841
959.570	-460
959.658	-629
959.746	168
959.835	-908
959.923	-333
960.011	-998
960.100	-260
960.188	-809
960.276	-414
960.365	-686
960.453	-1340
960.541	-1471
960.629	53
960.717	-1389
960.805	-768
960.893	-525
960.981	-1923
961.069	300
961.158	-946
961.245	-726
961.333	-793
961.421	-1135
961.509	-197
961.597	-898
961.685	-605
961.773	-433
961.861	-836
961.949	-415
962.036	-960
962.124	-257
962.212	-532
962.299	-1333
962.387	337
962.475	-392
962.562	-1539
962.650	-146
962.738	287
962.825	-1563
962.913	-738
963.000	-661
963.088	-1069
963.175	-1084
963.263	-651
963.350	-980
963.438	-1093
963.525	-1082
963.612	-136
963.700	-1421
963.787	-1086
963.874	-711
963.962	-1297
964.049	-782
964.136	-933
964.223	-1140
964.310	-202
964.398	-781
964.485	-988
964.572	-418
964.659	-529
964.746	-657
964.833	-1510
964.920	-1409
965.007	-1194
965.094	-969
965.181	-232
965.268	-1710
965.355	-1249
965.441	-1650
965.528	-740
965.615	-627
965.702	-648
965.789	-274
965.875	-1330
965.962	-403
966.049	-1098
966.136	-936
966.222	-1232
966.309	-699
966.395	-678
966.482	-547
966.569	-28
966.655	-1286
966.742	-1324
966.828	-1441
966.915	-1121
967.001	-912
967.087	-1233
967.174	-1283
967.260	-144
967.347	-1437
967.433	-1344
967.519	-1313
967.605	-854
967.692	-545
967.778	-1099
967.864	-1156
967.950	-798
968.036	-1295
968.123	-773
968.209	-258
968.295	-828
968.381	174
968.467	-1053
968.553	-1517
968.639	-1169
968.725	-1402
968.811	-459
968.897	-669
968.983	-424
969.069	-1385
969.154	-164
969.240	-337
969.326	-1039
969.412	-1072
969.497	-595
969.583	-1836
969.669	-1258
969.755	-473
969.840	-1405
969.926	-363
970.012	-763
970.097	-153
970.183	-1035
970.268	-910
970.354	-635
970.439	-1444
970.525	-623
970.610	-1698
970.696	-496
970.781	-357
970.866	-1394
970.952	-1149
971.037	-1403
971.122	-936
971.208	-850
971.293	-871
971.378	-1094
971.463	-460
971.549	-996
971.634	-1249
971.719	-1245
971.804	-972
971.889	-118
971.974	-1749
972.059	-1046
972.144	-890
972.229	-1182
972.314	-1082
972.399	-479
972.484	-648
972.569	-1144
972.654	-1267
972.739	-54
972.824	-1066
972.908	-786
972.993	-1463
973.078	-1113
973.163	-677
973.247	-232
973.332	-1487
973.417	-413
973.501	-972
973.586	-1355
973.671	-1987
973.755	-835
973.840	-793
973.924	-394
974.009	-799
974.093	-445
974.178	-71
974.262	-913
974.346	-1473
974.431	-1566
974.515	-799
974.600	-974
974.684	-1133
974.768	-591
974.852	-306
974.937	-1815
975.021	-68
975.105	-589
975.189	-717
975.273	-636
975.358	-1583
975.442	-2010
975.526	67
975.610	-1705
975.694	-1571
975.778	-331
975.862	-975
975.946	-2094
976.030	-542
976.114	-1004
976.198	-1085
976.281	-981
976.365	-337
976.449	-821
976.533	-1138
976.617	-1326
976.700	-405
976.784	-624
976.868	-1600
976.951	-165
977.035	-1133
977.119	-688
977.202	-731
977.286	-875
977.369	-1444
977.453	-276
977.536	-760
977.620	-1192
977.703	-983
977.787	-1743
977.870	358
977.953	-221
978.037	-2538
978.120	-335
978.203	-1768
978.287	-902
978.370	-1110
978.453	-1099
978.536	-969
978.620	-368
978.703	-861
978.786	-856
978.869	-1754
978.952	-1768
979.035	-285
979.118	-100
979.201	-1685
979.284	-533
979.367	-802
979.450	-566
979.533	-1538
979.616	-1823
979.699	-517
979.782	-792
979.865	-464
979.948	-1543
980.030	-914
980.113	-682
980.196	-1688
980.279	-273
980.361	-1460
980.444	-1104
980.526	-1451
980.609	-149
980.692	-1361
980.774	-533
980.857	-1880
980.939	-320
981.022	-872
981.104	-1366
981.187	-1633
981.269	163
981.352	-1640
981.434	-1311
981.516	-1980
981.599	-142
981.681	-604
981.763	-576
981.846	-975
981.928	-468
982.010	-1296
982.092	-979
982.174	-619
982.256	-668
982.339	-1871
982.421	-649
982.503	-786
982.585	-1766
982.667	-1092
982.749	-737
982.831	-1362
982.913	-1882
982.995	-22
983.077	-2021
983.158	-75
983.240	-2384
983.322	-1044
983.404	-1054
983.486	-1954
983.568	-280
983.649	-1290
983.731	-1218
983.813	-933
983.894	-1018
983.976	-1816
984.058	-2086
984.139	-349
984.221	-1218
984.302	-461
984.384	-1019
984.465	-1176
984.547	-1271
984.628	-1161
984.710	-726
984.791	-1548
984.872	-777
984.954	-534
985.035	-1386
985.116	-2082
985.198	-1749
985.279	81
985.360	-1702
985.441	-1201
985.522	-530
985.604	-1238
985.685	-2824
985.766	-283
985.847	551
985.928	-1196
986.009	-1062
986.090	-1242
986.171	-74
986.252	-665
986.333	-1262
986.414	-1019
986.495	-1030
986.576	-400
986.656	-1076
986.737	-611
986.818	-710
986.899	-1442
986.980	-1099
987.060	-240
987.141	-1660
987.222	-949
987.302	-1001
987.383	-277
987.464	-1231
987.544	-268
987.625	-1507
987.705	-773
987.786	-1665
987.866	-1602
987.947	-662
988.027	-1284
988.108	-1150
988.188	-1488
988.268	-827
988.349	-505
988.429	-1143
988.509	-1578
988.589	-1120
988.670	-2019
988.750	-192
988.830	-1293
988.910	-1022
988.990	-1255
989.070	-1743
989.151	-1214
989.231	-1396
989.311	-182
989.391	-840
989.471	-857
989.551	-1383
989.631	-1898
989.711	-1027
989.791	-1306
989.870	-1704
989.950	555
990.030	-1049
990.110	-1584
990.190	-1139
990.269	-1868
990.349	-1751
990.429	-1121
990.509	-1058
990.588	-2446
990.668	-227
990.747	-1704
990.827	-1584
990.907	-1467
990.986	-1259
991.066	-1232
991.145	-1054
991.225	-1228
991.304	-1747
991.383	-667
991.463	-1936
991.542	-1216
991.622	-1376
991.701	-1433
991.780	-945
991.859	-1631
991.939	-1756
992.018	-1370
992.097	-707
992.176	-965
992.256	-1500
992.335	-1538
992.414	-1040
992.493	-1341
992.572	-1470
992.651	-377
992.730	-1593
992.809	-1365
992.888	-2221
992.967	-2086
993.046	-271
993.125	-1858
993.203	-1356
993.282	-1500
993.361	-603
993.440	-1540
993.519	-1649
993.597	-1078
993.676	-1761
993.755	-420
993.834	-766
993.912	-2318
993.991	-724
994.069	-2716
994.148	-1025
994.226	-2332
994.305	-712
994.384	-1892
994.462	-576
994.540	-2180
994.619	-1828
994.697	-894
994.776	-1902
994.854	-1462
994.932	-1660
995.011	-870
995.089	-1359
995.167	-1485
995.245	-1623
995.324	-2504
995.402	-1277
995.480	-1890
995.558	-920
995.636	-2328
995.714	-1636
995.792	-465
995.870	-1827
995.948	-1715
996.026	-1464
996.104	-2434
996.182	-1276
996.260	-2407
996.338	-1808
996.416	-2059
996.494	-2202
996.572	-1005
996.649	-850
996.727	-2659
996.805	-1389
996.883	-2080
996.960	-1285
997.038	-1492
997.116	-1164
997.193	-2618
997.271	-1282
997.348	-2116
997.426	-1384
997.504	-2878
997.581	-1065
997.658	-940
997.736	-1785
997.813	-2038
997.891	-79
997.968	-920
998.046	-1772
998.123	-1262
998.200	-1705
998.277	-2806
998.355	-1703
998.432	-2782
998.509	-1162
998.586	-1279
998.663	-1128
998.741	-1778
998.818	-1654
998.895	-1380
998.972	-1658
999.049	-1689
999.126	-1480
999.203	-1311
999.280	-1699
999.357	-2037
999.434	-2153
999.511	-1664
999.587	-947
999.664	-1452
999.741	-824
999.818	-356
999.895	-2289
999.971	-2409
1000.048	-1505
1000.125	-982
1000.202	-2186
1000.278	-1629
1000.355	-1580
1000.431	-2377
1000.508	-1691
1000.584	-1391
1000.661	-1098
1000.738	-2076
1000.814	-1908
1000.890	-1360
1000.967	-2260
1001.043	-1690
1001.120	-2598
1001.196	-2354
1001.272	-1900
1001.349	-1400
1001.425	-820
1001.501	-1580
1001.577	-2115
1001.654	-1530
1001.730	-1817
1001.806	-1430
1001.882	-2187
1001.958	-1745
1002.034	-1204
1002.110	-1726
1002.186	-1720
1002.262	-1442
1002.338	-1653
1002.414	-1154
1002.490	-1431
1002.566	-2033
1002.642	-2408
1002.718	-913
1002.794	-1418
1002.870	-2307
1002.945	-2482
1003.021	-1821
1003.097	-1684
1003.173	-977
1003.248	-2327
1003.324	-1383
1003.400	-1491
1003.475	-1602
1003.551	-1543
1003.626	-1393
1003.702	-2400
1003.777	-2084
1003.853	-1833
1003.928	-2547
1004.004	-2403
1004.079	-2043
1004.155	-1435
1004.230	-2569
1004.305	-1456
1004.381	-1673
1004.456	-1815
1004.531	-2026
1004.607	-1793
1004.682	-1986
1004.757	-1465
1004.832	-1808
1004.907	-2452
1004.982	-1674
1005.057	-1188
1005.133	-1936
1005.208	-1242
1005.283	-2255
1005.358	-1016
1005.433	-1856
1005.508	-1960
1005.583	-2730
1005.657	-2055
1005.732	-1315
1005.807	-2170
1005.882	-2073
1005.957	-1473
1006.032	-1045
1006.106	-1210
1006.181	-1261
1006.256	-1256
1006.331	-2058
1006.405	-1883
1006.480	-2360
1006.554	-1812
1006.629	-1618
1006.704	-1448
1006.778	-1721
1006.853	-1682
1006.927	-1638
1007.002	-2206
1007.076	-1187
1007.150	-1965
1007.225	-2001
1007.299	-1631
1007.373	-2256
1007.448	-2180
1007.522	-1519
1007.596	-1432
1007.671	-2040
1007.745	-1095
1007.819	-1995
1007.893	-1503
1007.967	-1205
1008.041	-2330
1008.115	-1447
1008.190	-1592
1008.264	-1148
1008.338	-2346
1008.412	-2174
1008.486	-1814
1008.560	-1337
1008.633	-2139
1008.707	-1904
1008.781	-1395
1008.855	-1902
1008.929	-1726
1009.003	-2222
1009.076	-1607
1009.150	-1599
1009.224	-1778
1009.298	-1907
1009.371	-2812
1009.445	-964
1009.519	-2089
1009.592	-1873
1009.666	-1329
1009.739	-1739
1009.813	-2565
1009.886	-1045
1009.960	-2789
1010.033	-1251
1010.107	-1944
1010.180	-2590
1010.253	-1743
1010.327	-1859
1010.400	-980
1010.473	-2592
1010.547	-128
1010.620	-1954
1010.693	-1701
1010.766	-994
1010.840	-1634
1010.913	-1159
1010.986	-1267
1011.059	-1523
1011.132	-1124
1011.205	-626
1011.278	-1037
1011.351	-2147
1011.424	-890
1011.497	-975
1011.570	-2108
1011.643	-1323
1011.716	-1913
1011.789	-1554
1011.862	-1902
1011.934	-1266
1012.007	-2722
1012.080	-1574
1012.153	-1441
1012.225	-1061
1012.298	-2011
1012.371	-2149
1012.443	-1346
1012.516	-2145
1012.588	-1305
1012.661	-2054
1012.733	-2731
1012.806	-1162
1012.879	-2448
1012.951	-1494
1013.023	-2188
1013.096	-1759
1013.168	-1893
1013.241	-1440
1013.313	-1840
1013.385	-1711
1013.458	-2469
1013.530	-654
1013.602	-2220
1013.674	-403
1013.746	-2059
1013.819	-2466
1013.891	-1065
1013.963	-2439
1014.035	-2253
1014.107	-1395
1014.179	-1636
1014.251	-1619
1014.323	-930
1014.395	-2688
1014.467	-1542
1014.539	-1318
1014.611	-2170
1014.683	-1834
1014.754	-1779
1014.826	-2651
1014.898	-1693
1014.970	-2087
1015.042	-1171
1015.113	-1973
1015.185	-1463
1015.257	-2705
1015.328	-1753
1015.400	-2525
1015.471	-2298
1015.543	-1741
1015.615	-1875
1015.686	-2585
1015.757	-2189
1015.829	-1245
1015.901	-1631
1015.972	-2633
1016.043	-2411
1016.115	-1583
1016.186	-1626
1016.257	-2573
1016.328	-1357
1016.400	-1718
1016.471	-2211
1016.542	-2267
1016.613	-2230
1016.685	-2665
1016.756	-1824
1016.827	-1925
1016.898	-2220
1016.969	-1233
1017.040	-975
1017.111	-2097
1017.182	-1784
1017.253	-2176
1017.324	-2104
1017.395	-2777
1017.466	-2102
1017.537	-2219
1017.608	-1544
1017.678	-1987
1017.749	-2435
1017.820	-1341
1017.891	-3036
1017.961	-2545
1018.032	-1508
1018.103	-1677
1018.173	-1368
1018.244	-2557
1018.315	-2507
1018.385	-1756
1018.456	-2629
1018.526	-2706
1018.597	-2036
1018.667	-1556
1018.738	-1887
1018.808	-2318
1018.878	-1975
1018.949	-1170
1019.019	-1732
1019.089	-2086
1019.160	-1071
1019.230	-2380
1019.300	-1360
1019.371	-2318
1019.441	-1287
1019.511	-1715
1019.581	-2073
1019.651	-1660
1019.721	-1653
1019.791	-1844
1019.861	-1608
1019.931	-2559
1020.001	-1904
1020.071	-2184
1020.141	-2586
1020.211	-1618
1020.281	-1939
1020.351	-1301
1020.421	-1747
1020.491	-2056
1020.560	-2374
1020.630	-2242
1020.700	-1981
1020.770	-2557
1020.839	-2480
1020.909	-1844
1020.979	-2153
1021.048	-2190
1021.118	-2303
1021.187	-2088
1021.257	-2504
1021.326	-950
1021.396	-2610
1021.465	-841
1021.535	-1328
1021.604	-2249
1021.674	-1185
1021.743	-1913
1021.812	-2203
1021.882	-1114
1021.951	-2305
1022.020	-2268
1022.089	-2045
1022.159	-2292
1022.228	-2933
1022.297	-2148
1022.366	-1796
1022.435	-1424
1022.504	-2092
1022.573	-2969
1022.642	-2105
1022.711	-2694
1022.781	-2162
1022.849	-1704
1022.918	-1724
1022.987	-1372
1023.056	-2620
1023.125	-1822
1023.194	-1860
1023.263	-2490
1023.331	-938
1023.400	-1844
1023.469	-1738
1023.538	-1212
1023.606	-1947
1023.675	-1432
1023.744	-2593
1023.812	-2028
1023.881	-1214
1023.949	-2286
1024.018	-1774
1024.086	-1372
1024.155	-2399
1024.223	-2319
1024.292	-2611
1024.360	-1982
1024.429	-2442
1024.497	-2333
1024.565	-1798
1024.634	-1759
1024.702	-1896
1024.770	-2205
1024.838	-2252
1024.907	-1727
1024.975	-2400
1025.043	-1999
1025.111	-2081
1025.179	-1891
1025.247	-2339
1025.315	-2638
1025.383	-1704
1025.451	-2732
1025.519	-2018
1025.587	-2123
1025.655	-1591
1025.723	-2514
1025.791	-2211
1025.859	-1382
1025.927	-1957
1025.995	-2353
1026.062	-1648
1026.130	-2106
1026.198	-2241
1026.266	-2726
1026.333	-1375
1026.401	-1758
1026.469	-2101
1026.536	-2572
1026.604	-1794
1026.671	-2544
1026.739	-1838
1026.806	-2412
1026.874	-2507
1026.941	-2432
1027.009	-2672
1027.076	-2130
1027.144	-797
1027.211	-1607
1027.278	-2338
1027.345	-2380
1027.413	-2077
1027.480	-1869
1027.547	-2050
1027.614	-2540
1027.682	-1434
1027.749	-2019
1027.816	-2935
1027.883	-2276
1027.950	-2065
1028.017	-2630
1028.084	-1820
1028.151	-2870
1028.218	-1862
1028.285	-2157
1028.352	-1933
1028.419	-2929
1028.486	-2956
1028.553	-2120
1028.619	-1481
1028.686	-2408
1028.753	-2036
1028.820	-1968
1028.886	-2574
1028.953	-1988
1029.020	-2016
1029.086	-2286
1029.153	-1845
1029.220	-2098
1029.286	-2047
1029.353	-1499
1029.419	-2266
1029.486	-1500
1029.552	-2330
1029.619	-1712
1029.685	-2726
1029.751	-2656
1029.818	-1271
1029.884	-2292
1029.951	-1011
1030.017	-2612
1030.083	-2752
1030.149	-2701
1030.216	-2732
1030.282	-1960
1030.348	-1674
1030.414	-2109
1030.480	-1950
1030.546	-2351
1030.612	-1559
1030.678	-2707
1030.744	-2549
1030.810	-2515
1030.876	-2242
1030.942	-2026
1031.008	-1709
1031.074	-2209
1031.140	-980
1031.206	-1769
1031.272	-3139
1031.337	-1433
1031.403	-1929
1031.469	-2320
1031.534	-1750
1031.600	-2241
1031.666	-1940
1031.731	-2549
1031.797	-1875
1031.863	-3062
1031.928	-2496
1031.994	-2854
1032.059	-2702
1032.125	-2204
1032.190	-3244
1032.256	-2417
1032.321	-1853
1032.386	-1682
1032.452	-1756
1032.517	-1954
1032.582	-2576
1032.647	-2011
1032.713	-1854
1032.778	-2244
1032.843	-2316
1032.908	-3082
1032.974	-2469
1033.039	-3199
1033.104	-2396
1033.169	-2910
1033.234	-2816
1033.299	-1871
1033.364	-2721
1033.429	-2748
1033.494	-2134
1033.559	-1731
1033.624	-1874
1033.688	-2712
1033.753	-2479
1033.818	-2735
1033.883	-1821
1033.948	-2110
1034.013	-2688
1034.077	-2186
1034.142	-1950
1034.207	-1559
1034.271	-1391
1034.336	-1781
1034.400	-2035
1034.465	-2998
1034.530	-2364
1034.594	-2350
1034.658	-2499
1034.723	-3348
1034.787	-2047
1034.852	-2465
1034.916	-2097
1034.981	-2509
1035.045	-1776
1035.109	-2115
1035.173	-1910
1035.238	-2974
1035.302	-2413
1035.366	-2816
1035.430	-1827
1035.495	-3126
1035.559	-1938
1035.623	-2738
1035.687	-1583
1035.751	-2602
1035.815	-2980
1035.879	-2034
1035.943	-2025
1036.007	-2456
1036.071	-2361
1036.135	-1881
1036.198	-2573
1036.262	-2531
1036.326	-2409
1036.390	-2603
1036.454	-2001
1036.517	-1867
1036.581	-2207
1036.645	-2245
1036.709	-1784
1036.772	-3485
1036.836	-2947
1036.900	-1918
1036.963	-2222
1037.026	-2046
1037.090	-2631
1037.154	-2295
1037.217	-2598
1037.280	-3070
1037.344	-2663
1037.407	-3025
1037.471	-2471
1037.534	-2609
1037.597	-2059
1037.661	-2077
1037.724	-1760
1037.787	-2561
1037.850	-2302
1037.913	-1907
1037.977	-2542
1038.040	-2789
1038.103	-2387
1038.166	-2279
1038.229	-2404
1038.292	-2425
1038.355	-2193
1038.418	-2858
1038.481	-2729
1038.544	-2824
1038.607	-1926
1038.670	-2438
1038.732	-2224
1038.795	-2196
1038.858	-2561
1038.921	-2253
1038.984	-2034
1039.046	-2743
1039.109	-2713
1039.172	-2605
1039.234	-2781
1039.297	-2554
1039.360	-2365
1039.422	-2248
1039.485	-2520
1039.547	-2358
1039.610	-2065
1039.672	-2281
1039.734	-2602
1039.797	-3047
1039.859	-2956
1039.922	-2536
1039.984	-2592
1040.046	-2162
1040.109	-2450
1040.171	-2571
1040.233	-2409
1040.295	-2384
1040.358	-3206
1040.420	-1773
1040.482	-2982
1040.544	-2842
1040.606	-1818
1040.668	-2426
1040.730	-2602
1040.792	-3378
1040.854	-2612
1040.916	-2000
1040.978	-2921
1041.040	-2382
1041.102	-2314
1041.164	-2811
1041.225	-2355
1041.287	-2413
1041.349	-1937
1041.411	-2449
1041.472	-2886
1041.534	-1734
1041.596	-2773
1041.657	-2095
1041.719	-1765
1041.781	-1973
1041.842	-3132
1041.904	-2647
1041.965	-3141
1042.027	-2721
1042.088	-2390
1042.150	-2511
1042.211	-2534
1042.272	-1807
1042.334	-2647
1042.395	-2183
1042.456	-2700
1042.518	-2927
1042.579	-2107
1042.640	-2418
1042.701	-2072
1042.763	-2861
1042.824	-2689
1042.885	-3098
1042.946	-3074
1043.007	-3066
1043.068	-2509
1043.129	-1825
1043.190	-1707
1043.251	-2165
1043.312	-2944
1043.373	-2314
1043.434	-2237
1043.495	-1523
1043.556	-1907
1043.616	-2108
1043.677	-3228
1043.738	-2168
1043.799	-2149
1043.859	-2293
1043.920	-2374
1043.981	-2663
1044.041	-1787
1044.102	-2283
1044.162	-2539
1044.223	-2477
1044.284	-3097
1044.344	-2560
1044.405	-2687
1044.465	-2742
1044.525	-2441
1044.586	-2811
1044.646	-2177
1044.707	-2002
1044.767	-2670
1044.827	-2446
1044.887	-2005
1044.948	-2104
1045.008	-2255
1045.068	-2460
1045.128	-1955
1045.188	-2736
1045.249	-1766
1045.309	-2281
1045.369	-2034
1045.429	-2202
1045.489	-2502
1045.549	-2843
1045.609	-1606
1045.669	-2052
1045.729	-2108
1045.789	-2552
1045.848	-2067
1045.908	-2159
1045.968	-2253
1046.028	-1520
1046.088	-2475
1046.147	-1644
1046.207	-2171
1046.267	-2245
1046.326	-2165
1046.386	-1644
1046.446	-1265
1046.505	-1444
1046.565	-886
1046.624	-1885
1046.684	-1764
1046.743	-705
1046.803	-849
1046.862	-884
1046.922	0
