'Start Wavelength	183.907
'End Wavelength	1046.922
'Gate Delay	5.000
'Gate Width (ms)	1.050
'Laser Output Level	0.000
'X Position	0.000
'Y Position	0.000
'Z Position	0.000
'Grid Point Number	1.000
'Shot Number	100.000
183.907	1003.000
183.977	108.000
184.047	243
184.116	300
184.186	725
184.256	-264
184.325	592
184.395	-934
184.465	277
184.534	108
184.604	-69
184.674	529
184.743	380
184.813	-313
184.883	189
184.952	-428
185.022	255
185.092	-595
185.161	86
185.231	-577
185.301	-21
185.370	81
185.440	440
185.509	221
185.579	301
185.649	519
185.718	308
185.788	587
185.857	-381
185.927	-471
185.996	-428
186.066	-556
186.136	126
186.205	170
186.275	-35
186.344	-398
186.414	-241
186.483	-226
186.553	667
186.622	250
186.692	135
186.761	4
186.831	229
186.900	-523
186.970	-142
187.039	-250
187.109	833
187.178	-397
187.248	-252
187.317	16
187.387	367
187.456	437
187.526	-106
187.595	-445
187.664	64
187.734	650
187.803	-278
187.873	-14
187.942	-184
188.012	69
188.081	74
188.150	49
188.220	-216
188.289	-557
188.358	-86
188.428	-68
188.497	591
188.567	-825
188.636	595
188.705	-319
188.775	-21
188.844	-961
188.913	687
188.983	-27
189.052	127
189.121	-152
189.191	580
189.260	66
189.329	336
189.399	-742
189.468	-119
189.537	-31
189.606	-311
189.676	-243
189.745	932
189.814	37
189.883	640
189.953	-132
190.022	-171
190.091	-67
190.161	18
190.230	212
190.299	37
190.368	132
190.437	-467
190.507	-724
190.576	1043
190.645	-381
190.714	498
190.783	-267
190.853	511
190.922	304
190.991	324
191.060	-469
191.129	708
191.198	206
191.268	120
191.337	304
191.406	828
191.475	-228
191.544	-495
191.613	-171
191.682	751
191.752	299
191.821	525
191.890	-150
191.959	240
192.028	303
192.097	602
192.166	-848
192.235	-351
192.304	308
192.373	157
192.442	44
192.511	-426
192.580	-148
192.650	181
192.719	-548
192.788	432
192.857	-278
192.926	-649
192.995	34
193.064	180
193.133	-117
193.202	-482
193.271	-112
193.340	751
193.409	-85
193.478	704
193.547	370
193.615	27
193.684	174
193.753	363
193.822	310
193.891	-690
193.960	-77
194.029	-119
194.098	67
194.167	-150
194.236	-340
194.305	397
194.374	105
194.443	182
194.512	-48
194.580	555
194.649	-306
194.718	-321
194.787	-78
194.856	-45
194.925	227
194.994	-1091
195.062	-61
195.131	89
195.200	196
195.269	500
195.338	661
195.407	381
195.475	-226
195.544	406
195.613	-107
195.682	1210
195.751	-487
195.819	-309
195.888	-467
195.957	981
196.026	287
196.094	743
196.163	-570
196.232	-494
196.301	-447
196.369	204
196.438	402
196.507	200
196.576	-34
196.644	-451
196.713	-77
196.782	-66
196.850	346
196.919	248
196.988	-620
197.056	150
197.125	622
197.194	-105
197.262	-509
197.331	929
197.400	-575
197.468	171
197.537	-794
197.606	243
197.674	-53
197.743	88
197.812	286
197.880	85
197.949	-370
198.017	392
198.086	74
198.155	-102
198.223	587
198.292	57
198.360	-261
198.429	64
198.497	372
198.566	73
198.635	114
198.703	174
198.772	893
198.840	478
198.909	-250
198.977	-29
199.046	-167
199.114	635
199.183	-20
199.251	135
199.320	-639
199.388	231
199.457	-386
199.525	841
199.594	-1171
199.662	359
199.731	-653
199.799	-168
199.867	-283
199.936	-80
200.004	-485
200.073	689
200.141	-342
200.210	483
200.278	-754
200.346	509
200.415	-16
200.483	31
200.552	325
200.620	-24
200.688	-487
200.757	91
200.825	-120
200.893	244
200.962	37
201.030	-421
201.098	-322
201.167	490
201.235	-242
201.303	-204
201.372	-256
201.440	-458
201.508	-23
201.577	-447
201.645	-548
201.713	345
201.781	95
201.850	450
201.918	89
201.986	-86
202.055	378
202.123	-7
202.191	-312
202.259	439
202.327	-268
202.396	-48
202.464	-498
202.532	-618
202.600	570
202.669	-4
202.737	-821
202.805	-559
202.873	-206
202.941	221
203.009	-477
203.078	120
203.146	-1008
203.214	899
203.282	-376
203.350	163
203.418	-500
203.487	-14
203.555	-398
203.623	389
203.691	-168
203.759	54
203.827	7
203.895	131
203.963	759
204.031	227
204.099	-640
204.168	309
204.236	-195
204.304	-264
204.372	180
204.440	-87
204.508	-18
204.576	-321
204.644	-341
204.712	-759
204.780	-102
204.848	-360
204.916	-91
204.984	-607
205.052	219
205.120	188
205.188	-578
205.256	-519
205.324	110
205.392	-60
205.460	-417
205.528	-95
205.596	-433
205.664	397
205.732	-798
205.799	737
205.867	419
205.935	-325
206.003	262
206.071	174
206.139	-936
206.207	92
206.275	-825
206.343	246
206.411	-386
206.478	-548
206.546	323
206.614	294
206.682	-285
206.750	-75
206.818	-282
206.885	-437
206.953	-1212
207.021	142
207.089	-283
207.157	407
207.225	-525
207.292	229
207.360	-552
207.428	252
207.496	-907
207.563	334
207.631	-579
207.699	-213
207.767	-11
207.834	-77
207.902	118
207.970	-46
208.038	105
208.105	-505
208.173	-87
208.241	297
208.309	-102
208.376	51
208.444	-737
208.512	-421
208.579	-264
208.647	36
208.715	-61
208.782	-135
208.850	537
208.918	362
208.985	-478
209.053	-57
209.120	-137
209.188	-67
209.256	91
209.323	1
209.391	-29
209.459	784
209.526	-302
209.594	-396
209.661	-331
209.729	509
209.796	-57
209.864	75
209.932	-686
209.999	978
210.067	-41
210.134	-468
210.202	-198
210.269	-520
210.337	77
210.404	348
210.472	37
210.539	35
210.607	-491
210.674	6
210.742	-570
210.809	651
210.877	-246
210.944	406
211.012	-379
211.079	1094
211.146	-421
211.214	720
211.281	-111
211.349	299
211.416	493
211.484	152
211.551	-126
211.618	375
211.686	-106
211.753	34
211.821	-305
211.888	47
211.955	193
212.023	961
212.090	-867
212.157	130
212.225	-203
212.292	313
212.359	942
212.427	1659
212.494	-56
212.561	325
212.629	-987
212.696	632
212.763	-745
212.831	-491
212.898	-67
212.965	-260
213.032	-149
213.100	-557
213.167	54
213.234	463
213.301	316
213.369	-76
213.436	223
213.503	251
213.570	-164
213.638	34
213.705	-482
213.772	37
213.839	-220
213.906	553
213.973	137
214.041	-242
214.108	84
214.175	-1311
214.242	-320
214.309	347
214.376	253
214.444	158
214.511	-192
214.578	-247
214.645	454
214.712	693
214.779	371
214.846	43
214.913	12
214.980	178
215.048	266
215.115	454
215.182	527
215.249	282
215.316	-48
215.383	180
215.450	796
215.517	495
215.584	657
215.651	187
215.718	-498
215.785	678
215.852	46
215.919	897
215.986	513
216.053	849
216.120	440
216.187	408
216.254	-44
216.321	88
216.388	-405
216.455	246
216.522	11
216.589	127
216.656	267
216.722	1081
216.789	-46
216.856	1036
216.923	-176
216.990	14
217.057	-115
217.124	580
217.191	517
217.258	550
217.324	529
217.391	1478
217.458	951
217.525	464
217.592	277
217.659	342
217.725	631
217.792	395
217.859	-221
217.926	209
217.993	-97
218.059	-103
218.126	-57
218.193	33
218.260	1009
218.327	204
218.393	-165
218.460	243
218.527	-623
218.594	-97
218.660	83
218.727	1398
218.794	-531
218.860	872
218.927	-407
218.994	-82
219.061	-73
219.127	196
219.194	-79
219.261	105
219.327	-149
219.394	589
219.461	-1004
219.527	111
219.594	-216
219.661	321
219.727	-956
219.794	698
219.860	-40
219.927	351
219.994	-259
220.060	571
220.127	-282
220.193	584
220.260	-628
220.326	892
220.393	1101
220.460	1256
220.526	611
220.593	384
220.659	953
220.726	131
220.792	1273
220.859	1513
220.925	2035
220.992	3249
221.058	2863
221.125	1100
221.191	1163
221.258	391
221.324	607
221.391	588
221.457	19
221.524	188
221.590	133
221.657	1216
221.723	-89
221.789	721
221.856	165
221.922	391
221.989	-69
222.055	-298
222.121	-421
222.188	1807
222.254	-375
222.321	1093
222.387	172
222.453	-131
222.520	-540
222.586	-624
222.652	232
222.719	-657
222.785	-117
222.851	-104
222.918	-10
222.984	292
223.050	-91
223.116	-1292
223.183	483
223.249	-209
223.315	-515
223.382	-539
223.448	-1018
223.514	-174
223.580	-600
223.647	-419
223.713	-707
223.779	81
223.845	-39
223.911	125
223.978	-661
224.044	385
224.110	-657
224.176	488
224.242	-687
224.309	-933
224.375	-293
224.441	-770
224.507	-307
224.573	105
224.639	-783
224.705	-685
224.772	-171
224.838	-429
224.904	-347
224.970	-642
225.036	-117
225.102	-536
225.168	-815
225.234	298
225.300	-258
225.366	-37
225.432	-268
225.499	5
225.565	-354
225.631	398
225.697	-1104
225.763	447
225.829	427
225.895	-508
225.961	-184
226.027	921
226.093	111
226.159	987
226.225	1200
226.291	2673
226.357	4226
226.423	2424
226.489	852
226.554	1076
226.620	775
226.686	1622
226.752	342
226.818	2925
226.884	5282
226.950	4132
227.016	937
227.082	1547
227.148	467
227.214	1184
227.279	-147
227.345	587
227.411	-155
227.477	139
227.543	793
227.609	770
227.674	53
227.740	-115
227.806	289
227.872	-141
227.938	-337
228.003	559
228.069	-467
228.135	-359
228.201	-150
228.267	177
228.332	-574
228.398	-745
228.464	78
228.530	-244
228.595	-95
228.661	-854
228.727	-458
228.792	215
228.858	-645
228.924	-883
228.990	766
229.055	-402
229.121	-416
229.187	-167
229.252	-403
229.318	-837
229.384	-334
229.449	-5
229.515	-1524
229.581	-863
229.646	633
229.712	-189
229.777	365
229.843	6
229.909	743
229.974	1103
230.040	-562
230.105	203
230.171	-748
230.236	577
230.302	645
230.368	4
230.433	-247
230.499	910
230.564	1013
230.630	-270
230.695	-243
230.761	670
230.826	-1605
230.892	945
230.957	-561
231.023	-226
231.088	-372
231.154	-204
231.219	60
231.284	236
231.350	204
231.415	-303
231.481	-438
231.546	-139
231.612	-75
231.677	72
231.742	-876
231.808	279
231.873	-690
231.939	-1560
232.004	-167
232.069	394
232.135	-1365
232.200	134
232.265	-147
232.331	-659
232.396	-463
232.461	-104
232.527	-1355
232.592	-272
232.657	-1136
232.723	-643
232.788	-1002
232.853	650
232.918	-592
232.984	-58
233.049	-918
233.114	-727
233.179	-423
233.245	807
233.310	-282
233.375	-1251
233.440	-326
233.506	-747
233.571	-949
233.636	-450
233.701	-373
233.766	-657
233.832	295
233.897	10
233.962	-768
234.027	864
234.092	28
234.157	-1295
234.222	214
234.288	-103
234.353	1153
234.418	613
234.483	588
234.548	-462
234.613	-223
234.678	698
234.743	-783
234.808	2219
234.873	-327
234.938	1276
235.004	-702
235.069	175
235.134	-1378
235.199	625
235.264	153
235.329	-494
235.394	395
235.459	906
235.524	-58
235.589	194
235.654	-792
235.719	-200
235.784	168
235.849	-380
235.913	419
235.978	-440
236.043	602
236.108	163
236.173	-739
236.238	205
236.303	-391
236.368	-370
236.433	1095
236.498	435
236.563	406
236.627	2038
236.692	6370
236.757	4941
236.822	1664
236.887	1452
236.952	364
237.017	-40
237.081	556
237.146	237
237.211	3132
237.276	6699
237.341	8945
237.405	4815
237.470	2214
237.535	1235
237.600	569
237.664	374
237.729	-556
237.794	550
237.859	1718
237.923	433
237.988	186
238.053	1022
238.118	145
238.182	1902
238.247	1744
238.312	377
238.376	499
238.441	-493
238.506	570
238.570	-440
238.635	-10
238.700	-112
238.764	-398
238.829	1056
238.893	5
238.958	1029
239.023	-38
239.087	-433
239.152	571
239.216	-352
239.281	-194
239.346	240
239.410	-484
239.475	-635
239.539	1890
239.604	61
239.668	168
239.733	-331
239.797	-293
239.862	1954
239.926	803
239.991	322
240.055	203
240.120	79
240.184	-56
240.249	-477
240.313	-267
240.378	782
240.442	708
240.507	1243
240.571	-568
240.635	309
240.700	-353
240.764	-522
240.829	-270
240.893	-1072
240.957	482
241.022	1020
241.086	995
241.151	144
241.215	-494
241.279	79
241.344	-66
241.408	-406
241.472	-915
241.537	861
241.601	146
241.665	-475
241.730	-386
241.794	621
241.858	-283
241.922	111
241.987	-182
242.051	-548
242.115	-1262
242.179	-79
242.244	-1589
242.308	456
242.372	-114
242.436	-343
242.501	137
242.565	-963
242.629	-554
242.693	-323
242.757	-1070
242.822	23
242.886	-138
242.950	1260
243.014	-798
243.078	101
243.142	-997
243.206	-1068
243.271	1018
243.335	40
243.399	713
243.463	1988
243.527	5715
243.591	874
243.655	741
243.719	77
243.783	379
243.847	1275
243.911	277
243.975	536
244.040	-301
244.104	1027
244.168	-253
244.232	-84
244.296	441
244.360	-113
244.424	-563
244.488	-202
244.552	735
244.615	-195
244.679	-13
244.743	-766
244.807	-733
244.871	987
244.935	-155
244.999	-822
245.063	-1129
245.127	-239
245.191	-327
245.255	659
245.319	-2
245.383	-1040
245.446	400
245.510	-857
245.574	321
245.638	-36
245.702	-580
245.766	707
245.829	321
245.893	-320
245.957	-256
246.021	-31
246.085	-381
246.149	702
246.212	1046
246.276	1411
246.340	-89
246.404	486
246.467	292
246.531	-383
246.595	39
246.659	535
246.722	-321
246.786	260
246.850	345
246.913	436
246.977	-1283
247.041	-163
247.104	-323
247.168	767
247.232	1421
247.295	3005
247.359	441
247.423	289
247.486	1339
247.550	1185
247.614	-43
247.677	851
247.741	119
247.804	-49
247.868	-429
247.932	801
247.995	3095
248.059	366
248.122	-186
248.186	900
248.249	1130
248.313	4886
248.376	5269
248.440	3231
248.503	-295
248.567	2007
248.630	186
248.694	1555
248.757	3042
248.821	5639
248.884	3616
248.948	2969
249.011	4178
249.075	6683
249.138	5366
249.202	1493
249.265	-464
249.328	1331
249.392	-106
249.455	1934
249.519	155
249.582	1124
249.645	1748
249.709	699
249.772	85
249.835	-328
249.899	135
249.962	191
250.025	-507
250.089	2891
250.152	2485
250.215	164
250.279	-347
250.342	888
250.405	283
250.468	194
250.532	775
250.595	1804
250.658	6367
250.721	10676
250.785	2055
250.848	2199
250.911	500
250.974	1043
251.038	1436
251.101	3523
251.164	519
251.227	2265
251.290	468
251.354	2495
251.417	9195
251.480	7615
251.543	5410
251.606	17676
251.669	11406
251.732	4322
251.795	4137
251.859	5148
251.922	10369
251.985	5840
252.048	2395
252.111	1930
252.174	417
252.237	2895
252.300	6750
252.363	6701
252.426	13437
252.489	4094
252.552	2532
252.615	710
252.678	2037
252.741	5159
252.804	6528
252.867	14314
252.930	7901
252.993	4272
253.056	2099
253.119	1351
253.182	819
253.245	1177
253.308	967
253.371	696
253.434	-185
253.497	1956
253.559	3091
253.622	1633
253.685	1678
253.748	2141
253.811	498
253.874	1395
253.937	-243
254.000	1128
254.062	1659
254.125	2406
254.188	3026
254.251	1748
254.314	684
254.376	1591
254.439	2141
254.502	1543
254.565	1643
254.628	4015
254.690	1128
254.753	-280
254.816	-316
254.878	396
254.941	1641
255.004	2615
255.067	472
255.129	175
255.192	271
255.255	-1074
255.317	-146
255.380	363
255.443	-94
255.505	78
255.568	-1098
255.631	-20
255.693	-278
255.756	-1080
255.819	1269
255.881	-442
255.944	-762
256.006	-543
256.069	-151
256.132	-540
256.194	-85
256.257	805
256.319	925
256.382	886
256.444	536
256.507	-195
256.569	-1478
256.632	-395
256.694	-323
256.757	4085
256.819	11386
256.882	4037
256.944	1145
257.007	915
257.069	-500
257.132	555
257.194	567
257.257	225
257.319	-336
257.381	-431
257.444	3619
257.506	13283
257.569	13224
257.631	4847
257.693	2829
257.756	1200
257.818	1087
257.880	383
257.943	192
258.005	90
258.067	-268
258.130	-354
258.192	-77
258.254	1073
258.317	466
258.379	162
258.441	827
258.503	1829
258.566	1366
258.628	2920
258.690	-717
258.753	679
258.815	610
258.877	366
258.939	-253
259.001	697
259.064	-1294
259.126	-471
259.188	-224
259.250	391
259.312	494
259.375	1806
259.437	385
259.499	-151
259.561	-749
259.623	-348
259.685	-676
259.747	146
259.809	1272
259.872	3022
259.934	5824
259.996	5908
260.058	882
260.120	144
260.182	-186
260.244	-500
260.306	-578
260.368	678
260.430	-170
260.492	503
260.554	2695
260.616	530
260.678	3275
260.740	3259
260.802	-54
260.864	1108
260.926	-1303
260.988	1020
261.050	-589
261.112	1624
261.174	4942
261.236	2835
261.298	-218
261.359	1017
261.421	1858
261.483	129
261.545	298
261.607	-387
261.669	-150
261.731	1427
261.793	1882
261.854	-258
261.916	71
261.978	-209
262.040	-180
262.102	471
262.164	-186
262.225	268
262.287	126
262.349	885
262.411	163
262.472	574
262.534	302
262.596	1401
262.658	128
262.719	-942
262.781	287
262.843	1224
262.904	-373
262.966	-332
263.028	173
263.090	4310
263.151	9999
263.213	3297
263.275	1324
263.336	562
263.398	-128
263.459	-1199
263.521	-291
263.583	1347
263.644	237
263.706	-244
263.767	-847
263.829	261
263.891	-363
263.952	-585
264.014	-130
264.075	1139
264.137	2838
264.198	981
264.260	-493
264.321	460
264.383	1393
264.444	3852
264.506	101
264.567	77
264.629	1694
264.690	3182
264.752	573
264.813	26
264.875	-521
264.936	744
264.998	-468
265.059	-716
265.120	-170
265.182	703
265.243	6773
265.305	5679
265.366	851
265.427	713
265.489	49
265.550	-1004
265.611	-634
265.673	33
265.734	-354
265.795	-776
265.857	-809
265.918	-289
265.979	910
266.040	10582
266.102	7330
266.163	2729
266.224	833
266.286	384
266.347	-618
266.408	-112
266.469	-22
266.530	-678
266.592	-803
266.653	412
266.714	1152
266.775	-151
266.836	-608
266.898	-1254
266.959	-327
267.020	-117
267.081	88
267.142	-1005
267.203	-484
267.264	-1254
267.326	-58
267.387	-478
267.448	-1679
267.509	456
267.570	-591
267.631	-1279
267.692	-1107
267.753	-42
267.814	-950
267.875	-21
267.936	1359
267.997	375
268.058	150
268.119	-85
268.180	148
268.241	-467
268.302	-1308
268.363	88
268.424	-746
268.485	-67
268.546	-1575
268.607	-437
268.668	-797
268.729	41
268.790	-709
268.851	221
268.912	499
268.972	427
269.033	119
269.094	-720
269.155	-513
269.216	-557
269.277	-773
269.338	-86
269.398	-699
269.459	-1187
269.520	281
269.581	850
269.642	267
269.702	-651
269.763	201
269.824	-390
269.885	-763
269.945	786
270.006	-16
270.067	-497
270.128	-856
270.188	-551
270.249	-984
270.310	-1167
270.370	132
270.431	-714
270.492	-828
270.553	-329
270.613	603
270.674	2570
270.734	-330
270.795	39
270.856	643
270.916	-754
270.977	-366
271.038	61
271.098	-245
271.159	-92
271.219	-276
271.280	120
271.340	-82
271.401	-583
271.462	-96
271.522	384
271.583	-1683
271.643	114
271.704	-789
271.764	-579
271.825	1209
271.885	6062
271.946	6429
272.006	2283
272.066	3111
272.127	5683
272.187	1041
272.248	41
272.308	-297
272.369	3681
272.429	929
272.489	1097
272.550	465
272.610	1344
272.671	252
272.731	1536
272.791	322
272.852	13
272.912	464
272.972	-235
273.033	-813
273.093	-373
273.153	443
273.214	196
273.274	-754
273.334	3303
273.394	4859
273.455	977
273.515	2156
273.575	5689
273.635	1086
273.696	2553
273.756	4868
273.816	857
273.876	672
273.936	1854
273.997	2953
274.057	340
274.117	496
274.177	1468
274.237	7696
274.297	6054
274.358	2552
274.418	4494
274.478	2082
274.538	546
274.598	-1055
274.658	3039
274.718	3211
274.778	722
274.838	267
274.898	633
274.958	4111
275.018	5594
275.078	2669
275.138	610
275.198	419
275.258	109
275.318	454
275.378	1179
275.438	1310
275.498	664
275.558	1760
275.618	5529
275.678	3586
275.738	2439
275.798	1422
275.858	1223
275.918	357
275.978	-86
276.038	499
276.098	-24
276.157	788
276.217	3839
276.277	659
276.337	510
276.397	-774
276.457	84
276.517	-257
276.576	137
276.636	-730
276.696	327
276.756	2215
276.815	459
276.875	-655
276.935	70
276.995	-464
277.055	-82
277.114	-743
277.174	832
277.234	2012
277.293	509
277.353	-128
277.413	18
277.472	62
277.532	-129
277.592	487
277.651	1809
277.711	3101
277.771	1150
277.830	5337
277.890	4024
277.950	2572
278.009	9145
278.069	2464
278.128	3246
278.188	3216
278.248	1956
278.307	4545
278.367	1962
278.426	265
278.486	823
278.545	-884
278.605	299
278.664	-974
278.724	239
278.783	2181
278.843	6324
278.902	1185
278.962	278
279.021	264
279.081	852
279.140	-388
279.199	794
279.259	324
279.318	1003
279.378	856
279.437	2053
279.496	8853
279.556	23279
279.615	14851
279.675	3545
279.734	1583
279.793	3723
279.853	6562
279.912	2941
279.971	1007
280.031	724
280.090	2644
280.149	4631
280.208	3262
280.268	17256
280.327	14564
280.386	2718
280.445	2284
280.505	2447
280.564	918
280.623	566
280.682	1524
280.742	2416
280.801	-302
280.860	6
280.919	-62
280.978	-823
281.037	-642
281.097	-815
281.156	25
281.215	-199
281.274	-108
281.333	4473
281.392	1859
281.451	247
281.510	-472
281.569	-17
281.628	-539
281.688	-655
281.747	342
281.806	-716
281.865	-340
281.924	-387
281.983	-663
282.042	-437
282.101	-906
282.160	-253
282.219	-608
282.278	612
282.337	1752
282.396	948
282.454	-146
282.513	-76
282.572	3289
282.631	1567
282.690	172
282.749	-302
282.808	-187
282.867	93
282.926	476
282.985	-844
283.043	-885
283.102	-632
283.161	-1049
283.220	1724
283.279	3421
283.338	232
283.396	-525
283.455	-227
283.514	-503
283.573	679
283.631	209
283.690	-457
283.749	-98
283.808	871
283.866	371
283.925	-632
283.984	-118
284.043	1082
284.101	108
284.160	-576
284.219	-314
284.277	358
284.336	288
284.395	4367
284.453	3019
284.512	342
284.570	1043
284.629	1084
284.688	229
284.746	-109
284.805	851
284.863	1629
284.922	2398
284.981	2331
285.039	2877
285.098	7321
285.156	18318
285.215	35777
285.273	33725
285.332	19110
285.390	9194
285.449	5977
285.507	3632
285.566	1465
285.624	1716
285.683	1842
285.741	911
285.799	827
285.858	-654
285.916	436
285.975	-187
286.033	149
286.091	251
286.150	-505
286.208	-151
286.267	187
286.325	-162
286.383	464
286.442	-87
286.500	-479
286.558	514
286.616	7
286.675	905
286.733	351
286.791	-314
286.850	374
286.908	-209
286.966	1293
287.024	-114
287.083	-190
287.141	-722
287.199	190
287.257	952
287.315	-150
287.374	293
287.432	1915
287.490	718
287.548	-133
287.606	-327
287.664	-134
287.723	596
287.781	928
287.839	-560
287.897	139
287.955	262
288.013	962
288.071	2859
288.129	16872
288.187	43520
288.245	18200
288.303	4514
288.361	2772
288.419	1645
288.477	1615
288.535	762
288.593	683
288.651	383
288.709	118
288.767	-1272
288.825	187
288.883	-234
288.941	399
288.999	-603
289.057	-560
289.115	-564
289.173	14
289.231	-108
289.289	-335
289.346	-516
289.404	-357
289.462	478
289.520	450
289.578	-972
289.636	-273
289.694	-673
289.751	220
289.809	-870
289.867	-691
289.925	306
289.983	-661
290.040	-239
290.098	-583
290.156	-582
290.214	712
290.271	-1120
290.329	-243
290.387	-137
290.444	-858
290.502	-1158
290.560	-246
290.617	-540
290.675	-176
290.733	-1049
290.790	281
290.848	-721
290.906	-294
290.963	-101
291.021	-167
291.078	-289
291.136	-325
291.194	2330
291.251	5872
291.309	738
291.366	-240
291.424	-485
291.481	284
291.539	-361
291.596	-398
291.654	-1225
291.711	149
291.769	-361
291.826	90
291.884	-786
291.941	-515
291.999	-833
292.056	-340
292.114	-147
292.171	-94
292.228	-320
292.286	239
292.343	189
292.401	1029
292.458	-229
292.515	-390
292.573	-107
292.630	-99
292.687	431
292.745	5
292.802	197
292.859	3756
292.917	4915
292.974	2207
293.031	535
293.089	-358
293.146	-309
293.203	251
293.260	-225
293.318	-515
293.375	1208
293.432	728
293.489	-704
293.546	-209
293.604	-7
293.661	2910
293.718	7544
293.775	4364
293.832	1192
293.889	575
293.947	-327
294.004	1167
294.061	346
294.118	3200
294.175	5234
294.232	8289
294.289	2913
294.346	1746
294.403	608
294.460	659
294.517	-57
294.574	609
294.631	-45
294.688	1150
294.745	2467
294.802	10498
294.859	12301
294.916	4537
294.973	1487
295.030	1720
295.087	906
295.144	704
295.201	-367
295.258	1004
295.315	1231
295.372	3434
295.429	5659
295.486	2832
295.542	1631
295.599	5631
295.656	10523
295.713	7081
295.770	5845
295.827	1972
295.883	728
295.940	1442
295.997	1700
296.054	1724
296.111	507
296.167	-51
296.224	-817
296.281	-42
296.338	-283
296.394	444
296.451	-299
296.508	3497
296.564	5903
296.621	4692
296.678	8297
296.734	10836
296.791	4075
296.848	1835
296.904	2075
296.961	4571
297.018	7474
297.074	5466
297.131	2083
297.187	1354
297.244	1660
297.301	7469
297.357	11675
297.414	4416
297.470	1007
297.527	978
297.583	766
297.640	984
297.696	479
297.753	409
297.809	-97
297.866	96
297.922	84
297.979	-38
298.035	-407
298.092	281
298.148	3307
298.204	3989
298.261	1283
298.317	3698
298.374	8920
298.430	4729
298.486	1720
298.543	1221
298.599	1189
298.656	1393
298.712	2422
298.768	6048
298.824	4118
298.881	1382
298.937	529
298.993	502
299.050	641
299.106	1022
299.162	-319
299.218	356
299.275	61
299.331	602
299.387	1397
299.443	8039
299.500	8472
299.556	3220
299.612	1475
299.668	1059
299.724	1554
299.780	1988
299.837	374
299.893	2344
299.949	7461
300.005	8068
300.061	7459
300.117	12509
300.173	5551
300.229	2473
300.285	2871
300.341	3184
300.397	1183
300.453	688
300.510	737
300.566	336
300.622	1089
300.678	5333
300.734	9360
300.790	8468
300.845	8076
300.901	5848
300.957	7888
301.013	5854
301.069	1795
301.125	1913
301.181	1779
301.237	831
301.293	583
301.349	-131
301.405	101
301.461	201
301.516	476
301.572	946
301.628	1734
301.684	1962
301.740	2783
301.796	4358
301.851	2829
301.907	5291
301.963	6480
302.019	8896
302.074	22335
302.130	22365
302.186	10414
302.242	4057
302.297	1881
302.353	2284
302.409	5297
302.464	4943
302.520	3492
302.576	7827
302.631	9820
302.687	5803
302.743	1757
302.798	1322
302.854	-173
302.910	1531
302.965	647
303.021	3173
303.076	2189
303.132	3191
303.187	3986
303.243	1964
303.299	652
303.354	792
303.410	148
303.465	955
303.521	732
303.576	-593
303.632	422
303.687	3057
303.743	7258
303.798	6299
303.853	2169
303.909	1536
303.964	692
304.020	2319
304.075	2764
304.130	3535
304.186	5893
304.241	6401
304.297	3832
304.352	2545
304.358	2379
304.407	1039
304.449	1255
304.463	1326
304.518	1076
304.539	1066
304.573	1056
304.629	1051
304.630	1071
304.684	1927
304.720	4171
304.739	5328
304.794	8542
304.811	7461
304.850	4791
304.902	2125
304.905	1959
304.960	612
304.992	820
305.015	930
305.071	1202
305.083	998
305.126	328
305.173	296
305.181	283
305.236	418
305.264	7
305.292	-359
305.347	1078
305.354	1040
305.402	759
305.445	1323
305.457	1489
305.512	1923
305.535	1664
305.567	1231
305.622	1711
305.626	1809
305.678	3983
305.716	7008
305.733	8079
305.788	9692
305.807	8245
305.843	5651
305.897	7083
305.898	7097
305.953	7475
305.988	5508
306.008	4433
306.063	2684
306.078	2336
306.118	1512
306.168	1552
306.173	1562
306.228	563
306.259	840
306.283	1036
306.338	372
306.349	370
306.393	465
306.440	964
306.448	1032
306.503	988
306.530	1137
306.558	1687
306.613	3800
306.620	4258
306.668	6908
306.711	8253
306.723	8416
306.778	6648
306.801	5430
306.833	3656
306.888	1725
306.892	1614
306.943	1141
306.982	1074
306.997	933
307.052	701
307.072	813
307.107	1511
307.162	1805
307.163	1819
307.217	2825
307.253	3075
307.272	3210
307.327	3948
307.343	3812
307.381	3124
307.434	2243
307.436	2290
307.491	4766
307.524	7238
307.546	8061
307.600	8467
307.614	7565
307.655	4637
307.704	2662
307.710	2552
307.765	2855
307.795	3192
307.819	3758
307.874	6816
307.885	6866
307.929	5509
307.975	4135
307.984	4193
308.038	6105
308.065	7730
308.093	11596
308.148	23276
308.156	26123
308.202	43386
308.246	53544
308.257	52608
308.312	32166
308.336	23814
308.366	18012
308.421	10808
308.426	10280
308.475	6428
308.517	4401
308.530	4086
308.585	3629
308.607	3622
308.639	3509
308.694	3095
308.697	3136
308.748	5935
308.787	8865
308.803	8985
308.857	7356
308.877	6319
308.912	5183
308.967	4643
308.967	4650
309.021	5868
309.058	6904
309.076	8445
309.130	15433
309.148	18581
309.185	31910
309.238	54213
309.239	54405
309.293	62364
309.328	60163
309.348	52958
309.402	28470
309.418	22159
309.457	15727
309.508	10093
309.511	9834
309.566	7557
309.598	6668
309.620	6963
309.674	7793
309.688	8262
309.729	7977
309.778	6657
309.783	6517
309.837	4855
309.868	4323
309.892	5056
309.946	7106
309.959	7978
310.001	11611
310.049	14502
310.055	14051
310.109	8690
310.139	5537
310.163	4319
310.218	2665
310.229	2374
310.272	1783
310.319	1396
310.326	1391
310.381	1440
310.409	1471
310.435	1466
310.489	1427
310.499	1421
310.543	1631
310.589	2031
310.598	1960
310.652	1467
310.679	1110
310.706	1040
310.760	959
310.769	960
310.814	838
310.859	614
310.868	657
310.923	1050
310.948	1180
310.977	1240
311.031	1432
311.038	1466
311.085	1369
311.128	1193
311.139	1157
311.193	901
311.218	820
311.247	1087
311.301	1485
311.308	1553
311.356	1410
311.398	1177
311.410	1122
311.464	872
311.488	711
311.518	750
311.572	1021
311.578	1037
311.626	1954
311.668	2854
311.680	2759
311.734	2256
311.758	2016
311.788	2114
311.842	2306
311.847	2325
311.896	2215
311.937	2144
311.950	2195
312.004	2455
312.027	2550
312.058	2081
312.112	1269
312.117	1194
312.165	1273
312.207	1352
312.297	1162
312.386	2025
312.476	918
312.566	3180
312.656	906
312.745	697
312.835	874
312.925	2245
313.015	1454
313.104	1646
313.194	757
313.284	1437
313.374	1302
313.463	1706
313.553	883
313.643	821
313.732	824
313.822	818
313.912	1359
314.001	1174
314.091	669
314.180	2544
314.270	1596
314.360	3121
314.449	1022
314.539	905
314.628	1169
314.718	1470
314.808	940
314.897	1026
314.987	751
315.076	739
315.166	1160
315.255	1438
315.345	1604
315.434	1742
315.524	1090
315.613	1936
315.703	862
315.792	2830
315.881	3870
315.971	2551
316.060	2453
316.150	4928
316.239	4382
316.328	2023
316.418	678
316.507	1458
316.597	1066
316.686	1605
316.775	1757
316.865	5800
316.954	487
317.043	1398
317.133	106
317.222	464
317.311	455
317.400	315
317.490	1246
317.579	1281
317.668	1086
317.757	1857
317.847	2624
317.936	7520
318.025	5225
318.114	2981
318.203	1911
318.293	3563
318.382	4408
318.471	4669
318.560	5299
318.649	15060
318.738	3101
318.828	1883
318.917	1652
319.006	2966
319.095	4918
319.184	16760
319.273	9197
319.362	4656
319.451	536
319.540	907
319.629	1701
319.718	5452
319.807	3023
319.896	4069
319.985	20772
320.074	8610
320.163	1143
320.252	2631
320.341	2673
320.430	3077
320.519	2264
320.608	2287
320.697	960
320.786	1743
320.875	1136
320.964	2772
321.053	2695
321.142	4389
321.230	5061
321.319	3545
321.408	8494
321.497	5255
321.586	3649
321.675	5479
321.764	4324
321.852	2637
321.941	3834
322.030	4264
322.119	3256
322.207	8806
322.296	7857
322.385	3815
322.474	3159
322.562	10601
322.651	6209
322.740	3690
322.829	5199
322.917	5927
323.006	3602
323.095	3238
323.183	1713
323.272	4011
323.361	5413
323.449	19437
323.538	6534
323.626	11672
323.715	9197
323.804	3825
323.892	10301
323.981	7643
324.069	2455
324.158	6115
324.246	6345
324.335	2768
324.424	3457
324.512	2147
324.601	2226
324.689	4280
324.778	8258
324.866	4821
324.954	866
325.043	1826
325.131	2182
325.220	5754
325.308	5261
325.397	3435
325.485	2649
325.574	1458
325.662	838
325.750	1064
325.839	689
325.927	1039
326.015	746
326.104	2065
326.192	2390
326.280	666
326.369	170
326.457	2035
326.545	2216
326.634	1420
326.722	185
326.810	1172
326.898	520
326.987	1219
327.075	1657
327.163	2859
327.251	1177
327.340	2464
327.428	4599
327.516	1132
327.604	627
327.692	1054
327.781	569
327.869	1878
327.957	826
328.045	1501
328.133	429
328.221	1107
328.309	1219
328.397	518
328.485	834
328.574	1549
328.662	4456
328.750	3231
328.838	1372
328.926	1151
329.014	207
329.102	1336
329.190	3114
329.278	2682
329.366	300
329.454	1096
329.542	381
329.630	236
329.718	673
329.806	1104
329.893	1192
329.981	971
330.069	1377
330.157	5464
330.245	17532
330.333	9920
330.421	1943
330.509	1331
330.597	5408
330.684	5358
330.772	1911
330.860	2936
330.948	3494
331.036	2479
331.123	201
331.211	508
331.299	1218
331.387	3449
331.475	6345
331.562	1853
331.650	357
331.738	1018
331.825	560
331.913	585
332.001	517
332.089	1497
332.176	1965
332.264	5742
332.352	4867
332.439	904
332.527	758
332.614	960
332.702	964
332.790	1799
332.877	1940
332.965	6401
333.052	417
333.140	1441
333.228	2321
333.315	1063
333.403	831
333.490	3320
333.578	2428
333.665	2834
333.753	1721
333.840	775
333.928	713
334.015	4092
334.103	5964
334.190	20576
334.278	6332
334.365	2580
334.452	1304
334.540	1244
334.627	634
334.715	1950
334.802	3910
334.889	20358
334.977	24502
335.064	3770
335.151	522
335.239	2113
335.326	2144
335.413	9162
335.501	15915
335.588	2818
335.675	469
335.762	1722
335.850	3371
335.937	2620
336.024	5119
336.111	25214
336.199	12134
336.286	2905
336.373	792
336.460	691
336.547	368
336.635	1567
336.722	984
336.809	299
336.896	1072
336.983	6501
337.070	15276
337.157	23492
337.245	13872
337.332	11979
337.419	1266
337.506	1497
337.593	1815
337.680	4596
337.767	17079
337.854	5278
337.941	4859
338.028	5292
338.115	1402
338.202	2573
338.289	3980
338.376	14360
338.463	5685
338.550	8198
338.637	11209
338.724	2870
338.811	4465
338.898	1358
338.984	197
339.071	1009
339.158	1087
339.245	3392
339.332	2032
339.419	2628
339.506	3234
339.593	401
339.679	630
339.766	628
339.853	695
339.940	2570
340.027	740
340.113	941
340.200	256
340.287	801
340.374	414
340.460	1727
340.547	701
340.634	1504
340.720	5405
340.807	4010
340.894	531
340.980	493
341.067	-1
341.154	814
341.240	-211
341.327	3070
341.414	618
341.500	734
341.587	886
341.674	1165
341.760	1278
341.847	2293
341.933	422
342.020	625
342.106	354
342.193	798
342.279	855
342.366	1590
342.452	1564
342.539	977
342.625	1390
342.712	6636
342.798	2463
342.885	1281
342.971	-113
343.058	316
343.144	-1012
343.230	872
343.317	-448
343.403	-96
343.490	-230
343.576	340
343.662	-96
343.749	66
343.835	411
343.921	1986
344.008	9959
344.094	28095
344.180	6762
344.267	2331
344.353	6426
344.439	8657
344.525	2780
344.612	1319
344.698	1624
344.784	888
344.870	179
344.957	500
345.043	1755
345.129	1170
345.215	1610
345.301	599
345.387	24
345.474	677
345.560	-106
345.646	287
345.732	329
345.818	243
345.904	353
345.990	1169
346.076	158
346.162	1573
346.249	215
346.335	504
346.421	31
346.507	2324
346.593	10165
346.679	2563
346.765	502
346.851	773
346.937	-969
347.023	616
347.108	-154
347.194	1001
347.280	-314
347.366	930
347.452	1801
347.538	11666
347.624	10598
347.710	8676
347.796	1250
347.882	759
347.967	1
348.053	645
348.139	44
348.225	213
348.311	184
348.397	148
348.482	1
348.568	1233
348.654	-136
348.740	171
348.825	-828
348.911	1907
348.997	4813
349.083	12947
349.168	1856
349.254	311
349.340	678
349.425	239
349.511	112
349.597	1230
349.682	1648
349.768	6530
349.854	3993
349.939	1226
350.025	-699
350.110	985
350.196	357
350.282	-121
350.367	64
350.453	1194
350.538	184
350.624	491
350.709	-333
350.795	764
350.880	-326
350.966	908
351.051	341
351.137	1407
351.222	277
351.308	2062
351.393	5697
351.479	1549
351.564	281
351.649	711
351.735	315
351.820	17
351.906	167
351.991	1045
352.076	2647
352.162	6797
352.247	1087
352.332	462
352.418	553
352.503	1940
352.588	9095
352.673	7965
352.759	1079
352.844	836
352.929	-399
353.014	632
353.100	111
353.185	1156
353.270	1516
353.355	2691
353.441	285
353.526	289
353.611	890
353.696	2011
353.781	312
353.866	-75
353.952	12
354.037	1345
354.122	4354
354.207	4420
354.292	1074
354.377	614
354.462	-35
354.547	607
354.632	473
354.717	1512
354.802	1318
354.887	472
354.972	-167
355.057	234
355.142	-214
355.227	727
355.312	-83
355.397	2246
355.482	6413
355.567	3457
355.652	1411
355.737	2664
355.822	7153
355.907	7846
355.991	1415
356.076	-51
356.161	-47
356.246	-453
356.331	601
356.416	1010
356.501	13259
356.585	15468
356.670	1453
356.755	2230
356.840	729
356.924	7787
357.009	33054
357.094	15267
357.179	1749
357.263	1895
357.348	706
357.433	1445
357.517	755
357.602	548
357.687	-278
357.771	1130
357.856	4607
357.941	3485
358.025	5753
358.110	31459
358.195	16310
358.279	2042
358.364	502
358.448	5104
358.533	15411
358.617	11500
358.702	11767
358.787	4971
358.871	1742
358.956	1799
359.040	-32
359.125	-114
359.209	-765
359.294	1995
359.378	3980
359.462	2099
359.547	-49
359.631	568
359.716	-921
359.800	50
359.885	499
359.969	551
360.053	37
360.138	-12
360.222	407
360.306	2007
360.391	1275
360.475	2455
360.559	5529
360.644	6025
360.728	3464
360.812	7051
360.896	21975
360.981	9395
361.065	4612
361.149	1562
361.233	74
361.318	755
361.402	354
361.486	1157
361.570	-418
361.654	968
361.739	1873
361.823	12203
361.907	22827
361.991	3600
362.075	1326
362.159	3457
362.243	3029
362.327	2121
362.411	4180
362.495	2363
362.580	355
362.664	611
362.748	-378
362.832	912
362.916	1153
363.000	6976
363.084	17505
363.168	26308
363.252	6530
363.336	2526
363.420	2563
363.503	13513
363.587	19156
363.671	3818
363.755	179
363.839	2494
363.923	-447
364.007	2017
364.091	2641
364.175	3522
364.258	23527
364.342	16619
364.426	15304
364.510	8954
364.594	4099
364.677	5040
364.761	16562
364.845	14319
364.929	3493
365.013	3220
365.096	1820
365.180	2840
365.264	4113
365.347	24268
365.431	11064
365.515	2422
365.598	-292
365.682	1319
365.766	693
365.849	3349
365.933	-91
366.017	2180
366.100	624
366.184	-129
366.267	392
366.351	280
366.435	-792
366.518	-63
366.602	-146
366.685	609
366.769	-277
366.852	1985
366.936	2519
367.019	1754
367.103	193
367.186	4543
367.270	310
367.353	-868
367.436	-10
367.520	134
367.603	11
367.687	-110
367.770	1600
367.853	1658
367.937	5133
368.020	9571
368.104	838
368.187	1341
368.270	2369
368.353	1938
368.437	2074
368.520	9596
368.603	4806
368.687	5248
368.770	11890
368.853	2766
368.936	2840
369.020	3191
369.103	140
369.186	328
369.269	-325
369.352	1073
369.436	1773
369.519	1093
369.602	-1066
369.685	806
369.768	51
369.851	802
369.934	-988
370.018	275
370.101	-190
370.184	3021
370.267	703
370.350	1520
370.433	2358
370.516	8615
370.599	10978
370.682	2535
370.765	6134
370.848	8332
370.931	14146
371.014	6799
371.097	-358
371.180	192
371.263	443
371.346	-1345
371.429	-305
371.511	202
371.594	118
371.677	2005
371.760	4194
371.843	2149
371.926	8900
372.009	25890
372.091	10378
372.174	4707
372.257	12981
372.340	5571
372.423	3410
372.505	6230
372.588	1559
372.671	4113
372.754	13537
372.836	8556
372.919	5232
373.002	15323
373.085	2888
373.167	1696
373.250	3643
373.332	13218
373.415	15035
373.498	36557
373.580	14602
373.663	15366
373.746	23189
373.828	5533
373.911	2361
373.993	2256
374.076	11229
374.159	14172
374.241	3801
374.324	12016
374.406	8384
374.489	8930
374.571	29583
374.654	13134
374.736	3979
374.819	18169
374.901	24862
374.983	29229
375.066	4676
375.148	935
375.231	8389
375.313	21873
375.395	8800
375.478	1264
375.560	116
375.643	1130
375.725	3333
375.807	22406
375.890	20198
375.972	8300
376.054	3921
376.136	8222
376.219	2588
376.301	5250
376.383	20467
376.465	8111
376.548	2911
376.630	4819
376.712	16536
376.794	9143
376.877	221
376.959	-36
377.041	-6
377.123	2286
377.205	2905
377.287	766
377.369	-551
377.452	93
377.534	-1019
377.616	-69
377.698	-362
377.780	-258
377.862	93
377.944	667
378.026	-932
378.108	2
378.190	-585
378.272	-182
378.354	-421
378.436	263
378.518	127
378.600	5903
378.682	3640
378.764	6987
378.846	6593
378.928	1436
379.010	999
379.091	1365
379.173	331
379.255	113
379.337	569
379.419	2993
379.501	11893
379.583	5044
379.664	92
379.746	2120
379.828	7318
379.910	10146
379.991	10462
380.073	1723
380.155	-237
380.237	529
380.318	-721
380.400	597
380.482	1381
380.564	1873
380.645	2454
380.727	2367
380.809	1072
380.890	269
380.972	-229
381.053	309
381.135	456
381.217	1917
381.298	8464
381.380	4116
381.461	1909
381.543	16018
381.624	21068
381.706	5097
381.787	1234
381.869	2046
381.951	4899
382.032	25954
382.113	19070
382.195	3343
382.276	1676
382.358	3975
382.439	13195
382.521	15615
382.602	27077
382.684	12286
382.765	19232
382.846	17658
382.928	18115
383.009	9909
383.090	5137
383.172	22523
383.253	43406
383.334	17313
383.416	22300
383.497	12495
383.578	3362
383.659	5129
383.741	18938
383.822	62145
383.903	34762
383.984	12461
384.066	28092
384.147	18242
384.228	3444
384.309	2068
384.390	638
384.471	570
384.553	539
384.634	1730
384.715	1655
384.796	1060
384.877	413
384.958	6609
385.039	9059
385.120	2687
385.201	1443
385.282	2158
385.363	1787
385.444	1352
385.525	1997
385.606	9564
385.687	9759
385.768	2196
385.849	1721
385.930	10559
386.011	22253
386.092	6485
386.173	404
386.254	1083
386.335	861
386.416	597
386.496	3615
386.577	8944
386.658	3935
386.739	691
386.820	1861
386.901	883
386.981	1278
387.062	548
387.143	504
387.224	6934
387.304	8087
387.385	3044
387.466	-401
387.547	3320
387.627	421
387.708	2383
387.789	13049
387.869	18523
387.950	4863
388.031	799
388.111	-1390
388.192	4072
388.273	5490
388.353	3152
388.434	586
388.514	1889
388.595	12105
388.676	18085
388.756	8145
388.837	7146
388.917	4263
388.998	-833
389.078	1205
389.159	533
389.239	-1083
389.320	1562
389.400	-509
389.480	2827
389.561	7473
389.641	5307
389.722	146
389.802	1523
389.883	2855
389.963	10380
390.043	7085
390.124	1749
390.204	1104
390.284	9732
390.365	5421
390.445	7192
390.525	14978
390.605	12170
390.686	4320
390.766	1079
390.846	557
390.927	109
391.007	-1378
391.087	928
391.167	-16
391.247	-215
391.328	1443
391.408	3045
391.488	1445
391.568	-817
391.648	-48
391.728	1589
391.808	934
391.888	-219
391.969	3334
392.049	7186
392.129	3358
392.209	3279
392.289	9146
392.369	6122
392.449	5586
392.529	2756
392.609	1955
392.689	2798
392.769	8065
392.849	9102
392.929	5623
393.009	14588
393.089	9607
393.169	8002
393.248	20498
393.328	100629
393.408	125881
393.488	34145
393.568	6995
393.648	4162
393.728	1615
393.807	1063
393.887	1483
393.967	1262
394.047	1024
394.127	2703
394.206	3919
394.286	15643
394.366	69185
394.446	87135
394.525	22303
394.605	6104
394.685	3105
394.764	8502
394.844	14413
394.924	11780
395.003	2232
395.083	1703
395.163	699
395.242	1712
395.322	520
395.402	-734
395.481	1040
395.561	4253
395.640	16445
395.720	12930
395.799	17705
395.879	16447
395.958	6445
396.038	24154
396.117	92174
396.197	112019
396.276	40242
396.356	12332
396.435	7446
396.515	5486
396.594	3627
396.673	6590
396.753	24010
396.832	98837
396.912	83583
396.991	18537
397.070	4289
397.150	1370
397.229	1920
397.308	1630
397.388	3329
397.467	2599
397.546	-26
397.625	-1347
397.705	885
397.784	1070
397.863	-979
397.942	669
398.022	-698
398.101	3451
398.180	15449
398.259	9189
398.338	1371
398.417	201
398.497	-292
398.576	1039
398.655	-1407
398.734	352
398.813	82
398.892	3216
398.971	16587
399.050	8762
399.129	-587
399.208	34
399.287	38
399.366	-399
399.445	-1058
399.524	353
399.603	-1806
399.682	347
399.761	2358
399.840	16847
399.919	14702
399.998	1508
400.077	-910
400.156	-1867
400.235	1007
400.313	197
400.392	-1664
400.471	3603
400.550	5855
400.629	338
400.708	-273
400.786	-139
400.865	2487
400.944	3244
401.023	1648
401.102	-697
401.180	-602
401.259	-44
401.338	-801
401.416	674
401.495	-1595
401.574	1622
401.652	-1003
401.731	-119
401.810	-289
401.888	-178
401.967	-2019
402.046	-186
402.124	-175
402.203	-233
402.281	92
402.360	325
402.438	3816
402.517	2879
402.596	67
402.674	680
402.753	-755
402.831	165
402.910	-250
402.988	2053
403.066	9332
403.145	6005
403.223	1665
403.302	7624
403.380	5485
403.459	6381
403.537	1259
403.615	288
403.694	-2348
403.772	470
403.850	-1383
403.929	-579
404.007	-1954
404.085	1375
404.164	-279
404.242	-674
404.320	1482
404.398	6631
404.477	6466
404.555	20543
404.633	20926
404.711	5231
404.789	2367
404.868	-318
404.946	-1176
405.024	123
405.102	-1362
405.180	-895
405.258	-2609
405.336	304
405.415	-1681
405.493	1186
405.571	101
405.649	-630
405.727	-2026
405.805	231
405.883	-314
405.961	167
406.039	-351
406.117	-711
406.195	-534
406.273	2348
406.351	17065
406.429	11824
406.507	1036
406.585	-7
406.663	-1063
406.740	169
406.818	-546
406.896	-622
406.974	-718
407.052	-849
407.130	8582
407.208	16412
407.285	2469
407.363	-1024
407.441	-1618
407.519	-261
407.596	-694
407.674	918
407.752	5314
407.830	7488
407.907	2183
407.985	-202
408.063	-1038
408.141	-843
408.218	592
408.296	157
408.373	-1417
408.451	222
408.529	-1005
408.606	-1108
408.684	-1491
408.762	-668
408.839	-1354
408.917	-443
408.994	-1276
409.072	-443
409.149	-1262
409.227	-527
409.304	-1044
409.382	-349
409.459	-1543
409.537	531
409.614	-681
409.692	-427
409.769	-1986
409.846	385
409.924	1446
410.001	44
410.079	-672
410.156	403
410.233	-772
410.311	-988
410.388	-1647
410.465	-322
410.543	-1020
410.620	61
410.697	-820
410.775	66
410.852	-2525
410.929	-76
411.006	-883
411.083	-272
411.161	-306
411.238	704
411.315	-558
411.392	-255
411.469	-757
411.547	-1453
411.624	-2041
411.701	-1035
411.778	-487
411.855	-632
411.932	-1748
412.009	-791
412.086	-276
412.163	-935
412.240	-1152
412.317	377
412.394	-1028
412.471	-545
412.548	-2084
412.625	-743
412.702	-693
412.779	414
412.856	-360
412.933	-1426
413.010	-1610
413.087	-42
413.164	1649
413.241	5606
413.318	-822
413.395	-187
413.471	-1040
413.548	-278
413.625	-703
413.702	-1625
413.779	-1074
413.855	-716
413.932	-1843
414.009	-1218
414.086	-1361
414.162	-568
414.239	-759
414.316	2386
414.393	8358
414.469	2137
414.546	-953
414.623	-642
414.699	-1808
414.776	-727
414.853	-1991
414.929	-1197
415.006	-1024
415.082	-271
415.159	-776
415.236	-731
415.312	-340
415.389	-10
415.465	-892
415.542	-364
415.618	-1746
415.695	741
415.771	-809
415.848	-908
415.924	-1289
416.000	-848
416.077	-28
416.153	-1725
416.230	-1853
416.306	-623
416.383	-1003
416.459	-957
416.535	-1767
416.612	-886
416.688	-1281
416.764	-1031
416.841	-2321
416.917	-844
416.993	-341
417.069	-449
417.146	-1223
417.222	9
417.298	-1040
417.374	-802
417.451	-881
417.527	-683
417.603	-1380
417.679	-380
417.755	-750
417.831	-1829
417.908	-961
417.984	-1090
418.060	-2268
418.136	-473
418.212	-316
418.288	-6
418.364	-1198
418.440	-1285
418.516	-779
418.592	388
418.668	722
418.744	1777
418.820	-115
418.896	225
418.972	-1933
419.048	-794
419.124	-8
419.200	-842
419.276	-984
419.352	-1452
419.428	-1447
419.504	-1374
419.579	-1003
419.655	-655
419.731	-1303
419.807	-71
419.883	1194
419.959	1123
420.034	-1119
420.110	-334
420.186	3997
420.262	4771
420.337	-421
420.413	-1127
420.489	-1619
420.565	-190
420.640	-1910
420.716	-696
420.792	-1559
420.867	178
420.943	-1328
421.019	-807
421.094	-1525
421.170	-439
421.245	-1607
421.321	-751
421.397	-2219
421.472	57
421.548	1901
421.623	1657
421.699	-778
421.774	-161
421.850	-1542
421.925	129
422.001	-117
422.076	21
422.152	-478
422.227	836
422.302	1899
422.378	2488
422.453	4367
422.529	15523
422.604	44776
422.679	79295
422.755	55775
422.830	20930
422.905	7130
422.981	3569
423.056	1176
423.131	1505
423.207	26
423.282	235
423.357	783
423.432	11
423.508	235
423.583	1744
423.658	660
423.733	46
423.808	-561
423.883	-130
423.959	-1006
424.034	-389
424.109	-349
424.184	-711
424.259	-1776
424.334	-695
424.409	-1982
424.484	-1125
424.559	-827
424.634	-311
424.709	-558
424.784	-22
424.859	-1009
424.934	-912
425.009	2326
425.084	6092
425.159	4
425.234	-138
425.309	-2033
425.384	-300
425.459	187
425.534	31
425.609	-1652
425.683	-411
425.758	-1969
425.833	-830
425.908	-677
425.983	707
426.058	5273
426.132	2652
426.207	-1558
426.282	1152
426.357	-535
426.431	-556
426.506	-520
426.581	-1089
426.655	-1488
426.730	-784
426.805	-2588
426.879	143
426.954	-891
427.029	-303
427.103	4375
427.178	14729
427.253	6440
427.327	49
427.402	-1054
427.476	2485
427.551	316
427.625	319
427.700	-927
427.774	-1350
427.849	-1085
427.923	-894
427.998	-1683
428.072	-865
428.147	-80
428.221	4193
428.296	15468
428.370	8979
428.444	-193
428.519	222
428.593	1603
428.667	2660
428.742	2590
428.816	2849
428.890	8843
428.965	18369
429.039	4919
429.113	4294
429.188	203
429.262	-1036
429.336	-580
429.410	2315
429.485	956
429.559	2242
429.633	1111
429.707	297
429.781	-46
429.855	11231
429.930	19981
430.004	9636
430.078	16010
430.152	15057
430.226	19108
430.300	23978
430.374	2186
430.448	1425
430.522	2265
430.596	15536
430.670	9760
430.744	14794
430.818	27002
430.892	4786
430.966	-1348
431.040	-287
431.114	-2116
431.188	-1259
431.262	-1222
431.336	-1280
431.410	328
431.484	2803
431.557	2392
431.631	-1007
431.705	-1101
431.779	727
431.853	12366
431.927	10557
432.000	-309
432.074	-902
432.148	-393
432.222	-879
432.295	-1941
432.369	-960
432.443	-1368
432.516	4113
432.590	15272
432.664	6150
432.737	-984
432.811	-1202
432.885	-2043
432.958	-523
433.032	-2081
433.106	-1074
433.179	-1576
433.253	-1448
433.326	-1808
433.400	-926
433.473	-1593
433.547	-2039
433.620	-1960
433.694	-837
433.767	-888
433.841	-581
433.914	-1305
433.988	-1002
434.061	-1543
434.134	-1083
434.208	-1890
434.281	-967
434.355	-1661
434.428	-735
434.501	-1213
434.575	-796
434.648	-1561
434.721	-1124
434.795	-2503
434.868	-1008
434.941	-2272
435.014	-1501
435.088	-1915
435.161	-584
435.234	-1540
435.307	121
435.381	-1223
435.454	-608
435.527	-1276
435.600	-827
435.673	-1266
435.746	-1373
435.819	-1460
435.892	-749
435.966	-1710
436.039	-1270
436.112	-660
436.185	-1200
436.258	-1570
436.331	-1666
436.404	-2349
436.477	-294
436.550	-1752
436.623	-817
436.696	-2171
436.769	-1921
436.842	-1623
436.915	-879
436.987	-1449
437.060	-359
437.133	-1667
437.206	-1425
437.279	-1904
437.352	-1422
437.425	-2081
437.498	-774
437.570	-1149
437.643	313
437.716	-1311
437.789	-1641
437.861	-1604
437.934	273
438.007	-1075
438.080	-973
438.152	-1292
438.225	199
438.298	4809
438.370	23142
438.443	10090
438.516	745
438.588	-1584
438.661	-1323
438.734	-1574
438.806	-1467
438.879	-1081
438.951	-1014
439.024	-426
439.096	-1413
439.169	-1815
439.241	-215
439.314	-2095
439.386	-711
439.459	-497
439.531	-261
439.604	-1420
439.676	-686
439.749	-1973
439.821	-493
439.893	-1582
439.966	-1225
440.038	-1931
440.110	-639
440.183	-1794
440.255	-1584
440.327	-1177
440.400	1984
440.472	13426
440.544	9637
440.617	-909
440.689	945
440.761	-687
440.833	1034
440.905	-184
440.978	-669
441.050	-1702
441.122	-1235
441.194	-1735
441.266	-854
441.338	-1362
441.411	-462
441.483	1960
441.555	6065
441.627	112
441.699	124
441.771	-803
441.843	-1070
441.915	-762
441.987	-1027
442.059	-1170
442.131	-1083
442.203	-233
442.275	-392
442.347	-96
442.419	252
442.491	4679
442.563	17411
442.635	7948
442.706	3462
442.778	2828
442.850	-611
442.922	-1529
442.994	-262
443.066	-346
443.137	200
443.209	-1330
443.281	-289
443.353	296
443.425	7773
443.496	30576
443.568	33191
443.640	11258
443.711	1836
443.783	-1074
443.855	-201
443.926	-1321
443.998	-822
444.070	-763
444.141	-404
444.213	-394
444.285	458
444.356	-627
444.428	-514
444.499	-1777
444.571	-1469
444.642	-1429
444.714	-594
444.785	-1044
444.857	142
444.928	2338
445.000	1694
445.071	1187
445.143	2608
445.214	-123
445.285	1615
445.357	6645
445.428	19510
445.500	51943
445.571	35289
445.642	16562
445.714	6332
445.785	5840
445.856	624
445.928	183
445.999	-259
446.070	-441
446.141	453
446.213	751
446.284	-628
446.355	-945
446.426	-266
446.497	-1490
446.569	347
446.640	211
446.711	195
446.782	-1745
446.853	-961
446.924	-641
446.995	-778
447.066	-1078
447.138	229
447.209	-590
447.280	-1472
447.351	-1655
447.422	-1271
447.493	-1099
447.564	-178
447.635	-1339
447.706	-261
447.777	-1426
447.847	-902
447.918	-2214
447.989	-370
448.060	-786
448.131	2121
448.202	1393
448.273	290
448.344	-758
448.414	-135
448.485	-2288
448.556	-1110
448.627	-1719
448.698	-63
448.768	-2014
448.839	-585
448.910	-342
448.981	722
449.051	-877
449.122	-456
449.193	-1092
449.263	-717
449.334	-2046
449.405	-344
449.475	-359
449.546	169
449.616	-532
449.687	258
449.758	-1271
449.828	-739
449.899	-1705
449.969	-1013
450.040	-1410
450.110	95
450.181	-802
450.251	-1226
450.322	-1540
450.392	-441
450.463	-1379
450.533	-423
450.604	-1130
450.674	-867
450.744	-744
450.815	-737
450.885	-540
450.955	-143
451.026	-1088
451.096	-874
451.166	-926
451.237	860
451.307	3614
451.377	794
451.447	-1367
451.518	-919
451.588	-737
451.658	-831
451.728	-655
451.799	4017
451.869	4535
451.939	260
452.009	-749
452.079	-1180
452.149	-101
452.219	143
452.289	4669
452.360	3240
452.430	-709
452.500	-562
452.570	-925
452.640	1157
452.710	1859
452.780	6037
452.850	3200
452.920	2499
452.990	-503
453.060	290
453.129	37
453.199	775
453.269	3876
453.339	11488
453.409	19144
453.479	19296
453.549	29374
453.619	33816
453.688	11573
453.758	1637
453.828	-165
453.898	386
453.968	-370
454.037	-68
454.087	-477
454.107	-659
454.168	-74
454.177	-0
454.247	-1156
454.249	-1114
454.316	-420
454.330	-395
454.386	-332
454.411	563
454.456	1690
454.492	2982
454.525	4072
454.574	2114
454.595	1292
454.655	-1064
454.665	-1431
454.734	781
454.736	822
454.804	1133
454.817	2185
454.873	5597
454.898	5637
454.943	5258
454.979	3203
455.013	1608
455.060	676
455.082	462
455.141	1595
455.152	1749
455.221	5117
455.222	5264
455.291	9941
455.303	9744
455.360	8248
455.384	11754
455.430	16421
455.465	12905
455.499	9663
455.546	7792
455.569	6675
455.627	3184
455.638	2661
455.707	21
455.708	35
455.777	-749
455.789	-540
455.846	587
455.869	358
455.916	-158
455.950	140
455.985	364
456.031	125
456.054	-78
456.112	118
456.124	220
456.193	-158
456.193	-175
456.262	555
456.274	506
456.332	248
456.355	497
456.401	745
456.436	644
456.470	574
456.516	593
456.540	562
456.597	-651
456.609	-848
456.678	159
456.678	149
456.747	-360
456.759	-472
456.817	-582
456.840	-375
456.886	-432
456.920	-198
456.955	332
457.001	-155
457.024	-561
457.082	446
457.093	726
457.162	402
457.163	424
457.232	1885
457.243	1626
457.301	122
457.324	175
457.370	476
457.405	510
457.439	559
457.485	717
457.508	797
457.566	479
457.577	438
457.646	1230
457.647	1238
457.715	1294
457.727	1512
457.784	3337
457.808	3994
457.853	4480
457.889	6020
457.922	6260
457.969	3810
457.991	3560
458.050	4707
458.060	5084
458.129	8861
458.130	8992
458.198	9259
458.211	8430
458.267	3891
458.292	2718
458.336	2032
458.372	1242
458.405	1742
458.453	3238
458.474	4395
458.533	8673
458.543	9289
458.611	16164
458.614	16346
458.680	9296
458.694	7208
458.749	3462
458.775	2456
458.818	1484
458.855	1144
458.887	1157
458.936	1057
458.955	990
459.016	1304
459.024	1348
459.093	1026
459.097	1061
459.162	1574
459.177	1494
459.230	1305
459.257	1731
459.299	2097
459.338	1788
459.368	1752
459.418	2199
459.437	2063
459.499	1251
459.505	1245
459.574	1433
459.579	1419
459.643	676
459.659	668
459.711	1313
459.740	1574
459.780	1738
459.820	1812
459.849	1878
459.900	1782
459.917	1634
459.981	2285
459.986	2347
460.054	1331
460.061	1421
460.123	1991
460.141	1893
460.191	2442
460.222	2935
460.260	3010
460.302	2956
460.328	2849
460.382	3182
460.397	3264
460.462	2551
460.465	2556
460.534	3562
460.543	3673
460.602	9908
460.623	12381
460.671	21416
460.703	28952
460.739	26989
460.783	23540
460.808	19693
460.864	4701
460.876	3660
460.944	2501
460.945	2491
461.013	2165
461.024	2214
461.081	2302
461.104	2221
461.150	2172
461.184	2374
461.218	2054
461.264	1267
461.286	1477
461.345	2592
461.355	2642
461.423	2404
461.425	2396
461.491	2090
461.505	2127
461.559	4169
461.585	5207
461.628	10232
461.665	14875
461.696	16863
461.745	21116
461.764	18368
461.825	5414
461.832	5011
461.901	3222
461.905	3111
461.969	2647
461.985	2679
462.037	2883
462.065	2662
462.105	2725
462.145	3316
462.173	5123
462.225	7986
462.241	8886
462.305	13964
462.310	13586
462.378	6429
462.385	5535
462.446	3597
462.465	3074
462.514	2755
462.545	2824
462.582	2984
462.625	2940
462.650	2612
462.705	2088
462.718	2238
462.785	3055
462.786	3090
462.854	5108
462.865	5418
462.922	6537
462.945	7144
462.990	5571
463.025	3802
463.058	3332
463.104	2994
463.126	2763
463.184	2032
463.194	2179
463.262	3258
463.264	3302
463.330	2802
463.344	2693
463.398	3416
463.424	3647
463.466	3426
463.504	3362
463.533	3688
463.583	3940
463.601	3842
463.663	3706
463.669	3820
463.737	5081
463.743	5207
463.805	8178
463.823	8979
463.873	15056
463.903	19016
463.940	20966
463.982	23267
464.008	18661
464.062	7728
464.076	6995
464.142	3141
464.144	3125
464.211	3359
464.221	3363
464.279	2876
464.301	2725
464.347	3607
464.381	4199
464.414	4352
464.461	4810
464.482	5391
464.540	6828
464.550	6580
464.617	4438
464.620	4365
464.685	5081
464.699	5253
464.753	5827
464.779	5938
464.820	6719
464.859	7760
464.888	7755
464.938	7368
464.956	7555
465.018	8501
465.023	8347
465.091	5694
465.098	5465
465.158	6584
465.177	6800
465.226	5874
465.257	5433
465.293	5680
465.336	5785
465.361	6189
465.416	7250
465.428	7828
465.495	10755
465.496	10824
465.563	18731
465.575	20135
465.631	26646
465.654	29452
465.698	18291
465.734	8403
465.765	7423
465.813	6227
465.833	5979
465.893	5413
465.900	5418
465.968	5368
465.972	5347
466.035	4848
466.052	4750
466.102	5176
466.131	5337
466.170	5537
466.210	5821
466.237	6003
466.290	6245
466.304	6310
466.369	6584
466.372	6623
466.439	7346
466.449	7446
466.506	7629
466.528	7683
466.573	10450
466.607	12487
466.641	19106
466.687	28274
466.708	32062
466.766	42557
466.775	39271
466.842	13749
466.845	12511
466.909	8440
466.925	7494
466.977	7587
467.004	7652
467.044	7857
467.083	8007
467.111	8693
467.163	9970
467.178	10219
467.242	11139
467.245	11127
467.312	10462
467.321	10354
467.379	9675
467.400	9402
467.446	10667
467.480	11550
467.559	10465
467.638	7869
467.717	8796
467.796	8859
467.875	9699
467.955	9459
468.034	14230
468.113	32806
468.192	51874
468.271	15747
468.350	9434
468.429	8972
468.508	9307
468.588	8451
468.667	9049
468.746	9216
468.825	8471
468.904	6923
468.983	9628
469.062	13474
469.141	17792
469.220	7551
469.299	7921
469.378	7153
469.456	9419
469.535	8315
469.614	8891
469.693	8452
469.772	12438
469.851	15784
469.930	11552
470.009	6854
470.088	7735
470.166	6657
470.245	8731
470.324	8478
470.403	8190
470.482	6400
470.560	8317
470.639	6891
470.718	8779
470.797	7176
470.875	8864
470.954	11302
471.033	14450
471.111	6788
471.190	6297
471.269	5275
471.347	6105
471.426	7580
471.505	8490
471.583	8006
471.662	7593
471.740	5805
471.819	7146
471.898	6490
471.976	6784
472.055	5878
472.133	8444
472.212	10230
472.290	12294
472.369	6680
472.447	6734
472.526	5082
472.604	7118
472.683	6546
472.761	7317
472.839	5967
472.918	5934
472.996	5766
473.075	8768
473.153	6710
473.231	6818
473.310	6660
473.388	7860
473.466	6110
473.545	7111
473.623	7332
473.701	8432
473.780	5853
473.858	6015
473.936	7321
474.014	7045
474.093	6597
474.171	10255
474.249	15031
474.327	10887
474.405	4843
474.484	5878
474.562	4780
474.640	5341
474.718	5316
474.796	7656
474.874	5143
474.952	5339
475.030	5801
475.108	6221
475.187	5913
475.265	6310
475.343	8747
475.421	9721
475.499	6107
475.577	7074
475.655	7726
475.733	15903
475.811	30843
475.889	28169
475.966	19659
476.044	7287
476.122	6467
476.200	8694
476.278	7892
476.356	5735
476.434	5257
476.512	7435
476.590	8279
476.667	9460
476.745	5016
476.823	6637
476.901	5945
476.979	7030
477.056	5313
477.134	6893
477.212	5638
477.290	6046
477.367	4984
477.445	5711
477.523	4466
477.601	6234
477.678	5205
477.756	7881
477.834	7441
477.911	5200
477.989	5524
478.066	5909
478.144	6342
478.222	7708
478.299	9171
478.377	8724
478.454	5210
478.532	5563
478.609	4946
478.687	6711
478.764	4097
478.842	5703
478.919	5293
478.997	5564
479.074	4728
479.152	7022
479.229	8271
479.307	6351
479.384	3483
479.461	4650
479.539	4864
479.616	6952
479.694	4818
479.771	6089
479.848	6123
479.926	8379
480.003	10103
480.080	5557
480.157	4625
480.235	5227
480.312	5265
480.389	6052
480.467	9541
480.544	13566
480.621	6321
480.698	6108
480.775	6836
480.853	6740
480.930	4594
481.007	7234
481.084	6486
481.161	8384
481.238	6424
481.315	5488
481.392	3747
481.470	5938
481.547	5684
481.624	5800
481.701	5305
481.778	5551
481.855	6363
481.932	9497
482.009	17137
482.086	13138
482.163	4669
482.240	7206
482.317	10936
482.393	10378
482.470	5525
482.547	6288
482.624	4465
482.701	5657
482.778	4715
482.855	5145
482.932	4467
483.009	4057
483.085	5166
483.162	7485
483.239	6351
483.316	4746
483.393	4540
483.469	4770
483.546	4730
483.623	7183
483.699	5305
483.776	5698
483.853	6425
483.930	9442
484.006	22899
484.083	46472
484.160	20782
484.236	26889
484.313	20874
484.389	16413
484.466	13948
484.543	13915
484.619	12165
484.696	15675
484.772	14818
484.849	17003
484.925	12803
485.002	12813
485.078	13682
485.155	13754
485.231	12151
485.308	12716
485.384	11790
485.461	15551
485.537	24765
485.614	33410
485.690	13252
485.766	11994
485.843	10965
485.919	15581
485.995	15331
486.072	11528
486.148	9912
486.224	11072
486.301	10689
486.377	14062
486.453	13138
486.530	13303
486.606	16717
486.682	18724
486.758	21836
486.835	27896
486.911	18397
486.987	31675
487.063	29671
487.139	30597
487.215	23102
487.292	14225
487.368	12212
487.444	12818
487.520	15712
487.596	16040
487.672	18504
487.748	39128
487.824	63710
487.900	29972
487.976	14056
488.052	13827
488.128	15301
488.204	13555
488.280	12012
488.356	15285
488.432	26750
488.508	47062
488.584	15888
488.660	10828
488.736	10654
488.812	11009
488.888	12766
488.964	15233
489.039	24442
489.115	40477
489.191	26346
489.267	11607
489.343	10785
489.418	9675
489.494	8697
489.570	8547
489.646	9073
489.722	10320
489.797	9134
489.873	15150
489.949	32848
490.024	31767
490.100	9388
490.176	8775
490.251	9692
490.327	12817
490.403	8577
490.478	7874
490.554	6837
490.629	7876
490.705	6434
490.781	8586
490.856	6638
490.932	8860
491.007	7757
491.083	8956
491.158	7729
491.234	10797
491.309	23711
491.385	29118
491.460	8204
491.536	8940
491.611	7135
491.686	8458
491.762	9205
491.837	16242
491.913	27650
491.988	38370
492.063	49139
492.139	18791
492.214	13277
492.289	6788
492.365	5883
492.440	7858
492.515	7505
492.590	8511
492.666	5000
492.741	8593
492.816	15780
492.891	9053
492.967	6430
493.042	6278
493.117	7302
493.192	8376
493.267	12504
493.342	42727
493.418	70206
493.493	13682
493.568	5511
493.643	6020
493.718	6902
493.793	10224
493.868	12040
493.943	8142
494.018	5545
494.093	5816
494.168	5670
494.243	5661
494.318	4517
494.393	5347
494.468	4554
494.543	4724
494.618	4520
494.693	5541
494.768	4728
494.842	5863
494.917	3507
494.992	5406
495.067	4271
495.142	4843
495.217	4675
495.292	5147
495.366	5053
495.441	7852
495.516	9391
495.591	12603
495.665	28992
495.740	76177
495.815	36999
495.890	9297
495.964	5922
496.039	8944
496.114	6552
496.188	8840
496.263	8184
496.338	7408
496.412	7707
496.487	8936
496.561	8327
496.636	8795
496.710	7163
496.785	9041
496.860	9732
496.934	7859
497.009	7033
497.083	7824
497.158	8521
497.232	8893
497.307	10801
497.381	9621
497.455	10337
497.530	16044
497.604	9984
497.679	11202
497.753	16836
497.827	23121
497.902	19475
497.976	23219
498.050	41030
498.125	166281
498.199	202582
498.273	30267
498.348	18590
498.422	16447
498.496	14486
498.570	14195
498.645	10983
498.719	12691
498.793	13615
498.867	21787
498.941	28018
499.016	62185
499.090	199645
499.164	84694
499.238	10456
499.312	8880
499.386	8605
499.460	9700
499.534	9448
499.609	11244
499.683	18468
499.757	18401
499.831	28658
499.905	125474
499.979	143974
500.053	23686
500.127	20220
500.201	12838
500.275	8341
500.349	9160
500.422	10061
500.496	13873
500.570	24008
500.644	64677
500.718	151613
500.792	39823
500.866	10022
500.940	13882
501.013	10894
501.087	10911
501.161	15627
501.235	21410
501.309	42775
501.382	129472
501.456	128707
501.530	25767
501.603	48536
501.677	22071
501.751	6729
501.825	10277
501.898	16586
501.972	55245
502.046	40362
502.119	10705
502.193	20189
502.266	62231
502.340	32721
502.413	23656
502.487	55222
502.561	32796
502.634	9904
502.708	7312
502.781	5282
502.855	5811
502.928	4995
503.002	5124
503.075	3742
503.149	5529
503.222	5281
503.295	7631
503.369	8745
503.442	12048
503.516	34088
503.589	106697
503.662	75118
503.736	20584
503.809	47227
503.882	42230
503.956	53235
504.029	56846
504.102	24532
504.175	32112
504.249	13921
504.322	10191
504.395	8673
504.468	6210
504.542	4860
504.615	4937
504.688	3812
504.761	3919
504.834	5708
504.907	6020
504.980	8143
505.053	5990
505.127	3912
505.200	9045
505.273	9187
505.346	5175
505.419	4205
505.492	4697
505.565	3462
505.638	3574
505.711	3223
505.784	4038
505.857	2396
505.930	4434
506.003	2656
506.076	6024
506.149	5454
506.221	8925
506.294	7253
506.367	16512
506.440	70374
506.513	44001
506.586	9319
506.659	5027
506.731	3747
506.804	4325
506.877	6436
506.950	6480
507.022	2833
507.095	5159
507.168	6762
507.241	3822
507.313	2617
507.386	2633
507.459	5171
507.531	3760
507.604	2393
507.677	3917
507.749	1767
507.822	4710
507.894	7174
507.967	10639
508.040	5208
508.112	5871
508.185	5360
508.257	4206
508.330	6885
508.402	5065
508.475	4704
508.547	6418
508.620	5105
508.692	10326
508.765	5941
508.837	4064
508.909	3665
508.982	4576
509.054	4012
509.127	4186
509.199	2831
509.271	3337
509.344	3170
509.416	3448
509.488	3010
509.560	4575
509.633	3311
509.705	4500
509.777	4282
509.849	6731
509.922	3635
509.994	4628
510.066	4087
510.138	3862
510.210	9239
510.283	8399
510.355	6932
510.427	6282
510.499	5560
510.571	5482
510.643	4573
510.715	9054
510.787	6192
510.859	5722
510.931	5749
511.003	8770
511.076	8116
511.148	4742
511.219	4418
511.291	10323
511.363	12150
511.435	6379
511.507	3750
511.579	6585
511.651	4991
511.723	4862
511.795	4476
511.867	5057
511.939	4751
512.010	13732
512.082	11318
512.154	5155
512.226	4132
512.298	6461
512.369	9961
512.441	8378
512.513	6622
512.585	5743
512.656	6331
512.728	6696
512.800	4663
512.871	5168
512.943	4749
513.015	4486
513.086	4424
513.158	6082
513.230	5381
513.301	6361
513.373	7848
513.444	5397
513.516	4680
513.588	4355
513.659	4534
513.731	6773
513.802	4117
513.874	9264
513.945	15403
514.016	6799
514.088	4078
514.159	4829
514.231	5612
514.302	9783
514.374	7275
514.445	6498
514.516	16198
514.588	11960
514.659	6105
514.730	14614
514.802	11076
514.873	5796
514.944	7639
515.016	6145
515.087	6336
515.158	9254
515.229	16142
515.301	6358
515.372	8697
515.443	6147
515.514	4959
515.585	4381
515.656	5343
515.728	4215
515.799	3798
515.870	5494
515.941	4303
516.012	5009
516.083	6794
516.154	6238
516.225	7528
516.296	7695
516.367	6701
516.438	7044
516.509	8024
516.580	12058
516.651	23469
516.722	88844
516.793	53828
516.864	14071
516.935	12798
517.006	14236
517.077	16274
517.148	30923
517.219	78395
517.289	154371
517.360	82440
517.431	35950
517.502	8127
517.573	7842
517.643	6361
517.714	8368
517.785	8024
517.856	7900
517.926	9238
517.997	10397
518.068	11728
518.138	16726
518.209	17254
518.280	47245
518.350	207307
518.421	98091
518.492	14673
518.562	10213
518.633	10780
518.703	9790
518.774	15568
518.845	33654
518.915	35906
518.986	15586
519.056	10789
519.127	17751
519.197	24466
519.268	70850
519.338	56795
519.408	12316
519.479	10771
519.549	8356
519.620	7149
519.690	4401
519.760	5042
519.831	5114
519.901	5654
519.971	5802
520.042	5483
520.112	6943
520.182	6716
520.253	7354
520.323	5186
520.393	7273
520.463	11773
520.534	7001
520.604	17572
520.674	10312
520.744	7979
520.814	16528
520.885	17053
520.955	19779
521.025	87550
521.095	41284
521.165	6948
521.235	6735
521.305	4311
521.375	5864
521.445	4694
521.515	6339
521.585	6646
521.655	5686
521.725	5573
521.795	6714
521.865	3018
521.935	10024
522.005	7464
522.075	4902
522.145	5334
522.215	5576
522.285	8803
522.355	12159
522.424	22590
522.494	22545
522.564	8275
522.634	11072
522.704	34718
522.774	16236
522.843	5306
522.913	5487
522.983	5296
523.053	4935
523.122	4733
523.192	5175
523.262	15755
523.331	19671
523.401	5545
523.471	3702
523.540	3329
523.610	3051
523.680	3213
523.749	4191
523.819	4544
523.888	6166
523.958	2993
524.027	3681
524.097	5191
524.166	5021
524.236	2640
524.305	5358
524.375	2377
524.444	3076
524.514	4637
524.583	4736
524.653	4337
524.722	6934
524.791	3543
524.861	5213
524.930	3883
524.999	2794
525.069	5151
525.138	4607
525.207	6092
525.277	4751
525.346	3490
525.415	4444
525.484	3837
525.554	5002
525.623	5234
525.692	4743
525.761	5066
525.830	6000
525.900	5533
525.969	8779
526.038	13454
526.107	19964
526.176	64108
526.245	60002
526.314	20778
526.383	33941
526.452	47210
526.522	73756
526.591	93403
526.660	28277
526.729	14349
526.797	16583
526.867	23586
526.935	99219
527.004	180919
527.073	118805
527.142	13157
527.211	6485
527.280	5485
527.349	6043
527.418	2779
527.487	4164
527.555	1361
527.624	2732
527.693	2304
527.762	3765
527.831	1533
527.899	4042
527.968	2425
528.037	2615
528.106	3835
528.174	6938
528.243	6104
528.312	8173
528.380	10000
528.449	4013
528.518	2773
528.586	1856
528.655	3343
528.723	2429
528.792	2035
528.861	3255
528.929	1999
528.998	4236
529.066	2093
529.135	3712
529.203	2305
529.272	2201
529.340	3508
529.409	4495
529.477	2707
529.545	4147
529.614	6006
529.682	6336
529.751	7428
529.819	8259
529.887	5069
529.956	3490
530.024	4195
530.092	3439
530.161	3957
530.229	6187
530.297	3328
530.365	4873
530.434	4093
530.502	3074
530.570	2821
530.638	2460
530.707	3814
530.775	5211
530.843	3021
530.911	3899
530.979	2891
531.047	4318
531.115	3626
531.183	4058
531.252	4380
531.320	3046
531.388	2144
531.456	3925
531.524	1419
531.592	3737
531.660	4526
531.728	3243
531.796	3190
531.864	4411
531.932	3077
532.000	4413
532.067	4163
532.135	4892
532.203	5221
532.271	5151
532.339	6190
532.407	16092
532.475	11515
532.542	6710
532.610	6522
532.678	8026
532.746	21901
532.814	71983
532.881	19687
532.949	6128
533.017	4476
533.084	4510
533.152	4238
533.220	4065
533.287	2856
533.355	4184
533.423	3795
533.490	3438
533.558	3109
533.625	4110
533.693	3359
533.761	4171
533.828	4883
533.896	4340
533.963	7277
534.031	8985
534.098	11585
534.166	7902
534.233	3782
534.300	5542
534.368	5078
534.435	4012
534.503	4776
534.570	5366
534.637	4137
534.705	5152
534.772	5853
534.840	7559
534.907	26863
534.974	42891
535.041	7508
535.109	6014
535.176	4376
535.243	3921
535.310	3788
535.378	3672
535.445	3337
535.512	2879
535.579	2670
535.646	3368
535.714	3406
535.781	4092
535.848	5185
535.915	4927
535.982	4511
536.049	4629
536.116	4762
536.183	4017
536.250	3450
536.317	3219
536.384	4202
536.451	6181
536.518	5774
536.585	3924
536.652	5906
536.719	7792
536.786	4831
536.853	5215
536.920	6611
536.987	10002
537.053	8449
537.120	31706
537.187	32682
537.254	4671
537.321	2772
537.388	5150
537.454	2838
537.521	2963
537.588	2818
537.654	3743
537.721	3708
537.788	5044
537.855	3316
537.921	3770
537.988	2726
538.055	4607
538.121	2912
538.188	4409
538.254	4226
538.321	8844
538.388	6514
538.454	3766
538.521	3107
538.587	3392
538.654	3589
538.720	3051
538.787	2877
538.853	3575
538.920	3448
538.986	4648
539.053	4003
539.119	4048
539.185	3480
539.252	4641
539.318	4898
539.385	6191
539.451	3279
539.517	6212
539.583	4893
539.650	9292
539.716	26720
539.782	9315
539.849	2808
539.915	4141
539.981	3636
540.047	3381
540.114	3682
540.180	5475
540.246	2836
540.312	6123
540.378	8582
540.444	10264
540.510	8893
540.576	28893
540.643	11067
540.709	4245
540.775	3247
540.841	3598
540.907	4795
540.973	8647
541.039	5131
541.105	7014
541.171	3267
541.237	3509
541.303	3601
541.369	5434
541.435	4784
541.500	6860
541.566	4124
541.632	3810
541.698	2830
541.764	4030
541.830	2884
541.896	3225
541.961	3231
542.027	3984
542.093	3606
542.159	4323
542.224	2893
542.290	6668
542.356	6177
542.421	10523
542.487	5286
542.553	4354
542.618	4141
542.684	3545
542.750	3848
542.815	5186
542.881	6990
542.947	23090
543.012	20131
543.078	4931
543.143	2565
543.209	5011
543.274	3175
543.340	5332
543.405	7436
543.471	16095
543.536	4690
543.602	4875
543.667	2340
543.732	4859
543.798	2453
543.863	3849
543.928	3527
543.994	2966
544.059	2929
544.124	3466
544.190	2397
544.255	4278
544.320	3254
544.386	3753
544.451	4388
544.516	5508
544.581	5552
544.646	13845
544.712	26935
544.777	7434
544.842	4568
544.907	6097
544.972	5109
545.037	5264
545.102	5340
545.168	5438
545.233	5581
545.298	6622
545.363	5681
545.428	7490
545.493	9145
545.558	20566
545.623	10512
545.688	6008
545.753	5429
545.818	5367
545.883	5481
545.947	5393
546.012	5820
546.077	5766
546.142	6062
546.207	4973
546.272	6838
546.337	6491
546.401	5438
546.466	6647
546.531	4476
546.596	6816
546.661	5974
546.725	6595
546.790	4436
546.855	6880
546.919	4412
546.984	6934
547.049	6671
547.113	8420
547.178	6874
547.243	8918
547.307	9530
547.372	11119
547.436	10960
547.501	9660
547.565	9540
547.630	10208
547.695	9849
547.759	11674
547.823	10422
547.888	9674
547.952	9040
548.017	10213
548.081	10474
548.146	14260
548.210	11993
548.274	9619
548.339	9094
548.403	9693
548.468	7852
548.532	8415
548.596	8353
548.660	8420
548.725	9655
548.789	10364
548.853	12333
548.917	9835
548.982	12354
549.046	13397
549.110	8826
549.174	9419
549.238	8745
549.303	9618
549.367	10071
549.431	9416
549.495	9381
549.559	9383
549.623	10405
549.687	12956
549.751	13423
549.815	13095
549.879	14532
549.943	11612
550.007	13541
550.071	14495
550.135	13331
550.199	12560
550.263	11618
550.327	13095
550.391	14713
550.455	12457
550.519	12076
550.582	13704
550.646	15061
550.710	16357
550.774	14899
550.838	14512
550.901	14900
550.965	17197
551.029	17606
551.093	20866
551.156	22553
551.220	34209
551.284	39055
551.347	23798
551.411	33845
551.475	40032
551.538	17852
551.602	16000
551.666	13862
551.729	13471
551.793	13228
551.856	14424
551.920	13180
551.983	13556
552.047	12709
552.110	14072
552.174	12684
552.237	13380
552.301	12470
552.364	12747
552.428	11753
552.491	12977
552.554	12601
552.618	12768
552.681	12006
552.745	12496
552.808	14985
552.871	16284
552.934	14185
552.998	13776
553.061	13085
553.124	13758
553.187	13491
553.251	14661
553.314	15402
553.377	15253
553.440	21552
553.503	42889
553.567	82303
553.630	24614
553.693	14595
553.756	15422
553.819	12970
553.882	13166
553.945	13405
554.008	13536
554.071	13488
554.134	14116
554.197	11600
554.260	12489
554.323	13868
554.386	13958
554.449	12752
554.512	14466
554.575	12378
554.638	13311
554.701	13113
554.764	13119
554.827	12504
554.889	12400
554.952	11683
555.015	11319
555.078	10489
555.141	12126
555.203	10931
555.266	11858
555.329	11888
555.391	10839
555.454	11481
555.517	12376
555.580	10093
555.642	9870
555.705	9349
555.768	9775
555.830	9900
555.893	9201
555.955	9423
556.018	10014
556.080	9892
556.143	9478
556.206	8392
556.268	10538
556.330	9331
556.393	9026
556.455	9232
556.518	12030
556.580	12189
556.643	8374
556.705	8181
556.767	7567
556.830	9442
556.892	9055
556.955	9091
557.017	10068
557.079	7422
557.142	8395
557.204	7385
557.266	11623
557.328	9775
557.391	7541
557.453	6870
557.515	8214
557.577	8005
557.639	8985
557.701	6730
557.764	7171
557.826	7339
557.888	10056
557.950	8744
558.012	8971
558.074	10400
558.136	19153
558.198	47709
558.260	23983
558.322	8519
558.384	9887
558.446	11184
558.508	12773
558.570	15684
558.632	21128
558.694	28901
558.756	33381
558.818	75584
558.880	224272
558.942	86215
559.003	53022
559.065	32433
559.127	13969
559.189	14555
559.251	15413
559.312	18550
559.374	37059
559.436	134839
559.498	87296
559.559	16211
559.621	14640
559.683	15759
559.744	22905
559.806	59602
559.868	108581
559.929	26554
559.991	16461
560.052	18121
560.114	46570
560.176	36499
560.237	26292
560.299	47469
560.360	15325
560.422	6794
560.483	8129
560.545	6516
560.606	7501
560.667	5770
560.729	6321
560.790	6193
560.852	7689
560.913	5551
560.974	6348
561.036	4692
561.097	6517
561.158	6247
561.220	6903
561.281	5856
561.342	6058
561.403	7635
561.465	7801
561.526	13007
561.587	18766
561.648	7132
561.709	7275
561.771	5639
561.832	5633
561.893	5646
561.954	6574
562.015	5636
562.076	6430
562.137	5977
562.198	6100
562.259	6171
562.320	5826
562.381	6692
562.442	7525
562.503	7210
562.564	6312
562.625	4970
562.686	7068
562.747	5589
562.808	7038
562.869	6400
562.930	8188
562.991	7750
563.051	7185
563.112	6124
563.173	6216
563.234	5734
563.294	5720
563.355	5696
563.416	7023
563.477	5120
563.537	6079
563.598	5782
563.659	6714
563.720	5707
563.780	7149
563.841	7151
563.901	6673
563.962	6018
564.023	6727
564.083	6624
564.144	6205
564.204	6459
564.265	7272
564.325	7385
564.386	14000
564.446	13887
564.507	6595
564.567	5992
564.628	6089
564.688	5697
564.749	6544
564.809	6435
564.869	8424
564.930	6374
564.990	6821
565.050	5467
565.111	6584
565.171	5004
565.231	6149
565.292	5946
565.352	5987
565.412	6142
565.472	6084
565.532	6239
565.593	6723
565.653	5347
565.713	7304
565.773	7260
565.833	7393
565.893	9067
565.953	6603
566.013	6057
566.074	7701
566.134	8455
566.194	12082
566.254	13521
566.314	10137
566.374	6694
566.434	7889
566.494	7846
566.554	7113
566.614	7405
566.673	8070
566.733	7620
566.793	9349
566.853	8529
566.913	9762
566.973	8328
567.033	9666
567.092	8662
567.152	9041
567.212	9032
567.272	10336
567.331	9101
567.391	10145
567.451	10797
567.511	13454
567.570	13201
567.630	10131
567.690	8789
567.749	10295
567.809	9202
567.868	12106
567.928	11459
567.988	14133
568.047	14272
568.107	17185
568.166	20674
568.226	28429
568.285	37786
568.345	37896
568.404	32991
568.464	29134
568.523	26047
568.582	26549
568.642	27251
568.701	33620
568.761	41856
568.820	60918
568.879	66089
568.939	55723
568.998	43126
569.057	33243
569.116	26174
569.176	22740
569.235	18207
569.294	16370
569.353	14197
569.413	14301
569.472	11710
569.531	11538
569.590	10148
569.649	10269
569.708	9123
569.767	10017
569.827	10490
569.886	9645
569.945	8482
570.004	8562
570.063	8254
570.122	8984
570.181	8752
570.240	9422
570.299	9431
570.358	10123
570.417	8348
570.475	7463
570.534	7433
570.593	8111
570.652	8158
570.711	8219
570.770	7499
570.829	8470
570.887	7424
570.946	8468
571.005	7132
571.064	8038
571.122	7024
571.181	8557
571.240	8220
571.299	7239
571.357	7958
571.416	8943
571.475	7765
571.533	9627
571.592	6978
571.650	8834
571.709	6321
571.768	7305
571.826	6559
571.885	7986
571.943	6272
572.002	7091
572.060	7261
572.119	6557
572.177	6292
572.236	7356
572.294	5945
572.352	7711
572.411	6491
572.469	7324
572.528	6033
572.586	6678
572.644	7618
572.703	9088
572.761	6981
572.819	7040
572.877	6242
572.936	7294
572.994	6279
573.052	6660
573.110	6308
573.169	7744
573.227	6142
573.285	6773
573.343	5714
573.401	6450
573.459	6188
573.517	7072
573.576	6333
573.634	7336
573.692	6180
573.750	7048
573.808	5919
573.866	7692
573.924	7937
573.982	9890
574.040	7018
574.098	6679
574.155	6203
574.213	6558
574.271	5448
574.329	6775
574.387	5975
574.445	6702
574.503	5749
574.560	5958
574.618	5581
574.676	6695
574.734	5568
574.792	6647
574.849	6300
574.907	5793
574.965	6071
575.022	5828
575.080	4714
575.138	6391
575.195	6124
575.253	6536
575.311	5773
575.368	7009
575.426	5218
575.483	7049
575.541	5834
575.598	5863
575.656	6518
575.713	7167
575.771	5773
575.828	7060
575.886	6222
575.943	7079
576.001	7107
576.058	7157
576.115	7600
576.173	8236
576.230	8759
576.287	8627
576.345	7218
576.402	7299
576.459	6323
576.517	7393
576.574	7423
576.631	8498
576.688	5767
576.746	6833
576.803	6758
576.860	7890
576.917	7444
576.974	7488
577.031	7113
577.089	7363
577.146	7068
577.203	7707
577.260	6698
577.317	8404
577.374	7852
577.431	8084
577.488	8179
577.545	7116
577.602	6405
577.659	7819
577.716	8331
577.773	8690
577.830	7351
577.886	8100
577.943	6249
578.000	7785
578.057	7817
578.114	8632
578.171	8102
578.227	10759
578.284	9880
578.341	9622
578.398	8303
578.454	8705
578.511	8580
578.568	9411
578.625	7490
578.681	7607
578.738	6476
578.794	8099
578.851	7078
578.908	6827
578.964	7538
579.021	8326
579.077	7299
579.134	7640
579.190	7278
579.247	8035
579.303	7682
579.360	7418
579.416	6974
579.473	6745
579.529	7075
579.586	7701
579.642	7507
579.698	7894
579.755	7511
579.811	8575
579.867	7666
579.924	9128
579.980	8864
580.036	10022
580.093	10740
580.149	13138
580.205	15604
580.261	13871
580.317	11623
580.374	11181
580.430	10375
580.486	9925
580.542	8375
580.598	9261
580.619	8761
580.654	7901
580.692	8829
580.710	9310
580.765	8499
580.767	8482
580.823	9040
580.838	8798
580.879	8202
580.911	8237
580.935	8273
580.984	7498
580.991	7399
581.047	9055
581.057	8994
581.103	8766
581.130	9085
581.159	9444
581.203	9671
581.215	9737
581.270	11000
581.276	10819
581.326	9161
581.349	9375
581.382	9776
581.422	9356
581.438	9161
581.494	9939
581.494	9917
581.550	8470
581.567	8898
581.606	9765
581.640	9259
581.661	8988
581.713	10265
581.717	10370
581.773	8172
581.786	8369
581.829	9064
581.859	8935
581.885	8856
581.932	9801
581.940	9977
581.996	9835
582.004	9869
582.052	9978
582.077	9323
582.107	8656
582.150	9047
582.163	9154
582.219	9603
582.223	9663
582.274	10485
582.296	10141
582.330	9456
582.368	10037
582.386	10436
582.441	10303
582.441	10305
582.497	10142
582.514	10154
582.552	10359
582.587	10807
582.608	11029
582.659	10482
582.663	10444
582.719	11073
582.732	10747
582.774	9737
582.805	10192
582.830	10582
582.877	10898
582.885	10947
582.941	11532
582.950	11366
582.996	10625
583.023	11382
583.052	12217
583.095	12371
583.107	12428
583.162	13628
583.168	13662
583.218	13832
583.240	13809
583.273	13699
583.313	12490
583.328	12086
583.384	11608
583.385	11594
583.439	11067
583.458	11196
583.494	11371
583.531	10663
583.549	10386
583.603	10984
583.605	11000
583.660	10578
583.676	10584
583.715	10592
583.748	10672
583.770	10700
583.820	11905
583.825	12030
583.881	10825
583.893	10833
583.936	10768
583.965	10474
583.991	10271
584.038	11089
584.046	11223
584.101	10456
584.110	10487
584.156	10692
584.183	10653
584.211	10664
584.255	11446
584.266	11599
584.321	10620
584.328	10694
584.376	11212
584.400	11297
584.431	11519
584.472	11404
584.486	11320
584.541	11410
584.545	11433
584.596	11757
584.617	11564
584.651	11527
584.689	12106
584.706	12162
584.761	12080
584.762	12083
584.816	12428
584.834	12570
584.871	12819
584.906	13196
584.926	13250
584.978	12895
584.980	12898
585.035	13379
585.051	13617
585.090	13928
585.123	14273
585.145	14509
585.195	14013
585.200	14021
585.254	16179
585.267	16461
585.309	17199
585.340	18596
585.364	19473
585.412	18733
585.419	18623
585.473	19895
585.484	20024
585.528	21137
585.556	23340
585.583	26528
585.628	33908
585.637	36781
585.692	63321
585.700	69536
585.747	100303
585.772	93696
585.801	71219
585.845	34439
585.856	28249
585.910	20468
585.917	19744
585.965	17897
585.989	17518
586.019	17367
586.061	16480
586.074	16228
586.128	17370
586.133	17358
586.183	16965
586.205	17147
586.237	17737
586.277	18009
586.292	17919
586.346	18477
586.349	18467
586.401	18248
586.421	18668
586.455	19293
586.493	19401
586.509	19957
586.564	23296
586.565	23436
586.618	31186
586.637	33057
586.672	31856
586.709	25450
586.727	22657
586.781	21222
586.781	21209
586.835	20433
586.853	20672
586.889	20816
586.925	20411
586.944	20402
586.996	21370
586.998	21391
587.052	22823
587.068	23078
587.106	22960
587.140	22863
587.161	23068
587.212	24457
587.215	24496
587.269	24808
587.284	25306
587.323	26704
587.356	26804
587.377	26868
587.427	28676
587.431	28748
587.485	29603
587.499	29811
587.539	30659
587.571	31330
587.593	31681
587.643	33573
587.648	33741
587.702	34934
587.715	35459
587.755	37057
587.786	38612
587.810	39799
587.858	42143
587.864	42381
587.917	45500
587.930	46356
587.971	49410
588.001	52010
588.025	53834
588.073	58121
588.079	58740
588.133	64043
588.145	65776
588.187	71176
588.217	75461
588.241	79979
588.288	89684
588.295	90818
588.348	102015
588.360	105026
588.402	117826
588.431	127137
588.456	135265
588.503	153369
588.510	156335
588.564	183142
588.575	189738
588.617	219675
588.646	242261
588.671	267569
588.718	321679
588.725	332483
588.778	421035
588.789	439374
588.832	519309
588.861	567624
588.886	577196
588.932	570909
588.939	561769
588.993	474434
589.004	469824
589.047	558454
589.075	609744
589.100	590929
589.147	523133
589.154	510764
589.207	410536
589.218	391655
589.261	354105
589.290	333806
589.314	333989
589.361	343380
589.368	349681
589.421	412437
589.433	427043
589.475	500079
589.504	545545
589.528	544331
589.576	515455
589.582	513995
589.635	531121
589.647	533213
589.689	483409
589.718	432383
589.742	378689
589.790	272345
589.795	264728
589.849	202126
589.861	189028
589.902	163232
589.932	145692
589.955	133875
590.004	110756
590.009	108946
590.062	93173
590.075	89783
590.115	81745
590.146	75967
590.168	72514
590.218	66165
590.222	65646
590.275	59710
590.289	58587
590.328	55681
590.360	53185
590.381	51492
590.431	48420
590.435	48163
590.488	44390
590.503	43685
590.541	42082
590.574	40591
590.594	39943
590.645	38782
590.647	38646
590.700	36209
590.716	35644
590.753	34577
590.787	33578
590.806	33113
590.859	32231
590.859	32166
590.912	30777
590.930	30409
590.965	29867
591.001	29442
591.018	29093
591.071	28139
591.072	28168
591.124	27392
591.143	27163
591.177	26924
591.214	26839
591.230	26937
591.283	27319
591.285	27354
591.336	25952
591.356	25563
591.389	25459
591.427	25251
591.442	24907
591.495	23584
591.498	23528
591.547	23773
591.569	23944
591.600	23279
591.640	22309
591.653	22349
591.706	22791
591.711	22850
591.759	22705
591.782	22771
591.811	23136
591.853	23641
591.864	23394
591.917	22196
591.924	22033
591.969	21578
591.995	21439
592.022	21335
592.066	21190
592.075	21161
592.127	21189
592.137	21219
592.180	23484
592.208	25009
592.233	23998
592.279	21985
592.285	21807
592.338	20586
592.350	20326
592.390	19462
592.421	18858
592.443	19040
592.491	19548
592.495	19505
592.548	19244
592.562	19194
592.600	19063
592.633	19012
592.653	18842
592.704	18368
592.705	18471
592.775	18423
592.846	18570
592.916	19125
592.987	19475
593.058	18206
593.128	18071
593.199	17608
593.270	17648
593.341	17821
593.411	17925
593.482	16925
593.553	18116
593.623	17488
593.694	17581
593.764	18655
593.835	17682
593.906	17189
593.976	17697
594.047	17813
594.117	19343
594.188	20172
594.258	17257
594.329	17038
594.399	16721
594.470	17426
594.540	17092
594.611	17101
594.681	17024
594.751	17002
594.822	17550
594.892	17653
594.963	18103
595.033	18862
595.103	18223
595.174	19646
595.244	23988
595.314	27558
595.384	19976
595.455	18561
595.525	18394
595.595	18708
595.665	18910
595.736	18850
595.806	19210
595.876	18826
595.946	18289
596.016	18584
596.087	19142
596.157	19713
596.227	19106
596.297	19455
596.367	21633
596.437	21376
596.507	24499
596.577	29825
596.647	23632
596.717	21434
596.787	21838
596.857	21598
596.927	21514
596.997	22022
597.067	22040
597.137	23325
597.207	23589
597.277	23529
597.347	22446
597.417	21915
597.487	21781
597.557	22787
597.626	22298
597.696	23813
597.766	25050
597.836	29010
597.906	23686
597.975	21463
598.045	21344
598.115	21893
598.185	21708
598.254	24010
598.324	25695
598.394	26181
598.464	24846
598.533	24479
598.603	23776
598.672	23622
598.742	24221
598.812	23676
598.881	23799
598.951	23691
599.020	24640
599.090	24396
599.159	25313
599.229	24767
599.299	23469
599.368	23789
599.437	24223
599.507	23860
599.576	24110
599.646	24900
599.715	25421
599.785	23137
599.854	23972
599.924	23830
599.993	24700
600.062	22627
600.132	23197
600.201	24915
600.270	27170
600.340	28583
600.409	27545
600.478	26931
600.547	27454
600.617	26456
600.686	24626
600.755	24106
600.824	23127
600.894	22691
600.963	23512
601.032	23046
601.101	23297
601.170	24012
601.239	22695
601.308	23644
601.378	23184
601.447	23628
601.516	23749
601.585	24140
601.654	25225
601.723	24876
601.792	25685
601.861	26055
601.930	29658
601.999	28674
602.068	27085
602.137	27998
602.206	28129
602.275	28063
602.343	29021
602.412	29384
602.481	28504
602.550	27816
602.619	28528
602.688	28433
602.756	28929
602.825	29074
602.894	29952
602.963	29546
603.032	29641
603.100	29045
603.169	29665
603.238	29748
603.307	30029
603.375	29155
603.444	29892
603.513	29932
603.581	28630
603.650	30851
603.719	28757
603.787	26789
603.856	27093
603.924	27214
603.993	27739
604.061	28204
604.130	29398
604.198	29366
604.267	29973
604.335	29743
604.404	30729
604.472	31512
604.541	31065
604.609	31280
604.678	32063
604.746	32488
604.815	33872
604.883	32533
604.951	32494
605.020	33466
605.088	32415
605.156	31306
605.225	31501
605.293	31122
605.361	31126
605.429	30556
605.498	32252
605.566	31712
605.634	33262
605.702	33614
605.771	32745
605.839	34642
605.907	33971
605.975	33252
606.043	32382
606.111	31642
606.180	33273
606.248	33766
606.316	33948
606.384	34001
606.452	33278
606.520	29275
606.588	27878
606.656	27487
606.724	26575
606.792	25388
606.860	23708
606.928	22624
606.996	21690
607.064	21067
607.132	21778
607.200	21885
607.267	23627
607.335	22887
607.403	23857
607.471	23354
607.539	22626
607.607	23240
607.674	21961
607.742	21401
607.810	20876
607.878	21177
607.946	21084
608.013	21322
608.081	22327
608.149	22752
608.216	22722
608.284	22835
608.352	22929
608.419	23362
608.487	26848
608.555	24740
608.622	22638
608.690	23438
608.757	25444
608.825	25022
608.893	25172
608.960	25538
609.028	25129
609.095	27378
609.163	24983
609.230	22578
609.298	21026
609.365	20147
609.432	22471
609.500	23687
609.567	25954
609.635	28933
609.702	31128
609.769	29839
609.837	26865
609.904	22729
609.971	22497
610.039	25716
610.106	31742
610.173	57135
610.241	133864
610.308	125627
610.375	59454
610.442	29679
610.509	22459
610.577	23543
610.644	23697
610.711	23696
610.778	23588
610.845	25497
610.912	26391
610.980	27686
611.047	31467
611.114	29441
611.181	26083
611.248	24360
611.315	25548
611.382	25558
611.449	26844
611.516	27970
611.583	27213
611.650	27081
611.717	26538
611.784	27734
611.851	30517
611.918	32406
611.984	36538
612.051	50372
612.118	101970
612.185	253336
612.252	223949
612.319	52187
612.386	36815
612.452	33171
612.519	32272
612.586	35163
612.653	34175
612.719	32414
612.786	30895
612.853	29428
612.919	27558
612.986	29215
613.053	27833
613.120	26648
613.186	25870
613.253	26422
613.319	25014
613.386	25081
613.453	26480
613.519	26502
613.586	27952
613.652	32393
613.719	29139
613.785	28896
613.852	26851
613.918	26265
613.985	28409
614.051	31287
614.118	44588
614.184	48161
614.250	28936
614.317	26842
614.383	26322
614.449	27379
614.516	27097
614.582	27193
614.648	27463
614.715	25588
614.781	26448
614.847	26606
614.914	26978
614.980	26581
615.046	26273
615.112	27332
615.179	26833
615.245	27647
615.311	28730
615.377	32515
615.443	36897
615.509	30487
615.575	29677
615.642	28355
615.708	28905
615.774	31043
615.840	33179
615.906	38156
615.972	46793
616.038	75220
616.104	141996
616.170	309082
616.236	354175
616.302	87384
616.368	52378
616.434	39712
616.500	36373
616.565	38019
616.631	43912
616.697	39279
616.763	37998
616.829	50415
616.895	85262
616.961	95674
617.026	48788
617.092	31851
617.158	30162
617.224	29529
617.289	27916
617.355	27388
617.421	26848
617.487	28306
617.552	26104
617.618	25326
617.684	25321
617.749	27673
617.815	25038
617.880	24462
617.946	25291
618.012	25862
618.077	26238
618.143	25709
618.208	25739
618.274	26810
618.339	27723
618.405	23161
618.470	24895
618.536	24250
618.601	25452
618.667	24110
618.732	23219
618.798	23565
618.863	24157
618.928	22305
618.994	22678
619.059	24393
619.124	25455
619.190	24838
619.255	22074
619.320	23464
619.386	22632
619.451	21429
619.516	22140
619.581	23381
619.647	22799
619.712	23531
619.777	23192
619.842	23615
619.907	23165
619.972	23614
620.038	24015
620.103	22440
620.168	22647
620.233	23216
620.298	22633
620.363	22095
620.428	22645
620.493	23807
620.558	23318
620.623	24107
620.688	24359
620.753	24344
620.818	23820
620.883	24402
620.948	24670
621.013	24280
621.078	24098
621.143	23344
621.207	26891
621.272	24349
621.337	24176
621.402	25349
621.467	27130
621.532	29518
621.596	26035
621.661	25242
621.726	24637
621.791	25719
621.855	25541
621.920	24273
621.985	26307
622.049	28009
622.114	26552
622.179	26215
622.243	26037
622.308	26264
622.373	28312
622.437	27555
622.502	25612
622.566	25855
622.631	25799
622.695	26436
622.760	26526
622.824	25175
622.889	26529
622.953	26055
623.018	29888
623.082	31653
623.147	26985
623.211	26495
623.276	26461
623.340	26413
623.404	24346
623.469	25453
623.533	25555
623.597	23819
623.662	24878
623.726	23219
623.790	23023
623.854	23645
623.919	23338
623.983	22378
624.047	23356
624.111	23597
624.176	22581
624.240	23905
624.304	24557
624.368	23188
624.432	23071
624.496	23521
624.560	24456
624.625	24242
624.689	24078
624.753	24477
624.817	23203
624.881	21739
624.945	22616
625.009	21326
625.073	21963
625.137	22101
625.201	23882
625.265	24858
625.329	21913
625.393	21696
625.456	21749
625.520	23060
625.584	23401
625.648	25226
625.712	30648
625.776	52530
625.839	64908
625.903	36041
625.967	21538
626.031	27792
626.095	41027
626.158	24768
626.222	18849
626.286	17112
626.349	16337
626.413	15748
626.477	18046
626.540	16588
626.604	14794
626.668	16602
626.731	16422
626.795	16669
626.858	15615
626.922	15042
626.986	15511
627.049	14500
627.113	14792
627.176	14946
627.240	14816
627.303	13630
627.366	13648
627.430	14549
627.493	14510
627.557	13281
627.620	15091
627.684	13886
627.747	14577
627.810	12746
627.874	13832
627.937	12568
628.000	13334
628.064	12953
628.127	11318
628.190	12182
628.253	11735
628.317	10557
628.380	10678
628.443	11012
628.506	12036
628.569	11506
628.632	9998
628.696	10743
628.759	9878
628.822	10222
628.885	9896
628.948	10600
629.011	10368
629.074	9827
629.137	9608
629.200	9070
629.263	9968
629.326	9192
629.389	9068
629.452	8852
629.515	9002
629.578	9329
629.641	9314
629.704	9436
629.767	8738
629.830	9416
629.892	8643
629.955	8303
630.018	9654
630.081	8504
630.144	10222
630.207	8973
630.269	9353
630.332	9429
630.395	8806
630.458	8558
630.520	8060
630.583	8667
630.646	7897
630.708	7781
630.771	7446
630.834	7259
630.896	7342
630.959	7728
631.021	6968
631.084	7887
631.146	7801
631.209	8623
631.272	7933
631.334	8454
631.397	7738
631.459	6486
631.522	7633
631.584	7414
631.646	8181
631.709	8464
631.771	8801
631.834	8938
631.896	8083
631.958	7144
632.021	7549
632.083	6502
632.145	6813
632.208	6969
632.270	7671
632.332	7217
632.395	7069
632.457	7702
632.519	6743
632.581	7208
632.643	6216
632.706	7226
632.768	6727
632.830	7144
632.892	7137
632.954	6645
633.016	7895
633.078	7024
633.141	7023
633.203	6490
633.265	7265
633.327	7062
633.389	6885
633.451	6964
633.513	7349
633.575	8353
633.637	7393
633.698	6969
633.760	8000
633.822	6396
633.884	6914
633.946	7030
634.008	7042
634.070	7366
634.132	8611
634.193	8369
634.255	7965
634.317	8163
634.379	9305
634.441	7200
634.502	6600
634.564	6870
634.626	7263
634.687	6242
634.749	6499
634.811	7208
634.873	6587
634.934	6089
634.996	6457
635.057	5749
635.119	6041
635.181	5856
635.242	5865
635.304	4879
635.365	7922
635.427	5859
635.488	6409
635.550	5770
635.611	6447
635.673	5207
635.734	7624
635.796	5742
635.857	7383
635.918	6362
635.980	8193
636.041	7613
636.102	7785
636.164	7724
636.225	8027
636.286	6647
636.348	7309
636.409	6549
636.470	5710
636.531	5784
636.593	6084
636.654	6729
636.715	5680
636.776	5347
636.838	5380
636.899	5669
636.960	4794
637.021	5807
637.082	5610
637.143	5612
637.204	4352
637.265	4811
637.326	5843
637.387	5865
637.448	5507
637.509	5654
637.570	5600
637.631	5381
637.692	5075
637.753	4871
637.814	5029
637.875	4784
637.936	5871
637.997	5214
638.058	5182
638.119	5170
638.179	4921
638.240	4706
638.301	5505
638.362	4334
638.423	5587
638.483	6201
638.544	4341
638.605	5484
638.666	4089
638.726	4636
638.787	5550
638.848	4936
638.908	4627
638.969	4783
639.030	4779
639.090	3828
639.151	4106
639.211	4544
639.272	6150
639.332	8190
639.393	6348
639.453	4730
639.514	4263
639.574	4627
639.635	3425
639.695	4780
639.756	4195
639.816	4945
639.877	4813
639.937	6630
639.997	8316
640.058	4972
640.118	3750
640.178	4356
640.239	4319
640.299	4446
640.359	3461
640.420	4566
640.480	4773
640.540	4424
640.600	4642
640.661	5027
640.721	3376
640.781	7035
640.841	4721
640.901	5022
640.961	4765
641.021	4500
641.082	4454
641.142	5821
641.202	4801
641.262	2680
641.322	5587
641.382	2676
641.442	4542
641.502	4481
641.562	5279
641.622	4127
641.682	4367
641.742	4182
641.802	4997
641.861	4360
641.921	4862
641.981	5225
642.041	4472
642.101	4278
642.161	3324
642.221	4069
642.280	3274
642.340	3124
642.400	3526
642.460	4807
642.519	4359
642.579	3453
642.639	4304
642.698	1708
642.758	4930
642.818	3721
642.877	3417
642.937	3444
642.997	4424
643.056	6070
643.116	4050
643.175	4522
643.235	3584
643.294	4399
643.354	4414
643.414	4483
643.473	5299
643.532	4844
643.592	7742
643.651	10663
643.711	19083
643.770	35112
643.830	78741
643.889	207666
643.948	75449
644.008	10912
644.067	6661
644.126	5246
644.186	3873
644.245	5337
644.304	3173
644.363	5124
644.423	3376
644.482	4579
644.541	4460
644.600	2454
644.659	5082
644.719	4456
644.778	7706
644.837	9759
644.896	19655
644.955	48619
645.014	25379
645.073	6331
645.132	4374
645.191	4546
645.250	3511
645.309	4744
645.368	4321
645.427	5672
645.486	5575
645.545	10675
645.604	4955
645.663	3542
645.722	4669
645.781	3897
645.840	4166
645.898	4313
645.957	7169
646.016	8487
646.075	17502
646.134	32574
646.192	79123
646.251	161620
646.310	33780
646.369	7337
646.427	5405
646.486	3940
646.545	3774
646.603	4777
646.662	3115
646.721	3472
646.779	3467
646.838	2841
646.896	4573
646.955	5384
647.014	6094
647.072	10951
647.131	27950
647.189	22075
647.248	3624
647.306	3768
647.365	4067
647.423	1398
647.481	4114
647.540	1961
647.598	3578
647.657	2235
647.715	3221
647.773	1841
647.832	3339
647.890	1783
647.948	1643
648.007	2755
648.065	2056
648.123	2209
648.181	4239
648.240	3440
648.298	2899
648.356	2359
648.414	2476
648.472	2950
648.531	2927
648.589	2211
648.647	2480
648.705	2403
648.763	2298
648.821	2627
648.879	2620
648.937	2618
648.995	3388
649.053	3234
649.111	5230
649.169	7593
649.227	14448
649.285	24839
649.343	77735
649.401	58333
649.459	11526
649.516	9053
649.574	5050
649.632	10017
649.690	16536
649.748	8138
649.806	6622
649.863	14318
649.921	21202
649.979	19155
650.037	4365
650.094	870
650.152	2381
650.210	1707
650.268	2945
650.325	2409
650.383	2218
650.440	876
650.498	2554
650.556	1730
650.613	2432
650.671	2150
650.728	1677
650.786	2277
650.843	2091
650.901	1162
650.958	1985
651.016	1801
651.073	2703
651.131	1449
651.188	1338
651.246	2120
651.303	899
651.360	1683
651.418	1456
651.475	3105
651.532	1073
651.590	2763
651.647	1231
651.704	1790
651.762	1133
651.819	2231
651.876	1410
651.933	1497
651.990	1643
652.048	1040
652.105	1565
652.162	2192
652.219	1702
652.276	1559
652.333	1641
652.390	1009
652.448	2127
652.505	1438
652.562	1562
652.619	2368
652.676	2818
652.733	4757
652.790	1658
652.847	142
652.904	2098
652.961	186
653.017	970
653.074	2119
653.131	1638
653.188	907
653.245	1110
653.302	983
653.359	1374
653.415	2296
653.472	1264
653.529	1641
653.586	123
653.642	1094
653.699	2138
653.756	166
653.813	573
653.869	1452
653.926	596
653.983	182
654.039	1816
654.096	1329
654.152	1517
654.209	519
654.266	1088
654.322	-384
654.379	1840
654.435	2092
654.492	1313
654.548	2028
654.605	3157
654.661	3101
654.717	519
654.774	1364
654.830	1412
654.887	1479
654.943	1061
655.000	976
655.056	1459
655.112	1369
655.168	614
655.225	1318
655.281	1230
655.337	1156
655.394	3035
655.450	3538
655.506	1529
655.562	3180
655.618	4721
655.675	-97
655.731	543
655.787	637
655.843	1751
655.899	353
655.955	1569
656.011	1128
656.067	-76
656.123	1199
656.179	1437
656.235	1644
656.291	-426
656.347	1409
656.403	890
656.459	1668
656.515	1663
656.571	1243
656.627	893
656.683	889
656.739	1123
656.795	370
656.850	1395
656.906	1603
656.962	2291
657.018	679
657.074	908
657.129	1771
657.185	1458
657.241	2606
657.297	2493
657.352	1535
657.408	643
657.464	2033
657.519	335
657.575	107
657.630	948
657.686	1015
657.742	418
657.797	822
657.853	389
657.908	2493
657.964	340
658.019	736
658.075	498
658.130	795
658.186	-19
658.241	1213
658.297	-33
658.352	1121
658.407	1211
658.463	93
658.518	810
658.573	990
658.629	395
658.684	847
658.739	1544
658.795	719
658.850	687
658.905	-133
658.960	1135
659.016	287
659.071	572
659.126	1400
659.181	234
659.236	1574
659.291	2703
659.346	1114
659.401	1143
659.457	1954
659.512	1798
659.567	2487
659.622	752
659.677	393
659.732	133
659.787	1084
659.842	594
659.897	2384
659.952	1538
660.007	807
660.061	266
660.116	-532
660.171	272
660.226	1033
660.281	1505
660.336	-254
660.391	997
660.445	1451
660.500	803
660.555	857
660.610	123
660.664	1144
660.719	-28
660.774	1511
660.828	1238
660.883	382
660.938	1192
660.992	449
661.047	629
661.101	222
661.156	596
661.211	260
661.265	172
661.320	443
661.374	973
661.429	486
661.483	1535
661.538	711
661.592	124
661.647	701
661.701	849
661.755	449
661.810	842
661.864	134
661.919	291
661.973	1187
662.027	910
662.081	153
662.136	121
662.190	860
662.244	1027
662.299	609
662.353	745
662.407	660
662.461	14
662.515	1262
662.569	185
662.624	1945
662.678	296
662.732	587
662.786	444
662.840	563
662.894	330
662.948	682
663.002	877
663.056	292
663.110	184
663.164	288
663.218	570
663.272	509
663.326	1352
663.380	-321
663.434	980
663.488	241
663.542	905
663.595	-154
663.649	385
663.703	836
663.757	213
663.811	220
663.864	1106
663.918	897
663.972	-215
664.026	228
664.079	-115
664.133	771
664.187	266
664.240	795
664.294	614
664.348	1094
664.401	60
664.455	1540
664.508	-30
664.562	582
664.615	251
664.669	-448
664.722	454
664.776	673
664.829	862
664.883	770
664.936	707
664.990	924
665.043	886
665.097	1033
665.150	1545
665.203	421
665.257	992
665.310	1641
665.363	952
665.417	929
665.470	1207
665.523	547
665.576	923
665.630	227
665.683	418
665.736	907
665.789	1163
665.842	421
665.895	680
665.949	1321
666.002	362
666.055	785
666.108	708
666.161	971
666.214	718
666.267	1001
666.320	1623
666.373	1100
666.426	927
666.479	333
666.532	1125
666.585	708
666.638	1758
666.691	810
666.744	1420
666.796	651
666.849	1033
666.902	1223
666.955	642
667.008	808
667.060	725
667.113	589
667.166	539
667.219	778
667.271	631
667.324	780
667.377	907
667.430	642
667.482	1520
667.535	1667
667.587	260
667.640	1175
667.693	1303
667.745	2028
667.798	2675
667.850	700
667.903	670
667.955	1192
668.008	117
668.060	1168
668.113	1043
668.165	722
668.218	1844
668.270	1914
668.322	855
668.375	594
668.427	1060
668.479	86
668.532	1191
668.584	1806
668.636	432
668.689	1135
668.741	422
668.793	532
668.845	716
668.898	1031
668.950	1002
669.002	1206
669.054	584
669.106	116
669.158	675
669.211	1071
669.263	879
669.315	1690
669.367	1976
669.419	1244
669.471	1727
669.523	1481
669.575	1950
669.627	1244
669.679	1323
669.731	1245
669.783	1266
669.835	1003
669.886	472
669.938	67
669.990	1829
670.042	6
670.094	1196
670.146	1117
670.197	1525
670.249	1427
670.301	2035
670.353	2516
670.404	3079
670.456	5422
670.508	9041
670.560	16942
670.611	28683
670.663	49014
670.715	107252
670.766	190028
670.818	90030
670.869	17542
670.921	7616
670.972	5497
671.024	3597
671.075	2420
671.127	2340
671.178	1489
671.230	1571
671.281	1155
671.333	975
671.384	1420
671.436	1210
671.487	1798
671.538	2194
671.590	2038
671.641	3727
671.692	6876
671.744	12105
671.795	11118
671.846	3886
671.897	2158
671.949	1774
672.000	1037
672.051	1206
672.102	1288
672.153	429
672.204	509
672.256	453
672.307	1235
672.358	787
672.409	1214
672.460	1004
672.511	498
672.562	-121
672.613	380
672.664	228
672.715	557
672.766	615
672.817	597
672.868	253
672.919	280
672.970	150
673.021	628
673.071	-334
673.122	1000
673.173	438
673.224	-77
673.275	414
673.326	114
673.376	585
673.427	-153
673.478	-26
673.528	1110
673.579	199
673.630	-170
673.680	501
673.731	-417
673.782	-254
673.832	-303
673.883	497
673.934	806
673.984	884
674.035	106
674.085	309
674.136	962
674.186	-314
674.237	51
674.287	1480
674.338	734
674.388	600
674.438	99
674.489	610
674.539	352
674.589	346
674.640	292
674.690	378
674.740	-417
674.791	761
674.841	181
674.891	810
674.942	309
674.992	-468
675.042	-31
675.092	-93
675.142	-234
675.193	163
675.243	-567
675.293	-94
675.343	215
675.393	1012
675.443	557
675.493	329
675.543	-618
675.593	36
675.643	-227
675.693	193
675.743	1017
675.793	248
675.843	-1062
675.893	181
675.943	440
675.993	645
676.043	187
676.093	555
676.142	-932
676.192	636
676.242	113
676.292	216
676.341	1189
676.391	-196
676.441	-543
676.491	-493
676.540	-12
676.590	512
676.640	-213
676.689	-447
676.739	-753
676.789	-737
676.838	-486
676.888	-193
676.937	-868
676.987	-116
677.037	-33
677.086	-1029
677.136	-207
677.185	-403
677.235	-710
677.284	-591
677.333	-293
677.383	-368
677.432	-320
677.482	-221
677.531	52
677.580	-378
677.630	-421
677.679	295
677.728	-347
677.778	591
677.827	506
677.876	-34
677.925	-302
677.975	-236
678.024	-140
678.073	264
678.122	-97
678.171	-383
678.220	40
678.269	-538
678.319	-542
678.368	-472
678.417	-179
678.466	558
678.515	-166
678.564	-90
678.613	-125
678.662	-160
678.711	373
678.760	691
678.809	-464
678.857	-420
678.906	-296
678.955	417
679.004	198
679.053	-662
679.102	-61
679.151	206
679.199	348
679.248	-421
679.297	275
679.346	-481
679.394	-638
679.443	-264
679.492	196
679.540	-70
679.589	-797
679.638	-573
679.686	-370
679.735	-494
679.784	-588
679.832	588
679.881	-181
679.929	-279
679.978	468
680.026	-737
680.075	-419
680.123	-664
680.172	-457
680.220	-662
680.268	7
680.317	-42
680.365	-560
680.414	29
680.462	-312
680.510	197
680.559	-174
680.607	-322
680.655	322
680.703	-343
680.752	-235
680.800	-155
680.848	-864
680.896	-434
680.945	-144
680.993	-563
681.041	-905
681.089	-350
681.137	-491
681.185	-628
681.233	-365
681.258	-247
681.281	-171
681.329	-595
681.377	-452
681.380	-429
681.425	-700
681.473	190
681.502	-59
681.521	-299
681.569	1228
681.617	-293
681.624	-165
681.665	396
681.713	719
681.745	418
681.761	220
681.809	851
681.857	701
681.867	753
681.904	786
681.952	977
681.989	1264
682.000	1303
682.048	393
682.096	1273
682.111	1013
682.143	362
682.191	852
682.233	1376
682.239	1418
682.286	1090
682.334	895
682.354	1184
682.382	1484
682.430	1748
682.476	987
682.477	939
682.525	1536
682.572	1365
682.598	1564
682.620	1684
682.667	1579
682.715	2401
682.720	2416
682.763	2245
682.810	2174
682.841	2257
682.857	2259
682.905	2101
682.952	1811
682.963	2039
683.000	2750
683.047	2546
683.085	2852
683.095	2879
683.142	2453
683.190	2615
683.206	2672
683.237	2728
683.284	2895
683.328	2887
683.332	2858
683.379	3448
683.426	3105
683.449	2717
683.473	2274
683.521	2874
683.568	3081
683.571	3118
683.615	3271
683.662	3849
683.693	3732
683.709	3627
683.757	3219
683.804	3638
683.814	3760
683.851	4049
683.898	3878
683.936	4115
683.945	4139
683.992	3777
684.039	4032
684.057	3989
684.086	3886
684.133	4320
684.179	3582
684.180	3537
684.227	4385
684.274	4272
684.300	4597
684.321	4816
684.368	4163
684.415	4384
684.422	4338
684.462	3958
684.509	4318
684.543	4439
684.556	4472
684.603	4496
684.649	4447
684.665	4720
684.696	5194
684.743	5507
684.786	4991
684.790	4933
684.837	4941
684.883	5744
684.908	5628
684.930	5545
684.977	5563
685.023	6259
685.029	6227
685.070	5593
685.117	5742
685.150	5962
685.164	6086
685.210	6446
685.257	6968
685.272	6904
685.303	6578
685.350	6447
685.393	6152
685.396	6126
685.443	6595
685.490	7100
685.514	6671
685.536	6318
685.583	6776
685.629	7184
685.636	7211
685.675	7020
685.722	7260
685.757	6635
685.768	6486
685.815	6946
685.861	6749
685.878	7122
685.908	7660
685.954	7500
686.000	7494
686.000	7487
686.047	7415
686.093	7261
686.121	7778
686.139	8022
686.185	8126
686.232	8001
686.242	7890
686.278	7482
686.324	7913
686.363	7537
686.370	7461
686.416	7553
686.463	7913
686.484	7903
686.509	7986
686.555	8112
686.601	7633
686.606	7703
686.647	8069
686.693	7820
686.727	7812
686.739	7837
686.785	8050
686.831	8399
686.848	8191
686.877	7875
686.923	8389
686.969	8570
686.969	8568
687.015	8819
687.061	8984
687.090	8802
687.107	8626
687.153	8902
687.199	8172
687.211	8098
687.245	8135
687.291	8557
687.332	8661
687.336	8661
687.382	8764
687.428	8690
687.453	8705
687.474	8703
687.520	8778
687.565	8999
687.574	8911
687.611	8631
687.657	9305
687.695	9284
687.702	9332
687.748	9187
687.794	10174
687.816	10214
687.839	9912
687.885	9506
687.931	9057
687.937	9076
687.976	9597
688.022	9311
688.058	9720
688.067	9802
688.113	9663
688.158	9629
688.179	9736
688.204	9904
688.249	10024
688.295	10178
688.300	10149
688.340	9966
688.386	10936
688.421	10382
688.431	10241
688.477	9998
688.522	10687
688.542	10820
688.567	10986
688.613	10822
688.658	10804
688.663	10794
688.703	10799
688.749	10677
688.784	10748
688.794	10765
688.839	10943
688.884	10715
688.905	10747
688.930	10890
688.975	10848
689.020	11190
689.026	11167
689.065	11070
689.110	11023
689.146	11198
689.155	11228
689.201	11030
689.246	11238
689.267	11110
689.291	11079
689.336	11558
689.381	11203
689.388	11196
689.426	11128
689.471	11342
689.509	11067
689.516	11019
689.561	10951
689.606	10796
689.630	10660
689.651	10717
689.696	11390
689.741	11308
689.750	11371
689.785	11675
689.830	11813
689.871	11932
689.875	11922
689.920	11725
689.965	11514
689.992	11152
690.010	11083
690.054	11238
690.099	11467
690.112	11595
690.144	11992
690.189	11893
690.233	11888
690.233	11905
690.278	12084
690.323	11493
690.354	11479
690.367	11608
690.412	11895
690.457	12158
690.474	12292
690.501	12520
690.546	12356
690.590	12798
690.595	12778
690.635	13046
690.680	13467
690.716	13894
690.724	14093
690.769	15062
690.813	15856
690.836	16170
690.857	17229
690.902	19749
690.946	22155
690.957	22755
690.991	29661
691.035	38922
691.077	47766
691.080	47880
691.124	47498
691.168	46695
691.198	46736
691.213	43694
691.257	34024
691.301	24379
691.318	20578
691.346	19459
691.390	17813
691.434	15765
691.439	15573
691.478	15481
691.522	15009
691.559	14404
691.567	14406
691.611	14540
691.655	14816
691.680	14817
691.699	14802
691.743	14866
691.787	14834
691.800	14703
691.831	14705
691.875	15109
691.919	15192
691.921	15162
691.964	14794
692.008	15245
692.041	14913
692.052	14895
692.096	14719
692.139	14910
692.162	14730
692.183	14392
692.227	14286
692.271	13558
692.282	13375
692.315	13458
692.359	14333
692.402	14467
692.403	14498
692.447	14796
692.490	15234
692.523	15224
692.534	15241
692.578	15373
692.622	15611
692.643	15604
692.666	15367
692.709	15149
692.753	14865
692.763	14717
692.797	14755
692.840	14754
692.884	14912
692.884	14945
692.928	14838
692.971	15157
693.004	15357
693.015	15449
693.059	15362
693.102	15463
693.124	15357
693.146	15413
693.189	15827
693.233	15903
693.245	15956
693.276	16474
693.320	17102
693.363	17337
693.365	17317
693.407	18022
693.450	19049
693.485	19576
693.493	20005
693.537	21981
693.580	23942
693.605	25123
693.624	27724
693.667	33804
693.710	39991
693.725	42115
693.753	55190
693.797	75300
693.840	96303
693.845	98513
693.883	97961
693.926	96748
693.966	95974
693.970	94015
694.013	71963
694.056	49359
694.086	33842
694.099	32520
694.142	27960
694.185	23641
694.206	21466
694.229	21033
694.272	19993
694.315	19213
694.326	18935
694.358	18721
694.401	18260
694.444	17838
694.446	17785
694.487	18012
694.530	17966
694.566	17893
694.573	17797
694.616	16911
694.659	16075
694.686	15523
694.702	15556
694.745	15644
694.787	15483
694.806	15390
694.830	15510
694.873	15798
694.916	16201
694.926	16180
694.959	16102
695.002	16043
695.044	16100
695.046	16057
695.087	16188
695.130	16386
695.166	16544
695.172	16619
695.215	16658
695.258	16969
695.286	16947
695.301	16948
695.343	17004
695.386	16987
695.406	16867
695.428	16744
695.471	16621
695.514	16487
695.526	16406
695.556	16724
695.599	17046
695.641	17474
695.646	17472
695.684	17276
695.726	16982
695.766	16618
695.769	16673
695.811	16816
695.854	17047
695.886	17225
695.896	17353
695.938	17397
695.981	17736
696.005	17893
696.023	17866
696.065	17642
696.108	17285
696.125	17161
696.150	17362
696.192	17460
696.235	17517
696.245	17544
696.277	17734
696.319	17861
696.361	18079
696.365	18023
696.404	18062
696.446	18294
696.485	18444
696.488	18479
696.530	18080
696.572	17882
696.604	17800
696.614	17884
696.656	17775
696.698	17792
696.724	17766
696.740	17738
696.783	17372
696.825	17287
696.844	17121
696.867	17456
696.909	17942
696.951	18464
696.964	18633
696.992	18494
697.034	18017
697.076	17504
697.083	17388
697.118	17795
697.160	18257
697.202	18619
697.203	18580
697.244	18320
697.286	17974
697.323	17520
697.327	17580
697.369	17825
697.411	18037
697.442	18145
697.453	18191
697.494	18062
697.536	18004
697.562	17955
697.578	18016
697.620	17973
697.661	17924
697.682	17866
697.703	17960
697.744	18060
697.786	18205
697.801	18161
697.828	18456
697.869	18905
697.911	19362
697.921	19414
697.952	18998
697.994	18376
698.035	17787
698.040	17659
698.077	17973
698.118	18312
698.160	18635
698.160	18583
698.201	18577
698.243	18544
698.279	18391
698.284	18466
698.325	18738
698.367	18988
698.399	19102
698.408	19097
698.449	18860
698.491	18622
698.518	18399
698.532	18428
698.573	18347
698.614	18295
698.638	18199
698.656	18381
698.697	18706
698.738	19007
698.757	19105
698.779	19236
698.820	19362
698.862	19504
698.877	19498
698.903	19752
698.944	20077
698.985	20390
698.996	20422
699.026	20243
699.067	19916
699.116	19470
699.235	19050
699.354	19096
699.474	19469
699.593	19072
699.713	19797
699.832	18937
699.951	19638
700.070	18846
700.190	18780
700.309	19060
700.428	17880
700.547	17675
700.667	18378
700.786	19418
700.905	17645
701.024	18541
701.143	18227
701.262	16766
701.381	17148
701.500	18437
701.619	18081
701.738	17334
701.857	18093
701.976	17078
702.095	17596
702.214	18295
702.333	17348
702.452	18019
702.571	17567
702.690	17372
702.809	17070
702.928	16377
703.047	16499
703.165	15944
703.284	17227
703.403	16253
703.522	16315
703.640	16346
703.759	17106
703.878	18788
703.997	16544
704.115	15941
704.234	15674
704.353	15871
704.471	16511
704.590	15586
704.708	15993
704.827	15419
704.946	15163
705.064	16544
705.183	15887
705.301	17365
705.420	20978
705.538	21459
705.656	18394
705.775	18239
705.893	25521
706.012	33589
706.130	19828
706.249	18866
706.367	18190
706.485	18438
706.604	17261
706.722	17390
706.840	19555
706.958	20034
707.077	19433
707.195	16497
707.313	17355
707.431	17719
707.549	16758
707.668	17488
707.786	17279
707.904	17935
708.022	16799
708.140	17187
708.258	15964
708.376	17082
708.494	16659
708.612	17188
708.730	21092
708.848	21506
708.966	19348
709.084	18885
709.202	19034
709.320	19275
709.438	19346
709.556	18812
709.674	18018
709.791	19115
709.909	18008
710.027	17811
710.145	18892
710.263	18106
710.380	17373
710.498	17412
710.616	17794
710.733	17219
710.851	18684
710.969	19054
711.086	17297
711.204	17333
711.322	17251
711.439	17086
711.557	17361
711.674	17490
711.792	17125
711.909	17872
712.027	17844
712.144	16763
712.262	16284
712.379	16244
712.497	21907
712.614	22868
712.732	20170
712.849	18903
712.966	19061
713.084	20521
713.201	20063
713.318	19467
713.436	20041
713.553	19283
713.670	19707
713.787	20268
713.905	20240
714.022	18492
714.139	18409
714.256	20054
714.373	20508
714.490	23176
714.608	32823
714.725	99119
714.842	160153
714.959	27651
715.076	19265
715.193	18037
715.310	18243
715.427	16897
715.544	17058
715.661	16910
715.778	17013
715.895	17925
716.011	17743
716.128	16863
716.245	16451
716.362	18108
716.479	17112
716.596	16668
716.713	15918
716.829	15355
716.946	16377
717.063	15582
717.180	16568
717.296	15688
717.413	15320
717.530	15311
717.646	15857
717.763	15433
717.880	14425
717.996	14491
718.113	14346
718.229	13786
718.346	14587
718.462	14750
718.579	15570
718.695	15909
718.812	16557
718.928	16050
719.045	14654
719.161	15080
719.277	13589
719.394	13744
719.510	14974
719.626	13305
719.743	15372
719.859	16360
719.975	19113
720.092	34508
720.208	84874
720.324	27206
720.440	15667
720.557	15439
720.673	15806
720.789	17866
720.905	26761
721.021	18917
721.137	14091
721.253	13929
721.369	14132
721.486	13523
721.602	15410
721.718	13592
721.834	12864
721.950	12897
722.066	13315
722.181	12329
722.297	13391
722.413	12871
722.529	12947
722.645	12767
722.761	12039
722.877	11468
722.993	11334
723.108	12372
723.224	11939
723.340	11748
723.456	12367
723.571	11740
723.687	11754
723.803	12147
723.918	11718
724.034	11135
724.150	11418
724.265	12403
724.381	14356
724.497	18794
724.612	11716
724.728	10756
724.843	11069
724.959	11587
725.074	13851
725.190	18003
725.305	10721
725.421	10722
725.536	9814
725.651	11198
725.767	10776
725.882	11023
725.997	10340
726.113	11434
726.228	10693
726.343	11255
726.459	10081
726.574	10132
726.689	10192
726.804	10138
726.920	10546
727.035	9805
727.150	10592
727.265	9525
727.380	9704
727.495	10288
727.610	10126
727.725	10175
727.841	10349
727.956	13764
728.071	15990
728.186	10378
728.301	9561
728.416	9216
728.531	10341
728.645	9581
728.760	9457
728.875	10078
728.990	9282
729.105	9120
729.220	9782
729.335	8952
729.449	9433
729.564	8562
729.679	8071
729.794	9082
729.908	9266
730.023	9127
730.138	8634
730.253	9196
730.367	8940
730.482	8857
730.596	8570
730.711	9526
730.826	9170
730.940	9473
731.055	9134
731.169	8567
731.284	9142
731.398	8846
731.513	9336
731.627	9232
731.742	9367
731.856	10187
731.970	9346
732.085	9623
732.199	10520
732.313	12626
732.428	16053
732.542	35697
732.656	35765
732.771	11815
732.885	9994
732.999	9316
733.113	9425
733.227	9557
733.342	9980
733.456	9676
733.570	9289
733.684	9236
733.798	8362
733.912	9295
734.026	8598
734.140	8771
734.254	9196
734.368	10154
734.482	11755
734.596	9223
734.710	8856
734.824	8807
734.938	8689
735.052	8410
735.166	8250
735.280	8353
735.393	8350
735.507	7850
735.621	8877
735.735	10676
735.849	9223
735.962	8246
736.076	8273
736.190	8027
736.303	8731
736.417	10387
736.531	7959
736.644	7806
736.758	7930
736.872	8091
736.985	7661
737.099	8022
737.212	7447
737.326	8097
737.439	8045
737.553	7265
737.666	7502
737.780	7437
737.893	7989
738.007	7503
738.120	7387
738.233	7471
738.347	7198
738.460	7850
738.573	7822
738.687	7419
738.800	7692
738.913	7643
739.026	8021
739.140	7206
739.253	7816
739.366	8121
739.479	7696
739.592	7907
739.705	7499
739.818	8493
739.932	6048
740.045	7337
740.158	7680
740.271	8241
740.384	8189
740.497	7126
740.610	7377
740.723	7433
740.836	7000
740.949	7276
741.062	7342
741.174	8062
741.287	7307
741.400	7326
741.513	6451
741.626	7283
741.739	7404
741.851	7049
741.964	7091
742.077	7720
742.189	7295
742.302	7288
742.415	7598
742.527	6839
742.640	7828
742.753	7286
742.865	6465
742.978	6663
743.090	7003
743.203	6653
743.316	7239
743.428	5920
743.541	6572
743.653	6511
743.766	7366
743.878	6467
743.990	7214
744.103	7785
744.215	6565
744.327	7171
744.440	6921
744.552	7621
744.664	6679
744.777	6870
744.889	7213
745.001	6991
745.113	6951
745.226	5889
745.338	6973
745.450	6704
745.562	6828
745.674	6865
745.786	7085
745.898	6310
746.010	6758
746.122	6843
746.234	7307
746.347	6178
746.459	7078
746.570	6644
746.682	6575
746.794	6466
746.906	6087
747.018	6169
747.130	6943
747.242	6514
747.354	5999
747.466	6801
747.577	6312
747.689	7017
747.801	7079
747.913	6520
748.024	6272
748.136	6213
748.248	6504
748.359	6419
748.471	6004
748.583	6299
748.694	7444
748.806	7053
748.918	6802
749.029	7344
749.141	6268
749.252	7881
749.364	5994
749.475	7489
749.587	7410
749.698	6554
749.809	6711
749.921	6739
750.032	6515
750.144	6571
750.255	6147
750.366	6551
750.478	6670
750.589	7033
750.700	5779
750.811	6432
750.923	6884
751.034	7626
751.145	7726
751.256	6038
751.367	6260
751.479	6161
751.590	6348
751.701	6750
751.812	6687
751.923	6084
752.034	6706
752.145	6991
752.256	6031
752.367	6080
752.478	6134
752.589	6267
752.700	6247
752.811	5751
752.922	6540
753.032	6355
753.143	6303
753.254	5475
753.365	6548
753.476	6448
753.586	6377
753.697	5481
753.808	6995
753.919	6626
754.029	6097
754.140	6101
754.251	6789
754.361	6677
754.472	6507
754.582	6931
754.693	5990
754.804	6423
754.914	6262
755.025	5949
755.135	6482
755.246	6322
755.356	6232
755.466	6567
755.577	6253
755.687	6788
755.798	6820
755.908	6334
756.018	6483
756.129	7340
756.239	6064
756.349	7040
756.460	6677
756.570	7695
756.680	6782
756.790	6007
756.900	6745
757.011	6741
757.121	6778
757.231	6911
757.341	7508
757.451	6502
757.561	5854
757.671	7029
757.781	6594
757.891	7690
758.001	7448
758.111	7999
758.221	7296
758.331	7702
758.441	8424
758.551	6713
758.661	7049
758.771	7544
758.880	8038
758.990	7948
759.100	8021
759.210	8723
759.320	8459
759.429	8708
759.539	8232
759.649	8983
759.758	8632
759.868	8705
759.978	7902
760.087	8666
760.197	9131
760.307	9291
760.416	9108
760.526	8784
760.635	9691
760.745	9579
760.854	9832
760.964	10438
761.073	11062
761.182	10779
761.292	10818
761.401	10484
761.511	10912
761.620	10624
761.729	11166
761.839	11968
761.948	12132
762.057	12045
762.166	12061
762.276	11248
762.385	13240
762.494	13207
762.603	12611
762.712	13682
762.822	13539
762.931	14694
763.040	14539
763.149	16268
763.258	15645
763.367	16850
763.476	17190
763.585	18036
763.694	19207
763.803	19567
763.912	20626
764.021	21409
764.130	22155
764.238	24281
764.347	25337
764.456	27438
764.565	30164
764.674	31989
764.783	34942
764.891	37949
765.000	43240
765.109	47127
765.217	54317
765.326	62382
765.435	72524
765.543	86396
765.652	106958
765.761	133940
765.869	172183
765.978	225336
766.086	299900
766.195	392812
766.303	450087
766.412	367797
766.520	285303
766.629	439046
766.737	422887
766.846	335526
766.954	249648
767.062	191723
767.171	148161
767.279	116684
767.387	94774
767.496	78750
767.604	69109
767.712	60867
767.820	53506
767.928	49164
768.037	45985
768.145	42299
768.253	41158
768.361	39083
768.469	40063
768.577	39702
768.685	41312
768.793	43560
768.901	46744
769.009	52920
769.117	61813
769.225	76862
769.333	100245
769.441	141111
769.549	210626
769.657	318635
769.765	404670
769.873	321440
769.981	371980
770.088	372000
770.196	262015
770.304	179980
770.412	130479
770.519	98994
770.627	79199
770.735	65691
770.842	54821
770.950	47977
771.058	40234
771.165	36856
771.273	33879
771.380	30479
771.488	28306
771.595	26019
771.703	23222
771.810	22467
771.918	21081
772.025	19917
772.133	19268
772.240	17905
772.348	17628
772.455	16689
772.562	16224
772.670	15171
772.777	15216
772.884	15466
772.991	14406
773.099	13633
773.206	12784
773.313	12989
773.420	12672
773.528	12386
773.635	11353
773.742	11862
773.849	11857
773.956	10935
774.063	9804
774.170	10610
774.277	10991
774.384	9480
774.491	10090
774.598	9791
774.705	10414
774.812	10340
774.919	9796
775.026	9634
775.133	8338
775.239	9611
775.346	8170
775.453	8870
775.560	8679
775.667	8700
775.773	8130
775.880	9023
775.987	8295
776.093	8063
776.200	7432
776.307	8311
776.413	8089
776.520	7112
776.627	7919
776.733	7617
776.840	6785
776.946	8587
777.053	6933
777.159	7405
777.266	6382
777.372	7179
777.478	7269
777.585	7806
777.691	6293
777.798	6217
777.904	6583
778.010	7233
778.117	7627
778.223	6503
778.329	6182
778.435	6314
778.542	7542
778.648	6681
778.754	5235
778.860	5755
778.966	5927
779.072	6361
779.178	6472
779.284	5569
779.391	6363
779.497	6767
779.603	8742
779.708	9769
779.815	18063
779.920	52363
780.026	145947
780.132	47041
780.238	10802
780.344	8243
780.450	7149
780.556	5927
780.661	5862
780.767	5250
780.873	5132
780.979	5720
781.085	5164
781.190	5134
781.296	5455
781.402	5287
781.507	5280
781.613	5043
781.719	4821
781.824	4858
781.930	4558
782.035	4831
782.141	5037
782.246	4912
782.352	3881
782.457	4437
782.563	4822
782.668	4789
782.773	4593
782.879	4818
782.984	5480
783.090	5028
783.195	4884
783.300	4801
783.405	4433
783.511	4179
783.616	5098
783.721	4080
783.826	4533
783.932	4031
784.037	4485
784.142	3581
784.247	3592
784.352	4381
784.457	5022
784.562	4795
784.667	4295
784.772	5055
784.877	3851
784.982	5285
785.087	3755
785.192	4005
785.297	4202
785.402	3922
785.507	3877
785.611	4512
785.716	4280
785.821	4456
785.926	3184
786.031	3674
786.135	3459
786.240	4192
786.345	3026
786.450	4165
786.554	4052
786.659	3383
786.763	2826
786.868	3618
786.973	4287
787.077	4276
787.182	3731
787.286	4557
787.391	3561
787.495	4149
787.600	3182
787.704	3420
787.809	3919
787.913	4567
788.017	4405
788.122	3572
788.226	3351
788.330	3103
788.435	3146
788.539	3565
788.643	3181
788.747	2949
788.852	3991
788.956	2948
789.060	3488
789.164	3919
789.268	3339
789.372	4961
789.476	3380
789.580	2919
789.684	3212
789.788	3897
789.892	2762
789.996	3508
790.100	3071
790.204	3402
790.308	3168
790.412	3570
790.516	3021
790.620	3903
790.724	3711
790.828	3389
790.931	2543
791.035	3600
791.139	3015
791.242	2746
791.346	4076
791.450	3321
791.554	3158
791.657	2866
791.761	4342
791.864	3837
791.968	3318
792.072	3626
792.175	2428
792.279	2877
792.382	2623
792.486	3531
792.589	2615
792.693	3184
792.796	3324
792.899	4096
793.003	2968
793.106	3079
793.209	3097
793.313	3700
793.416	2189
793.519	3170
793.623	3619
793.726	4217
793.829	2497
793.932	3309
794.035	2156
794.138	3896
794.242	4185
794.345	4783
794.448	6092
794.551	9602
794.654	31384
794.757	93484
794.860	32869
794.963	6132
795.066	4640
795.169	4080
795.272	2645
795.375	3478
795.477	3156
795.580	3329
795.683	1923
795.786	2878
795.889	2342
795.991	2907
796.094	3280
796.197	2815
796.300	2308
796.402	2552
796.505	1669
796.608	2710
796.710	3209
796.813	2322
796.915	2550
797.018	2437
797.120	2390
797.223	2149
797.326	3013
797.428	2722
797.530	1994
797.633	2397
797.735	3467
797.838	3185
797.940	3342
798.042	2441
798.145	2232
798.247	2863
798.349	1725
798.452	2048
798.554	2550
798.656	2273
798.758	2787
798.860	2273
798.962	2512
799.065	1910
799.167	2345
799.269	2721
799.371	2153
799.473	2454
799.575	2647
799.677	2763
799.779	4026
799.881	1621
799.983	3846
800.085	2236
800.187	3462
800.289	1847
800.390	2500
800.492	3196
800.594	2975
800.696	2073
800.798	2324
800.899	1849
801.001	2110
801.103	2832
801.205	2258
801.306	2338
801.408	1593
801.509	2126
801.611	3012
801.713	2574
801.814	1573
801.916	2901
802.017	2597
802.119	1923
802.220	2164
802.322	397
802.423	3158
802.525	2344
802.626	2423
802.727	2305
802.829	2249
802.930	918
803.031	3567
803.133	2227
803.234	2100
803.335	1933
803.436	1446
803.538	2581
803.639	1226
803.740	2199
803.841	1101
803.942	2596
804.043	2102
804.144	1980
804.245	1822
804.346	1737
804.447	2382
804.548	2167
804.649	3088
804.750	1431
804.851	1819
804.952	2122
805.053	1188
805.154	844
805.255	2599
805.355	2241
805.456	1603
805.557	1967
805.658	268
805.758	2016
805.859	2116
805.960	1690
806.061	2119
806.161	1985
806.262	2798
806.362	1800
806.463	1923
806.564	1820
806.664	1307
806.765	2082
806.865	1556
806.966	1822
807.066	2437
807.166	2121
807.267	2188
807.367	1372
807.468	1992
807.568	1438
807.668	1950
807.769	1997
807.869	1370
807.969	1114
808.069	1868
808.170	1971
808.270	2074
808.370	3086
808.470	1597
808.570	1372
808.670	1583
808.770	1171
808.870	1648
808.970	1978
809.070	1187
809.170	1394
809.271	2188
809.370	1540
809.470	2237
809.570	2126
809.670	1126
809.770	2585
809.870	1695
809.970	1306
810.070	1721
810.169	2131
810.269	702
810.369	2392
810.469	1317
810.568	1541
810.668	1265
810.768	1019
810.867	2370
810.967	2099
811.066	1675
811.166	1790
811.265	1891
811.365	1359
811.464	1901
811.564	1630
811.663	2178
811.763	791
811.862	1799
811.962	1549
812.061	1266
812.160	1269
812.260	1665
812.359	1767
812.458	1681
812.557	3544
812.657	5311
812.756	3796
812.855	2168
812.954	1775
813.053	994
813.153	2051
813.252	645
813.351	2315
813.450	1429
813.549	993
813.648	1674
813.747	1700
813.846	1834
813.945	1047
814.044	1720
814.143	1734
814.242	2144
814.341	1611
814.439	1771
814.538	1318
814.637	1277
814.736	2412
814.835	2035
814.933	1136
815.032	1899
815.131	1735
815.229	1593
815.328	2554
815.427	1901
815.525	1530
815.624	2087
815.722	2463
815.821	1816
815.919	2128
816.018	1868
816.116	2266
816.215	2005
816.313	2411
816.412	2168
816.510	3032
816.609	3454
816.707	3035
816.805	3337
816.904	2426
817.002	3110
817.100	4182
817.198	3196
817.296	3363
817.395	3308
817.493	4552
817.591	4153
817.689	5660
817.787	7372
817.885	10061
817.983	16139
818.081	29438
818.179	62396
818.277	144523
818.375	168406
818.473	70486
818.571	27011
818.669	17062
818.767	13742
818.865	12558
818.963	14168
819.061	19309
819.158	29138
819.256	52930
819.354	106549
819.452	203350
819.549	186171
819.647	85477
819.745	37601
819.842	21457
819.940	14407
820.038	10877
820.135	8014
820.233	7251
820.330	6184
820.428	4493
820.525	5147
820.623	4489
820.720	3239
820.818	3275
820.915	3763
821.012	3316
821.110	2743
821.207	3182
821.304	2379
821.402	2599
821.499	2611
821.596	3019
821.693	2876
821.791	2447
821.888	2742
821.985	3647
822.082	3027
822.179	2279
822.276	2000
822.373	1993
822.470	1728
822.567	1902
822.664	2159
822.761	1664
822.858	1855
822.955	1807
823.052	1933
823.149	1126
823.246	705
823.343	1422
823.440	2232
823.536	1659
823.633	1950
823.730	1797
823.827	1704
823.923	1913
824.020	2132
824.117	1218
824.213	1195
824.310	1746
824.407	910
824.503	1599
824.600	2250
824.696	1573
824.793	2089
824.889	2015
824.986	1336
825.082	1361
825.179	1528
825.275	1268
825.371	1303
825.468	2478
825.564	917
825.660	1665
825.757	1519
825.853	2678
825.949	710
826.045	1278
826.142	1266
826.238	1589
826.334	1693
826.430	1215
826.526	1907
826.622	1663
826.718	721
826.814	1368
826.910	1807
827.006	1348
827.102	1330
827.198	1289
827.294	256
827.390	1785
827.486	1647
827.582	863
827.678	710
827.774	1239
827.869	1234
827.965	2296
828.061	590
828.157	1066
828.252	1787
828.348	830
828.444	2174
828.539	730
828.635	1771
828.731	2171
828.826	803
828.922	1512
829.017	725
829.113	2078
829.208	671
829.304	883
829.399	1843
829.495	692
829.590	1787
829.685	786
829.781	2006
829.876	1777
829.971	962
830.066	765
830.162	1624
830.257	479
830.352	752
830.447	1343
830.543	1109
830.638	342
830.733	1754
830.828	798
830.923	1022
831.018	1238
831.113	779
831.208	1124
831.303	1496
831.398	1353
831.493	934
831.588	1090
831.683	293
831.778	1268
831.873	723
831.967	1663
832.062	259
832.157	706
832.252	1408
832.346	894
832.441	1724
832.536	1672
832.631	2531
832.725	2181
832.820	464
832.914	586
833.009	655
833.104	791
833.198	390
833.293	897
833.387	1513
833.482	1219
833.576	279
833.670	977
833.765	621
833.859	1233
833.954	932
834.048	669
834.142	1474
834.237	694
834.331	894
834.425	1548
834.519	367
834.613	1371
834.708	744
834.802	478
834.896	993
834.990	1692
835.084	1545
835.178	906
835.272	491
835.366	685
835.460	1859
835.554	1512
835.648	625
835.742	641
835.836	1227
835.930	-549
836.024	1522
836.117	821
836.211	742
836.305	1089
836.399	2004
836.493	649
836.586	1226
836.680	776
836.774	247
836.867	1652
836.961	53
837.055	309
837.148	1446
837.242	340
837.335	316
837.429	1439
837.522	-210
837.616	1394
837.709	1293
837.803	955
837.896	1688
837.989	1257
838.083	1408
838.176	1883
838.269	1820
838.363	1388
838.456	302
838.549	1308
838.642	876
838.735	2729
838.829	1599
838.922	779
839.015	960
839.108	631
839.201	1095
839.294	1742
839.387	1114
839.480	928
839.573	1039
839.666	797
839.759	263
839.852	644
839.945	1293
840.038	657
840.131	882
840.223	344
840.316	1736
840.409	909
840.502	324
840.594	1427
840.687	-29
840.780	1152
840.873	484
840.965	700
841.058	470
841.150	1455
841.243	923
841.336	883
841.428	678
841.521	556
841.613	280
841.706	906
841.798	392
841.890	-6
841.983	679
842.075	1039
842.167	521
842.260	806
842.352	1276
842.444	738
842.537	1377
842.629	2410
842.721	839
842.813	667
842.905	528
842.997	1640
843.090	797
843.182	648
843.274	820
843.366	3264
843.458	5570
843.550	6136
843.642	972
843.734	757
843.826	415
843.918	1171
844.009	1084
844.101	474
844.193	-146
844.285	242
844.377	972
844.469	666
844.560	442
844.652	633
844.744	752
844.835	951
844.927	233
845.019	1082
845.110	985
845.202	729
845.293	1259
845.385	106
845.476	-115
845.568	489
845.659	831
845.751	876
845.842	626
845.934	716
846.025	418
846.116	302
846.208	528
846.299	945
846.390	873
846.482	1727
846.573	789
846.664	1220
846.755	545
846.846	1426
846.937	253
847.029	1095
847.120	911
847.211	1553
847.302	2052
847.393	16
847.484	731
847.575	23
847.666	88
847.757	572
847.847	584
847.938	1208
848.029	519
848.120	153
848.211	695
848.302	236
848.392	620
848.483	1104
848.574	123
848.664	166
848.755	635
848.846	706
848.936	-528
849.027	801
849.118	318
849.208	885
849.299	172
849.389	1382
849.480	911
849.570	1616
849.661	2137
849.751	3676
849.841	2472
849.932	957
850.022	366
850.112	400
850.203	670
850.293	746
850.383	586
850.474	454
850.564	370
850.654	477
850.744	822
850.834	616
850.924	245
851.014	835
851.104	641
851.194	-118
851.284	1090
851.374	857
851.464	633
851.554	499
851.644	248
851.734	1692
851.824	1943
851.914	2967
852.004	6427
852.094	9175
852.183	3438
852.273	669
852.363	23
852.452	177
852.542	497
852.632	370
852.721	339
852.811	-621
852.901	511
852.990	330
853.080	1208
853.169	-298
853.259	796
853.348	677
853.438	716
853.527	898
853.617	-400
853.706	1430
853.795	1553
853.885	4892
853.974	8762
854.063	14163
854.152	25952
854.242	15459
854.331	2601
854.420	546
854.509	495
854.598	736
854.687	879
854.777	1525
854.866	188
854.955	432
855.044	146
855.133	-128
855.222	91
855.311	304
855.400	39
855.488	641
855.577	966
855.666	1119
855.755	664
855.844	745
855.933	697
856.021	115
856.110	571
856.199	12
856.288	191
856.376	-75
856.465	211
856.554	412
856.642	742
856.731	817
856.819	335
856.908	-86
856.996	136
857.085	-39
857.173	340
857.262	-69
857.350	130
857.438	-223
857.527	499
857.615	-17
857.703	338
857.792	266
857.880	123
857.968	16
858.056	-231
858.145	-424
858.233	-325
858.321	125
858.409	602
858.497	370
858.585	-2
858.673	227
858.761	-4
858.849	103
858.937	358
859.025	435
859.113	495
859.201	-158
859.289	1488
859.377	702
859.465	729
859.552	716
859.640	270
859.728	530
859.816	-211
859.903	617
859.991	-94
860.079	812
860.166	26
860.254	629
860.342	357
860.429	-678
860.517	-144
860.604	882
860.692	771
860.779	-30
860.867	-426
860.954	-82
861.042	25
861.129	1075
861.216	374
861.304	98
861.391	-62
861.478	187
861.565	919
861.653	782
861.740	-692
861.827	214
861.914	-19
862.001	360
862.089	-432
862.176	-26
862.263	-140
862.350	-337
862.437	192
862.524	-326
862.611	826
862.698	345
862.785	101
862.871	540
862.958	-744
863.045	-480
863.132	719
863.219	-444
863.306	608
863.392	548
863.479	-352
863.566	883
863.652	416
863.739	-654
863.826	84
863.912	543
863.999	-803
864.086	416
864.172	211
864.259	-410
864.345	-231
864.432	737
864.518	418
864.604	666
864.691	30
864.777	1281
864.863	660
864.950	580
865.036	488
865.122	767
865.209	1295
865.295	894
865.381	1023
865.467	1008
865.553	681
865.639	1137
865.726	1574
865.812	3110
865.898	4696
865.984	6787
866.070	11105
866.156	16976
866.242	6178
866.328	2243
866.414	1279
866.499	1518
866.585	142
866.671	322
866.757	1627
866.843	425
866.928	562
867.014	576
867.100	808
867.186	1263
867.271	43
867.357	1256
867.442	1122
867.528	1219
867.614	361
867.699	780
867.785	928
867.870	758
867.956	98
868.041	2007
868.127	470
868.212	923
868.297	1284
868.383	1165
868.468	1118
868.553	792
868.639	1262
868.724	1622
868.809	2879
868.894	1074
868.979	692
869.065	352
869.150	42
869.235	1025
869.320	516
869.405	651
869.490	86
869.575	727
869.660	350
869.745	332
869.830	387
869.915	520
870.000	507
870.085	-84
870.169	752
870.254	654
870.339	108
870.424	-29
870.509	880
870.593	395
870.678	290
870.763	193
870.847	1425
870.932	212
871.016	745
871.101	-70
871.186	517
871.270	534
871.355	318
871.439	260
871.523	18
871.608	-281
871.692	437
871.777	415
871.861	-8
871.945	546
872.030	667
872.114	912
872.198	727
872.282	0
872.367	275
872.451	596
872.535	446
872.619	928
872.703	-455
872.787	265
872.871	695
872.955	628
873.039	482
873.123	190
873.207	445
873.291	678
873.375	-399
873.459	186
873.543	-620
873.627	60
873.711	260
873.794	358
873.878	-9
873.962	-761
874.045	626
874.129	74
874.137	16
874.213	-564
874.245	-268
874.296	214
874.352	-333
874.380	-602
874.460	563
874.464	609
874.547	106
874.568	209
874.631	539
874.676	64
874.714	-336
874.784	-58
874.798	-2
874.881	884
874.892	776
874.965	27
874.999	24
875.048	-13
875.107	-354
875.131	-490
875.215	265
875.215	265
875.298	213
875.323	211
875.381	199
875.430	423
875.465	608
875.538	-108
875.548	-214
875.631	-322
875.646	-250
875.714	63
875.753	-218
875.798	-535
875.861	219
875.881	467
875.964	66
875.968	93
876.047	643
876.076	514
876.130	148
876.183	22
876.213	3
876.291	540
876.296	575
876.379	-178
876.398	-96
876.462	127
876.506	-276
876.545	-619
876.613	74
876.628	217
876.711	-83
876.721	-31
876.794	443
876.828	389
876.877	294
876.935	207
876.960	185
877.043	386
877.043	385
877.125	128
877.150	243
877.208	534
877.258	468
877.291	470
877.365	-405
877.374	-520
877.456	-105
877.472	26
877.539	696
877.579	600
877.622	351
877.687	515
877.704	620
877.787	413
877.794	375
877.869	43
877.901	253
877.952	350
878.008	65
878.034	19
878.115	570
878.117	577
878.199	-52
878.222	-100
878.282	-28
878.329	-92
878.364	-196
878.437	301
878.447	368
878.529	-223
878.544	-67
878.611	666
878.651	318
878.694	-58
878.758	189
878.776	232
878.858	212
878.865	216
878.941	522
878.972	534
879.023	298
879.078	-113
879.105	-197
879.185	151
879.187	159
879.269	401
879.292	365
879.351	88
879.399	-15
879.433	-54
879.506	270
879.516	325
879.598	-50
879.613	-66
879.680	-113
879.720	-33
879.762	-75
879.827	-169
879.844	-186
879.926	-104
879.933	-144
880.007	-220
880.040	-141
880.089	-288
880.147	-250
880.171	-27
880.253	423
880.254	426
880.335	546
880.360	428
880.417	405
880.467	813
880.499	1062
880.574	1437
880.580	1456
880.662	753
880.680	674
880.744	317
880.787	80
880.825	1
880.893	-44
880.907	-90
880.989	11
881.000	-36
881.070	-141
881.106	39
881.152	98
881.213	-157
881.233	-165
881.315	-192
881.319	-167
881.396	334
881.426	293
881.478	-31
881.532	158
881.559	437
881.639	235
881.641	225
881.722	297
881.745	383
881.803	532
881.852	280
881.885	41
881.958	-17
881.966	3
882.047	-123
882.064	-98
882.129	-84
882.171	-307
882.210	-167
882.277	865
882.291	920
882.372	304
882.383	250
882.454	74
882.489	88
882.535	104
882.596	77
882.616	123
882.697	122
882.702	113
882.778	61
882.808	195
882.859	311
882.914	376
882.940	336
883.020	-120
883.021	-119
883.102	339
883.127	491
883.183	728
883.233	612
883.264	330
883.339	226
883.345	259
883.426	182
883.445	208
883.507	161
883.551	46
883.587	-109
883.657	-103
883.668	-43
883.749	329
883.763	377
883.830	198
883.869	10
883.910	-90
883.975	-307
883.991	-290
884.072	382
884.081	394
884.152	327
884.187	289
884.233	144
884.292	304
884.314	240
884.394	-616
884.398	-655
884.475	-782
884.504	-573
884.555	-74
884.610	-28
884.636	-102
884.716	-175
884.716	-173
884.797	18
884.821	-2
884.877	56
884.927	-20
884.958	-101
885.033	183
885.038	193
885.118	-416
885.139	-427
885.199	-458
885.244	-427
885.279	-187
885.350	149
885.359	135
885.439	177
885.456	81
885.520	-123
885.561	-2
885.600	-66
885.667	-421
885.680	-368
885.760	65
885.773	164
885.840	179
885.878	89
885.920	195
885.984	206
886.000	159
886.080	246
886.089	234
886.160	49
886.195	-27
886.240	70
886.300	184
886.320	41
886.400	-511
886.406	-545
886.480	-147
886.511	41
886.560	131
886.616	120
886.640	205
886.720	597
886.722	604
886.800	220
886.827	60
886.879	307
886.932	519
886.959	465
887.038	480
887.039	482
887.119	369
887.143	356
887.198	371
887.248	361
887.278	241
887.354	-159
887.358	-163
887.437	-239
887.459	-229
887.517	-180
887.564	-167
887.596	-71
887.669	93
887.676	61
887.755	-167
887.774	-259
887.835	-130
887.880	-66
887.914	82
887.985	528
887.994	504
888.073	137
888.090	78
888.153	140
888.195	160
888.232	80
888.300	-42
888.311	-40
888.391	-61
888.405	-64
888.470	-91
888.510	-101
888.549	-210
888.615	-325
888.628	-275
888.708	-42
888.720	-0
888.787	-493
888.825	-784
888.866	-809
888.930	-832
888.945	-702
889.024	90
889.035	182
889.103	238
889.140	299
889.182	18
889.245	-394
889.261	-385
889.340	-338
889.349	-326
889.419	-580
889.454	-711
889.498	-785
889.559	-852
889.577	-855
889.656	-842
889.664	-832
889.735	373
889.768	949
889.814	486
889.873	-126
889.978	34
890.083	133
890.187	326
890.292	809
890.397	655
890.501	-357
890.606	186
890.710	159
890.815	1219
890.919	-78
891.024	305
891.128	431
891.233	478
891.337	106
891.442	115
891.546	150
891.650	-357
891.755	58
891.859	713
891.963	16
892.068	-300
892.172	238
892.276	-5
892.380	-677
892.484	-331
892.589	233
892.693	-523
892.797	-319
892.901	-30
893.005	2
893.109	-459
893.213	1040
893.317	189
893.421	418
893.525	-271
893.629	-123
893.733	-85
893.837	-392
893.941	-104
894.045	357
894.148	-130
894.252	537
894.356	669
894.460	279
894.564	-202
894.667	-323
894.771	-18
894.875	436
894.978	659
895.082	-576
895.186	-428
895.289	559
895.393	-45
895.496	172
895.600	-288
895.703	-1155
895.807	-366
895.910	110
896.014	142
896.117	-179
896.221	162
896.324	256
896.427	365
896.531	-819
896.634	609
896.737	351
896.840	-230
896.944	-810
897.047	-22
897.150	-322
897.253	455
897.356	-420
897.460	-17
897.563	-202
897.666	-1014
897.769	-12
897.872	-132
897.975	-532
898.078	713
898.181	-82
898.284	-452
898.387	435
898.490	255
898.593	-234
898.695	-79
898.798	-797
898.901	-258
899.004	388
899.107	-532
899.209	-449
899.312	-290
899.415	-306
899.518	268
899.620	-756
899.723	-390
899.826	-5
899.928	461
900.031	-377
900.133	343
900.236	-142
900.338	2
900.441	210
900.543	-533
900.646	260
900.748	-46
900.851	-4
900.953	-263
901.055	-966
901.158	-403
901.260	707
901.362	-746
901.465	-327
901.567	-49
901.669	428
901.771	-236
901.873	158
901.976	-471
902.078	143
902.180	324
902.282	-811
902.384	-585
902.486	-41
902.588	-42
902.690	-405
902.792	88
902.894	40
902.996	-103
903.098	623
903.200	-528
903.302	-32
903.404	-346
903.505	-466
903.607	177
903.709	324
903.811	245
903.913	-8
904.014	-36
904.116	-753
904.218	-460
904.319	77
904.421	149
904.523	62
904.624	371
904.726	79
904.827	-276
904.929	-782
905.030	-132
905.132	216
905.233	-769
905.335	87
905.436	-391
905.537	-329
905.639	234
905.740	-372
905.841	-284
905.943	160
906.044	164
906.145	-367
906.247	-231
906.348	-186
906.449	795
906.550	101
906.651	609
906.752	-612
906.854	85
906.955	44
907.056	-67
907.157	365
907.258	-468
907.359	-526
907.460	-522
907.561	-81
907.662	264
907.762	-356
907.863	-810
907.964	651
908.065	-268
908.166	-84
908.267	-219
908.367	-485
908.468	-30
908.569	-244
908.670	-243
908.770	542
908.871	108
908.971	-171
909.072	-271
909.173	-719
909.273	-706
909.374	-124
909.474	-7
909.575	271
909.675	-264
909.776	-601
909.876	-167
909.977	-326
910.077	-492
910.177	-843
910.278	-261
910.378	-622
910.478	-107
910.579	41
910.679	85
910.779	-583
910.879	-243
910.980	-518
911.080	149
911.180	-594
911.280	-232
911.380	-369
911.480	-120
911.580	55
911.680	443
911.780	-531
911.880	-127
911.980	276
912.080	399
912.180	188
912.280	-744
912.380	290
912.480	-268
912.580	0
912.679	371
912.779	192
912.879	-182
912.979	392
913.078	-101
913.178	65
913.278	289
913.377	-49
913.477	-641
913.577	-460
913.676	67
913.776	505
913.875	377
913.975	83
914.074	465
914.174	-169
914.273	-437
914.373	-35
914.472	-63
914.572	-537
914.671	-573
914.770	-250
914.870	154
914.969	-484
915.068	-147
915.167	17
915.267	100
915.366	241
915.465	128
915.564	84
915.663	-265
915.763	559
915.862	-177
915.961	-86
916.060	-610
916.159	10
916.258	-475
916.357	138
916.456	331
916.555	-124
916.654	-463
916.752	-208
916.851	-573
916.950	-315
917.049	-1452
917.148	53
917.247	-144
917.345	-917
917.444	-547
917.543	-416
917.642	168
917.740	-414
917.839	-15
917.937	353
918.036	-442
918.135	-689
918.233	-586
918.332	-295
918.430	-96
918.529	-174
918.627	-92
918.726	705
918.824	-626
918.923	-599
919.021	-574
919.119	378
919.218	-343
919.316	-648
919.414	10
919.512	347
919.611	-367
919.709	-98
919.807	-176
919.905	-339
920.003	-974
920.102	-395
920.200	-961
920.298	46
920.396	-586
920.494	503
920.592	-388
920.690	-68
920.788	42
920.886	-709
920.984	-77
921.082	-133
921.180	44
921.277	-566
921.375	-651
921.473	62
921.571	-117
921.669	-104
921.766	-314
921.864	-554
921.962	438
922.060	-586
922.157	229
922.255	-455
922.352	-757
922.450	-308
922.548	-390
922.645	-668
922.743	-121
922.840	-138
922.938	-158
923.035	-447
923.133	-304
923.230	359
923.327	-66
923.425	797
923.522	961
923.619	-186
923.717	-38
923.814	-251
923.911	465
924.008	511
924.106	-309
924.203	-314
924.300	-414
924.397	-25
924.494	412
924.591	-911
924.688	-18
924.786	473
924.883	686
924.979	230
925.077	-261
925.173	-738
925.270	505
925.367	399
925.464	484
925.561	-225
925.658	345
925.755	542
925.852	64
925.948	910
926.045	122
926.142	251
926.239	433
926.335	115
926.432	-230
926.529	-602
926.625	443
926.722	-347
926.818	366
926.915	13
927.011	-476
927.108	114
927.204	-691
927.301	-610
927.397	368
927.494	-704
927.590	-567
927.687	-692
927.783	41
927.879	-358
927.976	-574
928.072	579
928.168	-501
928.264	-179
928.361	-232
928.457	-711
928.553	-498
928.649	-421
928.745	-607
928.841	173
928.937	-199
929.033	-440
929.129	420
929.225	-6
929.321	-789
929.417	-212
929.513	-127
929.609	-749
929.705	-204
929.801	-734
929.897	-194
929.993	-231
930.089	185
930.184	246
930.280	-42
930.376	-1171
930.471	-424
930.567	-348
930.663	500
930.758	-151
930.854	-345
930.950	-727
931.045	57
931.141	-137
931.236	408
931.332	-835
931.427	-768
931.523	-206
931.618	-332
931.714	-480
931.809	63
931.905	293
932.000	-194
932.095	-255
932.191	-592
932.286	-692
932.381	-516
932.476	-482
932.572	-589
932.667	-368
932.762	-124
932.857	-27
932.952	-1170
933.047	97
933.142	-169
933.237	-16
933.332	-444
933.427	152
933.522	-722
933.617	-1084
933.712	-678
933.807	-56
933.902	-816
933.997	-515
934.092	-321
934.187	480
934.282	296
934.376	400
934.471	-610
934.566	-84
934.661	-276
934.755	-80
934.850	-595
934.945	-116
935.039	-127
935.134	-1009
935.228	-687
935.323	-902
935.417	-470
935.512	-849
935.606	-561
935.701	-276
935.795	-599
935.890	-68
935.984	-651
936.079	-477
936.173	-520
936.267	-212
936.362	-682
936.456	-731
936.550	-1181
936.644	-262
936.738	-185
936.833	262
936.927	52
937.021	-964
937.115	-460
937.209	-144
937.303	-400
937.397	-589
937.491	-730
937.585	100
937.679	-156
937.773	-346
937.867	-525
937.961	-849
938.055	-360
938.149	256
938.243	-27
938.337	185
938.430	-360
938.524	225
938.618	234
938.712	-700
938.805	-655
938.899	-1061
938.993	-759
939.086	-467
939.180	-525
939.274	-86
939.367	-927
939.461	-39
939.554	-303
939.648	-972
939.741	-210
939.835	-818
939.928	-488
940.022	-235
940.115	-1377
940.208	-209
940.302	-223
940.395	-559
940.488	-813
940.582	118
940.675	-796
940.768	-662
940.861	-983
940.954	-569
941.048	-660
941.141	-806
941.234	-737
941.327	151
941.420	-667
941.513	-490
941.606	-1312
941.699	-853
941.792	-754
941.885	-1045
941.978	-581
942.071	-529
942.164	-1210
942.257	-815
942.349	-739
942.442	-210
942.535	-1143
942.628	-397
942.721	-610
942.813	-1017
942.906	-216
942.999	-591
943.091	-547
943.184	-333
943.277	9
943.369	-429
943.462	-1432
943.554	-83
943.647	86
943.739	-1320
943.832	-335
943.924	-807
944.017	-691
944.109	-1039
944.201	-640
944.294	78
944.386	-705
944.478	-778
944.571	-913
944.663	-588
944.755	-1255
944.847	-828
944.940	-410
945.032	-797
945.124	-21
945.216	-621
945.308	-1141
945.400	-468
945.492	-504
945.584	-220
945.676	-748
945.768	-588
945.860	-423
945.952	-777
946.044	-550
946.136	-1466
946.228	-42
946.320	-893
946.412	-423
946.503	-170
946.595	-80
946.687	-607
946.779	-678
946.870	-1185
946.962	-541
947.054	-252
947.145	-384
947.237	-1011
947.329	-579
947.420	-151
947.512	-1728
947.603	-389
947.695	-671
947.786	-342
947.878	-700
947.969	-755
948.061	-1203
948.152	-89
948.243	-570
948.335	-469
948.426	-598
948.517	-642
948.609	-8
948.700	-610
948.791	-1199
948.882	39
948.973	-193
949.065	-774
949.156	-760
949.247	-1014
949.338	-894
949.429	-385
949.520	-1084
949.611	-1128
949.702	-771
949.793	-396
949.884	-368
949.975	-144
950.066	-938
950.157	-609
950.247	186
950.338	-724
950.429	-1118
950.520	-616
950.611	-232
950.701	-324
950.792	-260
950.883	-521
950.973	-532
951.064	-909
951.155	-764
951.245	-781
951.336	-645
951.427	-1655
951.517	-789
951.608	-662
951.698	-747
951.788	-346
951.879	-877
951.969	-1143
952.060	-407
952.150	-385
952.240	-287
952.331	-1416
952.421	-1058
952.511	-1410
952.602	-657
952.692	-644
952.782	-77
952.872	-773
952.962	-429
953.052	-581
953.143	-914
953.233	-767
953.323	-155
953.413	-1439
953.503	-115
953.593	-303
953.683	-1271
953.773	-1237
953.863	-294
953.953	-738
954.042	-322
954.132	-630
954.222	-455
954.312	-821
954.402	-1082
954.492	-1203
954.581	-724
954.671	-888
954.761	-1414
954.850	-198
954.940	-1114
955.030	-600
955.119	-688
955.209	14
955.298	-897
955.388	-597
955.477	-459
955.567	-1300
955.656	69
955.746	-772
955.835	-996
955.925	-755
956.014	-806
956.103	-350
956.193	284
956.282	-1061
956.371	-285
956.461	-1144
956.550	-1216
956.639	-690
956.728	-464
956.817	-886
956.906	-873
956.995	-758
957.085	-1233
957.174	338
957.263	-586
957.352	-153
957.441	-494
957.530	-489
957.619	-1289
957.708	-895
957.796	-431
957.885	112
957.974	-993
958.063	-172
958.152	-792
958.241	-761
958.329	-1568
958.418	-350
958.507	-1180
958.596	237
958.684	-685
958.773	-48
958.861	-918
958.950	-872
959.039	-386
959.127	-1129
959.216	529
959.304	-704
959.393	-911
959.481	447
959.570	-689
959.658	83
959.746	-271
959.835	71
959.923	-1283
960.011	-431
960.100	203
960.188	632
960.276	-251
960.365	-1654
960.453	-436
960.541	-1267
960.629	-878
960.717	-1024
960.805	-714
960.893	-621
960.981	-247
961.069	-81
961.158	-862
961.245	-1750
961.333	-1279
961.421	-782
961.509	-960
961.597	-298
961.685	-1305
961.773	-760
961.861	-1015
961.949	-52
962.036	-755
962.124	-811
962.212	-609
962.299	-911
962.387	-1163
962.475	-1110
962.562	-627
962.650	164
962.738	-892
962.825	-1087
962.913	-574
963.000	-901
963.088	-2106
963.175	-877
963.263	-1095
963.350	-780
963.438	-1177
963.525	-95
963.612	48
963.700	-394
963.787	1802
963.874	1405
963.962	-538
964.049	-160
964.136	-308
964.223	-946
964.310	-1041
964.398	-713
964.485	-1603
964.572	-343
964.659	-421
964.746	-590
964.833	-257
964.920	-157
965.007	-496
965.094	-511
965.181	-591
965.268	-732
965.355	-1451
965.441	-1052
965.528	-1115
965.615	-855
965.702	-710
965.789	-889
965.875	-693
965.962	-426
966.049	-1674
966.136	-1570
966.222	-1284
966.309	-833
966.395	-914
966.482	-116
966.569	-931
966.655	-547
966.742	-1021
966.828	-1056
966.915	-1041
967.001	-1074
967.087	-1963
967.174	-434
967.260	-1481
967.347	-821
967.433	-108
967.519	512
967.605	239
967.692	-1088
967.778	-771
967.864	-890
967.950	-734
968.036	-1257
968.123	-965
968.209	-1297
968.295	-707
968.381	-338
968.467	-1725
968.553	-2007
968.639	-160
968.725	-1523
968.811	-409
968.897	-33
968.983	-1012
969.069	-1505
969.154	-244
969.240	-80
969.326	-1167
969.412	-541
969.497	-1333
969.583	-816
969.669	-888
969.755	-1043
969.840	-425
969.926	-140
970.012	-1344
970.097	-1283
970.183	-1127
970.268	-771
970.354	-479
970.439	-1716
970.525	109
970.610	-654
970.696	-75
970.781	-949
970.866	-1492
970.952	130
971.037	-1592
971.122	-718
971.208	-101
971.293	-765
971.378	-1452
971.463	-797
971.549	-214
971.634	-1084
971.719	-436
971.804	-984
971.889	-258
971.974	-756
972.059	-1232
972.144	-895
972.229	-561
972.314	-813
972.399	-1575
972.484	-1425
972.569	-1010
972.654	-1154
972.739	-581
972.824	-1061
972.908	-472
972.993	-578
973.078	-166
973.163	-1443
973.247	-1189
973.332	-904
973.417	-448
973.501	-936
973.586	-668
973.671	-924
973.755	-731
973.840	-458
973.924	-1073
974.009	-871
974.093	-1604
974.178	-129
974.262	-1229
974.346	-454
974.431	-1094
974.515	-1227
974.600	-1445
974.684	-1045
974.768	-1351
974.852	-401
974.937	-1468
975.021	-1341
975.105	-856
975.189	-564
975.273	-856
975.358	-1767
975.442	-1531
975.526	-672
975.610	-998
975.694	-928
975.778	-568
975.862	-626
975.946	-2439
976.030	200
976.114	-883
976.198	-1116
976.281	-1390
976.365	-348
976.449	-1510
976.533	-759
976.617	-1227
976.700	-1242
976.784	-500
976.868	-1094
976.951	-680
977.035	-294
977.119	-834
977.202	-1113
977.286	-916
977.369	-648
977.453	-614
977.536	-1427
977.620	-871
977.703	-348
977.787	-1100
977.870	-466
977.953	-704
978.037	-1727
978.120	-573
978.203	-1127
978.287	-459
978.370	-973
978.453	-1116
978.536	-918
978.620	-966
978.703	-853
978.786	-1021
978.869	-520
978.952	-2219
979.035	-427
979.118	-907
979.201	-800
979.284	-1052
979.367	-1529
979.450	-1050
979.533	-864
979.616	-1754
979.699	-1869
979.782	-1959
979.865	-1041
979.948	-1156
980.030	-1547
980.113	-505
980.196	-1364
980.279	-394
980.361	-845
980.444	-748
980.526	-597
980.609	-818
980.692	-1454
980.774	-197
980.857	-2754
980.939	-520
981.022	-1639
981.104	-1360
981.187	-1396
981.269	-967
981.352	-1866
981.434	-1736
981.516	-1701
981.599	-476
981.681	-1027
981.763	-1186
981.846	-1346
981.928	-1421
982.010	-912
982.092	-1356
982.174	-1502
982.256	-1689
982.339	-1137
982.421	-1878
982.503	-860
982.585	-1933
982.667	-1156
982.749	-1249
982.831	-1252
982.913	-1747
982.995	-962
983.077	-2041
983.158	72
983.240	-1197
983.322	-1092
983.404	-1133
983.486	-1863
983.568	-1492
983.649	-1462
983.731	-1437
983.813	-1074
983.894	-1339
983.976	-1433
984.058	-1126
984.139	551
984.221	-1059
984.302	21
984.384	-1617
984.465	-1816
984.547	-1660
984.628	-1433
984.710	-662
984.791	-1931
984.872	-2054
984.954	-1809
985.035	-1176
985.116	-2003
985.198	-1078
985.279	-600
985.360	-1277
985.441	-831
985.522	-1423
985.604	-1334
985.685	-2442
985.766	-228
985.847	-631
985.928	-1140
986.009	-1363
986.090	-1363
986.171	-799
986.252	-1233
986.333	-852
986.414	-2272
986.495	-1087
986.576	-1923
986.656	-1164
986.737	-721
986.818	-1516
986.899	-1337
986.980	-1618
987.060	-1106
987.141	-1231
987.222	-1349
987.302	-1756
987.383	-1427
987.464	-1858
987.544	-1091
987.625	-1668
987.705	-710
987.786	-958
987.866	-748
987.947	-1242
988.027	-1114
988.108	-1832
988.188	-675
988.268	-1465
988.349	-1061
988.429	-1227
988.509	-1438
988.589	-942
988.670	-2309
988.750	-562
988.830	-1734
988.910	-1625
988.990	-1097
989.070	-1551
989.151	-1006
989.231	-1806
989.311	-639
989.391	-1704
989.471	-1518
989.551	-1776
989.631	-880
989.711	-1257
989.791	-1536
989.870	-1965
989.950	-1051
990.030	-1286
990.110	-731
990.190	-1085
990.269	-2193
990.349	-1614
990.429	-1372
990.509	-1021
990.588	-912
990.668	-1369
990.747	-461
990.827	-1766
990.907	-249
990.986	-1110
991.066	-1504
991.145	-1619
991.225	-1260
991.304	-2124
991.383	-1092
991.463	-1808
991.542	-1362
991.622	-1792
991.701	-1012
991.780	-1355
991.859	-1294
991.939	-2289
992.018	-1325
992.097	-1528
992.176	-605
992.256	-1703
992.335	-2376
992.414	-1726
992.493	-1736
992.572	-2179
992.651	-650
992.730	-1912
992.809	-780
992.888	-1625
992.967	-1496
993.046	-1347
993.125	-2167
993.203	-1349
993.282	-1626
993.361	-949
993.440	-998
993.519	-2556
993.597	-630
993.676	-1358
993.755	-1380
993.834	-1867
993.912	-1804
993.991	-373
994.069	-1188
994.148	-1408
994.226	-1677
994.305	-1242
994.384	-2134
994.462	-357
994.540	-2123
994.619	-1282
994.697	-736
994.776	-1626
994.854	-1050
994.932	-1902
995.011	-1849
995.089	-1469
995.167	-1545
995.245	-1251
995.324	-2845
995.402	-575
995.480	-1460
995.558	-1544
995.636	-1250
995.714	-1964
995.792	-77
995.870	-1981
995.948	-1462
996.026	-607
996.104	-1808
996.182	-1169
996.260	-2035
996.338	-1867
996.416	-2389
996.494	-1862
996.572	-1078
996.649	-1105
996.727	-2069
996.805	-1474
996.883	-2163
996.960	-2965
997.038	-1264
997.116	-1213
997.193	-2257
997.271	-1134
997.348	-1573
997.426	-965
997.504	-1069
997.581	-1514
997.658	-1802
997.736	-2303
997.813	-2239
997.891	-1254
997.968	-2358
998.046	-1040
998.123	-1202
998.200	-1648
998.277	-1451
998.355	-417
998.432	-1465
998.509	-1981
998.586	-1258
998.663	-1143
998.741	-1078
998.818	-2229
998.895	-1770
998.972	-1413
999.049	-1070
999.126	-1695
999.203	-1329
999.280	-2090
999.357	-1713
999.434	-2077
999.511	-1815
999.587	-1073
999.664	-1381
999.741	-1540
999.818	-902
999.895	-2141
999.971	-1795
1000.048	-1450
1000.125	-1213
1000.202	-2053
1000.278	-871
1000.355	-1117
1000.431	-1861
1000.508	-1814
1000.584	-769
1000.661	-2542
1000.738	-2005
1000.814	-1136
1000.890	-1660
1000.967	-1575
1001.043	-1316
1001.120	-2337
1001.196	-1677
1001.272	-1673
1001.349	-1310
1001.425	-1576
1001.501	-2415
1001.577	-2329
1001.654	-1109
1001.730	-1373
1001.806	-1834
1001.882	-2031
1001.958	-1635
1002.034	-1701
1002.110	-1714
1002.186	-1674
1002.262	-1708
1002.338	-1320
1002.414	-1259
1002.490	-836
1002.566	-1270
1002.642	-1957
1002.718	-934
1002.794	-1214
1002.870	-1430
1002.945	-1776
1003.021	-2337
1003.097	-1522
1003.173	-866
1003.248	-1926
1003.324	-2135
1003.400	-1965
1003.475	-1529
1003.551	-765
1003.626	-1470
1003.702	-2706
1003.777	-1443
1003.853	-1616
1003.928	-2079
1004.004	-1731
1004.079	-1981
1004.155	-2339
1004.230	-2302
1004.305	-883
1004.381	-2152
1004.456	-2287
1004.531	-2097
1004.607	-1853
1004.682	-2409
1004.757	-2417
1004.832	-1822
1004.907	-1650
1004.982	-1923
1005.057	-1880
1005.133	-1799
1005.208	-1919
1005.283	-937
1005.358	-1488
1005.433	-1792
1005.508	-1749
1005.583	-2597
1005.657	-1793
1005.732	-1145
1005.807	-2855
1005.882	-1657
1005.957	-1341
1006.032	-1923
1006.106	-1888
1006.181	-2006
1006.256	-1964
1006.331	-1498
1006.405	-1597
1006.480	-1913
1006.554	-1764
1006.629	-2030
1006.704	-2071
1006.778	-1387
1006.853	-1373
1006.927	-2297
1007.002	-2254
1007.076	-1153
1007.150	-2355
1007.225	-1307
1007.299	-1660
1007.373	-2328
1007.448	-1825
1007.522	-1236
1007.596	-2379
1007.671	-1990
1007.745	-1886
1007.819	-1619
1007.893	-2022
1007.967	-1550
1008.041	-2698
1008.115	-1565
1008.190	-2307
1008.264	-2093
1008.338	-2541
1008.412	-1629
1008.486	-1572
1008.560	-1828
1008.633	-2542
1008.707	-2580
1008.781	-1585
1008.855	-2275
1008.929	-2608
1009.003	-1553
1009.076	-1903
1009.150	-1728
1009.224	-1472
1009.298	-1889
1009.371	-2085
1009.445	-1658
1009.519	-2119
1009.592	-2222
1009.666	-2434
1009.739	-1869
1009.813	-2652
1009.886	-1703
1009.960	-2383
1010.033	-856
1010.107	-1962
1010.180	-2551
1010.253	-1842
1010.327	-2096
1010.400	-2290
1010.473	-2311
1010.547	-1201
1010.620	-2216
1010.693	-1989
1010.766	-1756
1010.840	-1402
1010.913	-2504
1010.986	-2092
1011.059	-2252
1011.132	-1749
1011.205	-1221
1011.278	-2357
1011.351	-2056
1011.424	-1777
1011.497	-2455
1011.570	-2471
1011.643	-2244
1011.716	-3356
1011.789	-1704
1011.862	-1039
1011.934	-1834
1012.007	-2284
1012.080	-1497
1012.153	-2916
1012.225	-1912
1012.298	-1531
1012.371	-2663
1012.443	-1571
1012.516	-2191
1012.588	-2157
1012.661	-2122
1012.733	-2418
1012.806	-1789
1012.879	-1830
1012.951	-1803
1013.023	-2273
1013.096	-1732
1013.168	-1960
1013.241	-1191
1013.313	-1714
1013.385	-2609
1013.458	-1904
1013.530	-2028
1013.602	-2753
1013.674	-1696
1013.746	-2339
1013.819	-2196
1013.891	-1627
1013.963	-2295
1014.035	-2128
1014.107	-1894
1014.179	-2263
1014.251	-1809
1014.323	-1976
1014.395	-2434
1014.467	-1785
1014.539	-1923
1014.611	-1637
1014.683	-1142
1014.754	-918
1014.826	-2384
1014.898	-2035
1014.970	-2391
1015.042	-1248
1015.113	-2404
1015.185	-1399
1015.257	-3070
1015.328	-1864
1015.400	-2849
1015.471	-1952
1015.543	-2916
1015.615	-2011
1015.686	-2725
1015.757	-2053
1015.829	-1953
1015.901	-1965
1015.972	-1799
1016.043	-2433
1016.115	-1527
1016.186	-1990
1016.257	-2071
1016.328	-1894
1016.400	-2227
1016.471	-2098
1016.542	-1927
1016.613	-2129
1016.685	-1937
1016.756	-1663
1016.827	-2496
1016.898	-1967
1016.969	-1810
1017.040	-2279
1017.111	-2542
1017.182	-2025
1017.253	-1299
1017.324	-2620
1017.395	-1868
1017.466	-2239
1017.537	-2128
1017.608	-1975
1017.678	-2028
1017.749	-2420
1017.820	-1688
1017.891	-2274
1017.961	-1773
1018.032	-2672
1018.103	-1639
1018.173	-1965
1018.244	-2595
1018.315	-2285
1018.385	-1535
1018.456	-1883
1018.526	-2279
1018.597	-1760
1018.667	-2167
1018.738	-1790
1018.808	-2056
1018.878	-2439
1018.949	-2103
1019.019	-2525
1019.089	-2866
1019.160	-1876
1019.230	-2831
1019.300	-1793
1019.371	-2217
1019.441	-1711
1019.511	-1561
1019.581	-1869
1019.651	-1829
1019.721	-2847
1019.791	-1811
1019.861	-2139
1019.931	-2052
1020.001	-2511
1020.071	-2768
1020.141	-2006
1020.211	-2198
1020.281	-1932
1020.351	-2182
1020.421	-1779
1020.491	-1459
1020.560	-2066
1020.630	-1757
1020.700	-2418
1020.770	-2386
1020.839	-1700
1020.909	-1947
1020.979	-2547
1021.048	-2108
1021.118	-2267
1021.187	-1072
1021.257	-2479
1021.326	-1360
1021.396	-2481
1021.465	-1327
1021.535	-2327
1021.604	-2761
1021.674	-3113
1021.743	-1787
1021.812	-2201
1021.882	-2542
1021.951	-2520
1022.020	-1627
1022.089	-1803
1022.159	-1922
1022.228	-1866
1022.297	-1736
1022.366	-2188
1022.435	-2031
1022.504	-2208
1022.573	-2328
1022.642	-1981
1022.711	-2581
1022.781	-1818
1022.849	-2053
1022.918	-2426
1022.987	-1556
1023.056	-2530
1023.125	-1568
1023.194	-2769
1023.263	-1484
1023.331	-2521
1023.400	-2525
1023.469	-2044
1023.538	-1930
1023.606	-2900
1023.675	-1596
1023.744	-2032
1023.812	-2663
1023.881	-2117
1023.949	-2455
1024.018	-1835
1024.086	-1308
1024.155	-2031
1024.223	-1557
1024.292	-1653
1024.360	-2198
1024.429	-2140
1024.497	-2184
1024.565	-2384
1024.634	-2552
1024.702	-1390
1024.770	-2664
1024.838	-1830
1024.907	-1950
1024.975	-2827
1025.043	-1625
1025.111	-2172
1025.179	-1590
1025.247	-2315
1025.315	-2149
1025.383	-2516
1025.451	-2025
1025.519	-2043
1025.587	-1695
1025.655	-2177
1025.723	-2414
1025.791	-1658
1025.859	-2167
1025.927	-2402
1025.995	-2805
1026.062	-1713
1026.130	-1874
1026.198	-1873
1026.266	-2466
1026.333	-2647
1026.401	-1996
1026.469	-1728
1026.536	-1455
1026.604	-2177
1026.671	-1995
1026.739	-2387
1026.806	-2409
1026.874	-2159
1026.941	-2048
1027.009	-2015
1027.076	-2159
1027.144	-2077
1027.211	-2093
1027.278	-2210
1027.345	-2128
1027.413	-1559
1027.480	-1825
1027.547	-2213
1027.614	-2252
1027.682	-2257
1027.749	-2347
1027.816	-2120
1027.883	-1863
1027.950	-2227
1028.017	-2110
1028.084	-1466
1028.151	-2429
1028.218	-2325
1028.285	-1870
1028.352	-2373
1028.419	-2917
1028.486	-1655
1028.553	-1848
1028.619	-2712
1028.686	-1452
1028.753	-2182
1028.820	-2725
1028.886	-2289
1028.953	-2265
1029.020	-1752
1029.086	-2245
1029.153	-1709
1029.220	-1836
1029.286	-2217
1029.353	-2070
1029.419	-2273
1029.486	-2204
1029.552	-2650
1029.619	-2424
1029.685	-1970
1029.751	-2310
1029.818	-1303
1029.884	-2344
1029.951	-1424
1030.017	-2149
1030.083	-2370
1030.149	-1479
1030.216	-2103
1030.282	-1961
1030.348	-2150
1030.414	-1677
1030.480	-1688
1030.546	-2622
1030.612	-2055
1030.678	-2666
1030.744	-1177
1030.810	-2041
1030.876	-1298
1030.942	-2429
1031.008	-2059
1031.074	-2285
1031.140	-2811
1031.206	-2246
1031.272	-2042
1031.337	-1354
1031.403	-1615
1031.469	-2362
1031.534	-1917
1031.600	-1435
1031.666	-2139
1031.731	-2533
1031.797	-1390
1031.863	-2584
1031.928	-2226
1031.994	-1596
1032.059	-1717
1032.125	-2200
1032.190	-2546
1032.256	-2658
1032.321	-2553
1032.386	-1756
1032.452	-1617
1032.517	-1929
1032.582	-2767
1032.647	-1929
1032.713	-2298
1032.778	-2269
1032.843	-2478
1032.908	-2676
1032.974	-2216
1033.039	-2902
1033.104	-1774
1033.169	-1946
1033.234	-1892
1033.299	-1601
1033.364	-1448
1033.429	-2572
1033.494	-1926
1033.559	-2018
1033.624	-2509
1033.688	-1781
1033.753	-2874
1033.818	-2238
1033.883	-2180
1033.948	-1588
1034.013	-2140
1034.077	-846
1034.142	-2198
1034.207	-1420
1034.271	-2012
1034.336	-1736
1034.400	-2536
1034.465	-2256
1034.530	-1355
1034.594	-2690
1034.658	-2613
1034.723	-2131
1034.787	-2515
1034.852	-1718
1034.916	-2206
1034.981	-2046
1035.045	-2592
1035.109	-1899
1035.173	-2287
1035.238	-2027
1035.302	-1240
1035.366	-2246
1035.430	-2383
1035.495	-2986
1035.559	-2765
1035.623	-2082
1035.687	-1983
1035.751	-2280
1035.815	-2263
1035.879	-2200
1035.943	-1804
1036.007	-2252
1036.071	-2104
1036.135	-1812
1036.198	-2074
1036.262	-1815
1036.326	-2504
1036.390	-1993
1036.454	-2447
1036.517	-2155
1036.581	-1982
1036.645	-1581
1036.709	-2008
1036.772	-2461
1036.836	-2277
1036.900	-2098
1036.963	-2218
1037.026	-1867
1037.090	-2552
1037.154	-1959
1037.217	-2470
1037.280	-2921
1037.344	-2593
1037.407	-2323
1037.471	-2101
1037.534	-1758
1037.597	-2029
1037.661	-2707
1037.724	-2431
1037.787	-1969
1037.850	-3225
1037.913	-2219
1037.977	-1652
1038.040	-2498
1038.103	-2788
1038.166	-3045
1038.229	-2467
1038.292	-2180
1038.355	-2658
1038.418	-2694
1038.481	-2195
1038.544	-2359
1038.607	-3034
1038.670	-2461
1038.732	-2107
1038.795	-2549
1038.858	-2815
1038.921	-1711
1038.984	-2005
1039.046	-2366
1039.109	-3078
1039.172	-2200
1039.234	-2317
1039.297	-2370
1039.360	-2090
1039.422	-1993
1039.485	-2304
1039.547	-2581
1039.610	-3094
1039.672	-3048
1039.734	-2210
1039.797	-1959
1039.859	-1458
1039.922	-1977
1039.984	-1941
1040.046	-2504
1040.109	-3007
1040.171	-2763
1040.233	-2075
1040.295	-3000
1040.358	-2121
1040.420	-1623
1040.482	-1736
1040.544	-2523
1040.606	-2458
1040.668	-2370
1040.730	-2119
1040.792	-2058
1040.854	-2815
1040.916	-2389
1040.978	-1968
1041.040	-1552
1041.102	-2600
1041.164	-1977
1041.225	-2675
1041.287	-2949
1041.349	-2875
1041.411	-2310
1041.472	-2459
1041.534	-3058
1041.596	-2446
1041.657	-2473
1041.719	-2147
1041.781	-3346
1041.842	-1683
1041.904	-1654
1041.965	-2704
1042.027	-2828
1042.088	-3183
1042.150	-2784
1042.211	-2096
1042.272	-2144
1042.334	-3329
1042.395	-2407
1042.456	-1938
1042.518	-2253
1042.579	-2266
1042.640	-2987
1042.701	-2959
1042.763	-2157
1042.824	-2791
1042.885	-2373
1042.946	-2451
1043.007	-1990
1043.068	-2022
1043.129	-2648
1043.190	-2845
1043.251	-2153
1043.312	-2299
1043.373	-2035
1043.434	-2498
1043.495	-2272
1043.556	-2377
1043.616	-2415
1043.677	-2804
1043.738	-2487
1043.799	-2475
1043.859	-1778
1043.920	-2460
1043.981	-1857
1044.041	-2533
1044.102	-2141
1044.162	-2791
1044.223	-3138
1044.284	-2689
1044.344	-2457
1044.405	-2402
1044.465	-1973
1044.525	-2854
1044.586	-2479
1044.646	-2402
1044.707	-2240
1044.767	-2736
1044.827	-2155
1044.887	-2201
1044.948	-1979
1045.008	-2645
1045.068	-2024
1045.128	-1833
1045.188	-2478
1045.249	-1072
1045.309	-2300
1045.369	-2664
1045.429	-2519
1045.489	-1543
1045.549	-3093
1045.609	-2677
1045.669	-1984
1045.729	-3077
1045.789	-2278
1045.848	-2318
1045.908	-2963
1045.968	-2228
1046.028	-2406
1046.088	-1866
1046.147	-1779
1046.207	-1680
1046.267	-2235
1046.326	-1307
1046.386	-1991
1046.446	-2105
1046.505	-1399
1046.565	-1601
1046.624	-1331
1046.684	-1263
1046.743	-2277
1046.803	-1030
1046.862	-1487
1046.922	0
