'Start Wavelength	183.907
'End Wavelength	1046.922
'Gate Delay	5.000
'Gate Width (ms)	1.050
'Laser Output Level	0.000
'X Position	0.000
'Y Position	0.000
'Z Position	0.000
'Grid Point Number	1.000
'Shot Number	100.000
183.907	-333.000
183.977	293.000
184.047	106
184.116	648
184.186	-180
184.256	-49
184.325	-1047
184.395	-645
184.465	-109
184.534	186
184.604	-496
184.674	579
184.743	147
184.813	450
184.883	679
184.952	-18
185.022	108
185.092	-121
185.161	-217
185.231	-312
185.301	-21
185.370	225
185.440	330
185.509	-652
185.579	-570
185.649	252
185.718	27
185.788	4
185.857	63
185.927	156
185.996	-318
186.066	34
186.136	-401
186.205	891
186.275	-423
186.344	-601
186.414	0
186.483	-228
186.553	872
186.622	903
186.692	91
186.761	-415
186.831	-560
186.900	-531
186.970	166
187.039	-294
187.109	933
187.178	569
187.248	559
187.317	563
187.387	-695
187.456	492
187.526	292
187.595	-270
187.664	-185
187.734	-26
187.803	379
187.873	619
187.942	-11
188.012	334
188.081	-175
188.150	-494
188.220	263
188.289	904
188.358	257
188.428	169
188.497	-611
188.567	371
188.636	-824
188.705	-238
188.775	763
188.844	-313
188.913	744
188.983	-236
189.052	-69
189.121	-600
189.191	-97
189.260	-127
189.329	-115
189.399	-185
189.468	-63
189.537	46
189.606	40
189.676	188
189.745	-259
189.814	696
189.883	-69
189.953	317
190.022	121
190.091	-525
190.161	-197
190.230	166
190.299	-308
190.368	-84
190.437	-324
190.507	78
190.576	128
190.645	357
190.714	-527
190.783	-309
190.853	831
190.922	441
190.991	-384
191.060	182
191.129	-679
191.198	46
191.268	-169
191.337	-235
191.406	-241
191.475	429
191.544	151
191.613	25
191.682	-360
191.752	150
191.821	-869
191.890	-604
191.959	38
192.028	-225
192.097	82
192.166	156
192.235	-733
192.304	444
192.373	238
192.442	501
192.511	211
192.580	-332
192.650	-288
192.719	-171
192.788	-193
192.857	47
192.926	-859
192.995	37
193.064	1472
193.133	669
193.202	-285
193.271	66
193.340	308
193.409	-405
193.478	-10
193.547	-1
193.615	428
193.684	313
193.753	48
193.822	1099
193.891	-1052
193.960	423
194.029	-435
194.098	447
194.167	-399
194.236	499
194.305	-147
194.374	104
194.443	-458
194.512	-317
194.580	-21
194.649	-95
194.718	-546
194.787	727
194.856	-391
194.925	411
194.994	-732
195.062	264
195.131	-219
195.200	-442
195.269	-111
195.338	-220
195.407	-5
195.475	-282
195.544	-60
195.613	-156
195.682	-154
195.751	101
195.819	-462
195.888	644
195.957	113
196.026	-205
196.094	-269
196.163	-344
196.232	-405
196.301	-149
196.369	-490
196.438	288
196.507	-289
196.576	-528
196.644	22
196.713	113
196.782	-551
196.850	-22
196.919	237
196.988	120
197.056	-354
197.125	546
197.194	-80
197.262	160
197.331	-650
197.400	193
197.468	-34
197.537	-724
197.606	17
197.674	322
197.743	-154
197.812	-517
197.880	-378
197.949	164
198.017	-280
198.086	-87
198.155	136
198.223	513
198.292	127
198.360	525
198.429	-44
198.497	312
198.566	-178
198.635	182
198.703	784
198.772	473
198.840	100
198.909	384
198.977	-506
199.046	-313
199.114	-40
199.183	-185
199.251	102
199.320	-475
199.388	-120
199.457	45
199.525	-623
199.594	324
199.662	-374
199.731	-458
199.799	-360
199.867	-116
199.936	-1519
200.004	-222
200.073	-51
200.141	143
200.210	-742
200.278	400
200.346	788
200.415	587
200.483	143
200.552	626
200.620	720
200.688	302
200.757	-185
200.825	-670
200.893	343
200.962	-126
201.030	-454
201.098	-885
201.167	-819
201.235	-354
201.303	-492
201.372	253
201.440	-443
201.508	13
201.577	-443
201.645	187
201.713	-588
201.781	-124
201.850	-409
201.918	36
201.986	-137
202.055	261
202.123	-219
202.191	40
202.259	-503
202.327	117
202.396	679
202.464	164
202.532	-448
202.600	1161
202.669	183
202.737	-583
202.805	-3
202.873	373
202.941	-401
203.009	320
203.078	-550
203.146	-47
203.214	-1023
203.282	-208
203.350	-212
203.418	-463
203.487	-83
203.555	-311
203.623	109
203.691	712
203.759	-530
203.827	-439
203.895	-1173
203.963	244
204.031	-307
204.099	-431
204.168	-351
204.236	820
204.304	-14
204.372	-333
204.440	-86
204.508	-236
204.576	-835
204.644	681
204.712	-543
204.780	-455
204.848	-1
204.916	-43
204.984	155
205.052	-382
205.120	-438
205.188	358
205.256	-525
205.324	-439
205.392	-307
205.460	-101
205.528	114
205.596	123
205.664	-1137
205.732	-364
205.799	-407
205.867	817
205.935	-662
206.003	589
206.071	-426
206.139	-1002
206.207	-139
206.275	-285
206.343	-818
206.411	-347
206.478	-154
206.546	196
206.614	405
206.682	-42
206.750	-219
206.818	-762
206.885	247
206.953	-921
207.021	-251
207.089	-127
207.157	-984
207.225	621
207.292	-808
207.360	-785
207.428	-678
207.496	-629
207.563	277
207.631	-523
207.699	-722
207.767	84
207.834	-548
207.902	-85
207.970	-57
208.038	-657
208.105	-64
208.173	-515
208.241	-367
208.309	562
208.376	-321
208.444	-163
208.512	-353
208.579	-763
208.647	-777
208.715	1261
208.782	-337
208.850	-230
208.918	-1051
208.985	-846
209.053	222
209.120	182
209.188	-481
209.256	122
209.323	-661
209.391	-762
209.459	691
209.526	-158
209.594	-375
209.661	167
209.729	-288
209.796	-355
209.864	-150
209.932	-1649
209.999	895
210.067	-35
210.134	-366
210.202	-799
210.269	96
210.337	1024
210.404	-356
210.472	4
210.539	-698
210.607	-366
210.674	-815
210.742	-97
210.809	-317
210.877	-636
210.944	-31
211.012	-1112
211.079	851
211.146	-371
211.214	-278
211.281	2047
211.349	663
211.416	112
211.484	-364
211.551	-890
211.618	-385
211.686	-441
211.753	-1827
211.821	1061
211.888	-711
211.955	101
212.023	-722
212.090	-801
212.157	-255
212.225	-782
212.292	145
212.359	276
212.427	3092
212.494	526
212.561	-55
212.629	9
212.696	-410
212.763	-261
212.831	-516
212.898	483
212.965	-519
213.032	218
213.100	-185
213.167	-722
213.234	403
213.301	-363
213.369	-260
213.436	-1117
213.503	-911
213.570	-317
213.638	-130
213.705	-1229
213.772	-1388
213.839	-120
213.906	-106
213.973	-598
214.041	-1057
214.108	-426
214.175	-190
214.242	-455
214.309	-335
214.376	-18
214.444	-1458
214.511	-239
214.578	-820
214.645	-166
214.712	-179
214.779	95
214.846	-466
214.913	-83
214.980	100
215.048	-308
215.115	509
215.182	-55
215.249	-955
215.316	19
215.383	207
215.450	-435
215.517	-471
215.584	345
215.651	-128
215.718	9
215.785	-633
215.852	-961
215.919	-265
215.986	-615
216.053	-886
216.120	-1009
216.187	-878
216.254	286
216.321	-10
216.388	-719
216.455	-287
216.522	-737
216.589	-654
216.656	36
216.722	-499
216.789	-345
216.856	-16
216.923	383
216.990	-608
217.057	-167
217.124	-533
217.191	-1147
217.258	-800
217.324	-1050
217.391	-148
217.458	-509
217.525	-1587
217.592	-627
217.659	-1377
217.725	-673
217.792	-1019
217.859	52
217.926	-623
217.993	-1192
218.059	-321
218.126	-152
218.193	-1094
218.260	-130
218.327	-718
218.393	-729
218.460	-999
218.527	-1168
218.594	-266
218.660	-858
218.727	305
218.794	-1200
218.860	-153
218.927	-1346
218.994	-5
219.061	-624
219.127	-894
219.194	-525
219.261	-1182
219.327	-90
219.394	-530
219.461	-1318
219.527	-725
219.594	-498
219.661	-406
219.727	-954
219.794	650
219.860	-630
219.927	121
219.994	171
220.060	1349
220.127	1912
220.193	-95
220.260	-841
220.326	-99
220.393	-100
220.460	-553
220.526	-250
220.593	-818
220.659	1229
220.726	-572
220.792	1303
220.859	841
220.925	-197
220.992	367
221.058	1737
221.125	1576
221.191	788
221.258	-802
221.324	181
221.391	-525
221.457	-532
221.524	-1479
221.590	54
221.657	1728
221.723	367
221.789	115
221.856	744
221.922	-514
221.989	104
222.055	-604
222.121	-1289
222.188	796
222.254	384
222.321	-66
222.387	-388
222.453	-710
222.520	75
222.586	-1151
222.652	616
222.719	-1039
222.785	-462
222.851	-805
222.918	-365
222.984	-648
223.050	-640
223.116	-1762
223.183	-719
223.249	-935
223.315	-1007
223.382	-339
223.448	-840
223.514	-1026
223.580	-916
223.647	-1070
223.713	-1119
223.779	-737
223.845	-1027
223.911	282
223.978	-978
224.044	-383
224.110	-379
224.176	-430
224.242	498
224.309	-1101
224.375	21
224.441	-776
224.507	-760
224.573	-1823
224.639	-330
224.705	-1381
224.772	-10
224.838	-760
224.904	-560
224.970	-193
225.036	-400
225.102	-1022
225.168	-192
225.234	95
225.300	-282
225.366	-1035
225.432	116
225.499	-670
225.565	-1494
225.631	-796
225.697	-644
225.763	-1670
225.829	-656
225.895	-780
225.961	-528
226.027	360
226.093	-797
226.159	-231
226.225	644
226.291	-262
226.357	684
226.423	-511
226.489	177
226.554	-234
226.620	-602
226.686	-955
226.752	-669
226.818	-353
226.884	2892
226.950	1996
227.016	114
227.082	-292
227.148	-1027
227.214	-546
227.279	33
227.345	-614
227.411	-371
227.477	456
227.543	4368
227.609	2883
227.674	1495
227.740	-325
227.806	-516
227.872	-807
227.938	-468
228.003	-586
228.069	-922
228.135	-1072
228.201	-102
228.267	-1289
228.332	-160
228.398	-1357
228.464	158
228.530	-1540
228.595	-898
228.661	-1280
228.727	-900
228.792	-189
228.858	-1040
228.924	-1721
228.990	1017
229.055	-2042
229.121	-530
229.187	-753
229.252	-528
229.318	-494
229.384	-290
229.449	-1050
229.515	-2252
229.581	-814
229.646	1169
229.712	-837
229.777	-1109
229.843	-839
229.909	-342
229.974	-646
230.040	-524
230.105	-642
230.171	-551
230.236	-685
230.302	-821
230.368	-653
230.433	-1627
230.499	-916
230.564	78
230.630	-1468
230.695	-227
230.761	-92
230.826	-1574
230.892	164
230.957	-1317
231.023	-824
231.088	-414
231.154	-369
231.219	-128
231.284	-998
231.350	-438
231.415	-1189
231.481	-674
231.546	-492
231.612	-986
231.677	-673
231.742	-828
231.808	512
231.873	-389
231.939	-2179
232.004	1312
232.069	-381
232.135	-966
232.200	-996
232.265	211
232.331	-1029
232.396	-1016
232.461	-1358
232.527	-917
232.592	-1168
232.657	439
232.723	-970
232.788	-940
232.853	-289
232.918	-319
232.984	-1108
233.049	-1002
233.114	-1349
233.179	-361
233.245	574
233.310	367
233.375	-1377
233.440	-449
233.506	-1074
233.571	-638
233.636	60
233.701	-539
233.766	-893
233.832	-141
233.897	-635
233.962	-2285
234.027	440
234.092	-1390
234.157	-1323
234.222	-271
234.288	-640
234.353	724
234.418	532
234.483	284
234.548	-214
234.613	-1236
234.678	-188
234.743	-581
234.808	512
234.873	-1170
234.938	133
235.004	-404
235.069	-1181
235.134	-1178
235.199	-203
235.264	-332
235.329	-1888
235.394	-293
235.459	221
235.524	-1634
235.589	-194
235.654	-760
235.719	-1982
235.784	-350
235.849	-789
235.913	-303
235.978	584
236.043	-457
236.108	-1120
236.173	-574
236.238	138
236.303	-913
236.368	-842
236.433	-455
236.498	-1263
236.563	130
236.627	-1209
236.692	3720
236.757	2678
236.822	637
236.887	-805
236.952	255
237.017	-1563
237.081	1088
237.146	-1134
237.211	813
237.276	3079
237.341	7364
237.405	1418
237.470	499
237.535	-29
237.600	-3
237.664	11
237.729	-1202
237.794	-1768
237.859	112
237.923	92
237.988	-797
238.053	-160
238.118	-354
238.182	1674
238.247	2469
238.312	-1115
238.376	-36
238.441	-1570
238.506	620
238.570	-1355
238.635	585
238.700	-777
238.764	-799
238.829	71
238.893	-481
238.958	-25
239.023	-1154
239.087	-618
239.152	-332
239.216	-1747
239.281	-852
239.346	-580
239.410	-424
239.475	-578
239.539	2103
239.604	533
239.668	1056
239.733	307
239.797	2531
239.862	7737
239.926	4242
239.991	1159
240.055	458
240.120	-733
240.184	-189
240.249	-964
240.313	-751
240.378	-718
240.442	146
240.507	1903
240.571	-454
240.635	-763
240.700	353
240.764	-442
240.829	-586
240.893	-1502
240.957	-650
241.022	301
241.086	1153
241.151	-608
241.215	-1381
241.279	11
241.344	-930
241.408	-524
241.472	-986
241.537	-247
241.601	-161
241.665	-1764
241.730	-985
241.794	-17
241.858	-1195
241.922	-890
241.987	-747
242.051	-933
242.115	-1989
242.179	-796
242.244	-1470
242.308	271
242.372	-991
242.436	-1415
242.501	250
242.565	-1550
242.629	-1085
242.693	-262
242.757	-1727
242.822	-1403
242.886	-582
242.950	-327
243.014	-1434
243.078	-490
243.142	-1207
243.206	-1170
243.271	-50
243.335	-1481
243.399	-657
243.463	740
243.527	6008
243.591	263
243.655	-168
243.719	-1608
243.783	828
243.847	-235
243.911	870
243.975	-1363
244.040	-2145
244.104	1240
244.168	52
244.232	-1076
244.296	-423
244.360	22
244.424	-1374
244.488	-632
244.552	835
244.615	-1768
244.679	-637
244.743	-546
244.807	-1790
244.871	-604
244.935	-498
244.999	-1618
245.063	-1475
245.127	-308
245.191	-350
245.255	-345
245.319	-1233
245.383	-2277
245.446	163
245.510	-1528
245.574	-270
245.638	27
245.702	-1862
245.766	-812
245.829	-51
245.893	-1097
245.957	-1226
246.021	-148
246.085	-1004
246.149	-1489
246.212	1043
246.276	391
246.340	-331
246.404	-72
246.467	208
246.531	-2450
246.595	75
246.659	-630
246.722	-1514
246.786	-303
246.850	-1161
246.913	-247
246.977	-1800
247.041	-596
247.104	461
247.168	-1394
247.232	439
247.295	2195
247.359	601
247.423	-807
247.486	298
247.550	-999
247.614	-1692
247.677	-1285
247.741	-175
247.804	-627
247.868	2698
247.932	219
247.995	2610
248.059	-384
248.122	-1131
248.186	-292
248.249	-434
248.313	5355
248.376	4638
248.440	1405
248.503	-787
248.567	-26
248.630	-1142
248.694	-648
248.757	1728
248.821	5642
248.884	2718
248.948	1340
249.011	4038
249.075	6461
249.138	5093
249.202	-81
249.265	-610
249.328	482
249.392	-722
249.455	-754
249.519	-389
249.582	-590
249.645	109
249.709	-416
249.772	-285
249.835	273
249.899	-529
249.962	-602
250.025	-956
250.089	1083
250.152	1223
250.215	82
250.279	-717
250.342	-666
250.405	-247
250.468	-93
250.532	-370
250.595	697
250.658	7482
250.721	16363
250.785	2854
250.848	1488
250.911	298
250.974	652
251.038	242
251.101	2743
251.164	-46
251.227	178
251.290	284
251.354	1857
251.417	12906
251.480	12366
251.543	5298
251.606	28796
251.669	16795
251.732	3793
251.795	3710
251.859	4188
251.922	14931
251.985	7450
252.048	1988
252.111	935
252.174	-414
252.237	2056
252.300	7982
252.363	5026
252.426	21191
252.489	4489
252.552	1877
252.615	-286
252.678	2226
252.741	4287
252.804	7147
252.867	21194
252.930	7498
252.993	2298
253.056	834
253.119	-39
253.182	-519
253.245	345
253.308	1151
253.371	-664
253.434	-209
253.497	194
253.559	1495
253.622	340
253.685	120
253.748	-136
253.811	-94
253.874	1115
253.937	-348
254.000	11
254.062	312
254.125	1196
254.188	1614
254.251	-362
254.314	-280
254.376	-679
254.439	437
254.502	333
254.565	132
254.628	2647
254.690	387
254.753	-791
254.816	-643
254.878	-655
254.941	388
255.004	347
255.067	-549
255.129	-1525
255.192	-713
255.255	-1593
255.317	-1053
255.380	-1085
255.443	-918
255.505	-944
255.568	-1424
255.631	-1132
255.693	-119
255.756	-1307
255.819	228
255.881	-1225
255.944	-334
256.006	102
256.069	-857
256.132	-1527
256.194	-1069
256.257	-26
256.319	548
256.382	-1474
256.444	1125
256.507	-417
256.569	-1367
256.632	-1016
256.694	-811
256.757	186
256.819	5566
256.882	-173
256.944	-132
257.007	-110
257.069	-766
257.132	-753
257.194	195
257.257	-1126
257.319	-1022
257.381	-1998
257.444	1383
257.506	7339
257.569	6310
257.631	911
257.693	328
257.756	-521
257.818	-668
257.880	-783
257.943	-14
258.005	-1289
258.067	-1207
258.130	-681
258.192	-493
258.254	-754
258.317	-1021
258.379	-306
258.441	-624
258.503	-437
258.566	734
258.628	1620
258.690	-1184
258.753	-55
258.815	-938
258.877	-1429
258.939	-1219
259.001	-532
259.064	-756
259.126	-1211
259.188	-1200
259.250	-517
259.312	-882
259.375	-297
259.437	-1117
259.499	-1209
259.561	-977
259.623	-541
259.685	-807
259.747	-753
259.809	1231
259.872	2348
259.934	5523
259.996	3932
260.058	-952
260.120	-1101
260.182	-657
260.244	-71
260.306	-1153
260.368	-368
260.430	-832
260.492	-666
260.554	133
260.616	-763
260.678	526
260.740	1863
260.802	-311
260.864	-337
260.926	-1819
260.988	194
261.050	-53
261.112	-1256
261.174	2363
261.236	2119
261.298	-467
261.359	549
261.421	1201
261.483	-1230
261.545	98
261.607	-1851
261.669	-675
261.731	-623
261.793	1142
261.854	-2365
261.916	-178
261.978	-983
262.040	-341
262.102	-198
262.164	-997
262.225	-125
262.287	-841
262.349	-1071
262.411	-167
262.472	35
262.534	-1260
262.596	798
262.658	-780
262.719	-1414
262.781	229
262.843	187
262.904	-904
262.966	-648
263.028	-552
263.090	2259
263.151	7124
263.213	1338
263.275	-464
263.336	-1025
263.398	69
263.459	-1866
263.521	-687
263.583	470
263.644	-876
263.706	-790
263.767	-1837
263.829	-468
263.891	-1046
263.952	-2085
264.014	-1222
264.075	-1894
264.137	18
264.198	-675
264.260	-865
264.321	-839
264.383	-1100
264.444	-1213
264.506	-621
264.567	-926
264.629	-880
264.690	-2137
264.752	-1042
264.813	-1296
264.875	-1525
264.936	-843
264.998	-895
265.059	-669
265.120	-174
265.182	-900
265.243	489
265.305	802
265.366	-525
265.427	-296
265.489	632
265.550	-2131
265.611	-738
265.673	-1407
265.734	-872
265.795	-76
265.857	-1385
265.918	-1714
265.979	146
266.040	2056
266.102	1747
266.163	-176
266.224	-323
266.286	-843
266.347	-1408
266.408	-854
266.469	-306
266.530	-1125
266.592	39
266.653	-844
266.714	-1584
266.775	-525
266.836	-555
266.898	-576
266.959	-537
267.020	-885
267.081	300
267.142	-1038
267.203	-577
267.264	-2294
267.326	-19
267.387	-1219
267.448	-1340
267.509	-976
267.570	-1006
267.631	-1194
267.692	-1567
267.753	-885
267.814	-1808
267.875	-509
267.936	108
267.997	-892
268.058	-774
268.119	-1314
268.180	-388
268.241	-1284
268.302	-625
268.363	-1328
268.424	-525
268.485	-1335
268.546	-1431
268.607	-1598
268.668	-1172
268.729	-1856
268.790	-809
268.851	-835
268.912	-246
268.972	-1138
269.033	-1008
269.094	-1599
269.155	-943
269.216	-1778
269.277	-1330
269.338	-1222
269.398	-298
269.459	-2126
269.520	-291
269.581	-1446
269.642	-670
269.702	-1754
269.763	-500
269.824	-1254
269.885	-1228
269.945	-1209
270.006	-1282
270.067	-1483
270.128	-642
270.188	-1225
270.249	-1383
270.310	-1417
270.370	-580
270.431	-1659
270.492	-1504
270.553	-538
270.613	-846
270.674	-391
270.734	-1235
270.795	-790
270.856	-1556
270.916	-882
270.977	-1427
271.038	-257
271.098	-1053
271.159	-904
271.219	-1227
271.280	-853
271.340	-435
271.401	-1091
271.462	-118
271.522	-533
271.583	-725
271.643	-297
271.704	-1366
271.764	-436
271.825	-554
271.885	4296
271.946	7302
272.006	851
272.066	2576
272.127	5002
272.187	2432
272.248	195
272.308	-912
272.369	1535
272.429	-44
272.489	-367
272.550	-687
272.610	268
272.671	-1072
272.731	-886
272.791	-762
272.852	-1510
272.912	-1
272.972	-91
273.033	-596
273.093	-927
273.153	-286
273.214	-1442
273.274	-1021
273.334	89
273.394	2335
273.455	-294
273.515	318
273.575	917
273.635	-83
273.696	543
273.756	2944
273.816	319
273.876	-251
273.936	-8
273.997	2058
274.057	-1341
274.117	-893
274.177	-888
274.237	3068
274.297	2159
274.358	1635
274.418	792
274.478	726
274.538	-964
274.598	-891
274.658	2367
274.718	1704
274.778	-389
274.838	-160
274.898	-270
274.958	2974
275.018	3371
275.078	1424
275.138	170
275.198	-1101
275.258	-850
275.318	-8
275.378	-512
275.438	-592
275.498	-220
275.558	748
275.618	2740
275.678	658
275.738	296
275.798	-946
275.858	-1757
275.918	-956
275.978	-1225
276.038	-391
276.098	-872
276.157	-726
276.217	36
276.277	-344
276.337	-1587
276.397	-597
276.457	-1036
276.517	-319
276.576	-734
276.636	-1205
276.696	-833
276.756	341
276.815	-890
276.875	-863
276.935	-924
276.995	-1037
277.055	-328
277.114	-283
277.174	-645
277.234	-365
277.293	-1099
277.353	-1203
277.413	-1090
277.472	-728
277.532	-845
277.592	-455
277.651	2249
277.711	5742
277.771	764
277.830	5917
277.890	4895
277.950	3400
278.009	16228
278.069	5016
278.128	3889
278.188	6403
278.248	1639
278.307	6516
278.367	3035
278.426	96
278.486	-194
278.545	-758
278.605	-532
278.664	-1025
278.724	-763
278.783	910
278.843	3670
278.902	322
278.962	-981
279.021	416
279.081	2045
279.140	1251
279.199	365
279.259	899
279.318	1399
279.378	1746
279.437	3553
279.496	12554
279.556	70983
279.615	56298
279.675	11582
279.734	5744
279.793	6242
279.853	8500
279.912	2186
279.971	1362
280.031	1191
280.090	2487
280.149	4463
280.208	5888
280.268	47479
280.327	49153
280.386	8137
280.445	3777
280.505	1915
280.564	1879
280.623	564
280.682	672
280.742	482
280.801	240
280.860	-1153
280.919	-1214
280.978	-692
281.037	-1280
281.097	-1560
281.156	-103
281.215	-514
281.274	53
281.333	693
281.392	-318
281.451	119
281.510	-1432
281.569	-1086
281.628	-737
281.688	-1467
281.747	-183
281.806	-972
281.865	-777
281.924	-1427
281.983	-1520
282.042	-619
282.101	-285
282.160	-197
282.219	19
282.278	-1024
282.337	-330
282.396	-232
282.454	-448
282.513	-532
282.572	190
282.631	-604
282.690	-557
282.749	-1782
282.808	-644
282.867	-1306
282.926	-971
282.985	-657
283.043	-780
283.102	-1039
283.161	-1021
283.220	-274
283.279	1701
283.338	-394
283.396	-159
283.455	-1719
283.514	-987
283.573	-199
283.631	-736
283.690	-661
283.749	-987
283.808	-564
283.866	475
283.925	-1128
283.984	24
284.043	-1178
284.101	-249
284.160	-823
284.219	126
284.277	-183
284.336	-385
284.395	1172
284.453	963
284.512	238
284.570	511
284.629	-67
284.688	94
284.746	172
284.805	1488
284.863	1888
284.922	2244
284.981	4238
285.039	6611
285.098	12254
285.156	28371
285.215	85735
285.273	78697
285.332	31095
285.390	16608
285.449	9113
285.507	5985
285.566	3548
285.624	3381
285.683	2586
285.741	1153
285.799	411
285.858	636
285.916	14
285.975	81
286.033	-891
286.091	-8
286.150	-432
286.208	205
286.267	150
286.325	-478
286.383	-674
286.442	2
286.500	-882
286.558	-378
286.616	-852
286.675	842
286.733	340
286.791	-859
286.850	246
286.908	-573
286.966	-599
287.024	-552
287.083	-562
287.141	-379
287.199	-307
287.257	-459
287.315	-791
287.374	-489
287.432	-267
287.490	-193
287.548	-456
287.606	-207
287.664	-825
287.723	15
287.781	-50
287.839	11
287.897	-860
287.955	241
288.013	850
288.071	2410
288.129	15096
288.187	56458
288.245	20776
288.303	4745
288.361	1301
288.419	821
288.477	315
288.535	938
288.593	-300
288.651	-1001
288.709	-1636
288.767	-209
288.825	-739
288.883	-857
288.941	-698
288.999	-368
289.057	-81
289.115	-257
289.173	-1063
289.231	-676
289.289	-1231
289.346	-1121
289.404	-393
289.462	-323
289.520	-950
289.578	116
289.636	-969
289.694	-396
289.751	-1954
289.809	-642
289.867	-953
289.925	-531
289.983	-920
290.040	-326
290.098	-862
290.156	-1450
290.214	-1175
290.271	-804
290.329	-818
290.387	-622
290.444	-1431
290.502	-1220
290.560	-532
290.617	-929
290.675	-723
290.733	-919
290.790	-923
290.848	-248
290.906	-688
290.963	-895
291.021	-1126
291.078	-962
291.136	-815
291.194	-1306
291.251	356
291.309	-120
291.366	-1001
291.424	-423
291.481	-1531
291.539	-1077
291.596	-1508
291.654	-386
291.711	-1287
291.769	-37
291.826	-274
291.884	41
291.941	-1949
291.999	-960
292.056	-1440
292.114	-984
292.171	-1131
292.228	129
292.286	-1192
292.343	-855
292.401	-1120
292.458	-527
292.515	-1090
292.573	-836
292.630	-631
292.687	-930
292.745	-991
292.802	-1093
292.859	-189
292.917	1238
292.974	60
293.031	-556
293.089	-988
293.146	-687
293.203	-1118
293.260	-1235
293.318	-1019
293.375	-296
293.432	-1123
293.489	-114
293.546	-284
293.604	-417
293.661	1131
293.718	4610
293.775	1055
293.832	649
293.889	-276
293.947	127
294.004	-1515
294.061	-887
294.118	-7
294.175	1414
294.232	1025
294.289	52
294.346	-978
294.403	-776
294.460	-400
294.517	-286
294.574	-106
294.631	7
294.688	-732
294.745	1002
294.802	3488
294.859	3199
294.916	241
294.973	179
295.030	-728
295.087	-297
295.144	-600
295.201	-679
295.258	-1038
295.315	-446
295.372	562
295.429	2762
295.486	598
295.542	248
295.599	-52
295.656	1354
295.713	-52
295.770	1935
295.827	698
295.883	-594
295.940	-756
295.997	-725
296.054	-929
296.111	282
296.167	255
296.224	-722
296.281	-799
296.338	-1111
296.394	-1121
296.451	-1228
296.508	131
296.564	1169
296.621	765
296.678	4045
296.734	6520
296.791	1485
296.848	160
296.904	-147
296.961	266
297.018	2422
297.074	930
297.131	-395
297.187	-339
297.244	498
297.301	3713
297.357	7851
297.414	2036
297.470	334
297.527	-729
297.583	655
297.640	-691
297.696	-1034
297.753	-562
297.809	-789
297.866	-727
297.922	-355
297.979	-1425
298.035	-339
298.092	-637
298.148	298
298.204	697
298.261	233
298.317	725
298.374	5616
298.430	2597
298.486	139
298.543	-1072
298.599	1
298.656	-450
298.712	1088
298.768	1268
298.824	1870
298.881	-159
298.937	-1020
298.993	-705
299.050	-107
299.106	-567
299.162	-142
299.218	-162
299.275	39
299.331	-26
299.387	1020
299.443	6244
299.500	12127
299.556	9439
299.612	2494
299.668	2170
299.724	8341
299.780	10726
299.837	3737
299.893	2065
299.949	7213
300.005	10993
300.061	8255
300.117	15077
300.173	7403
300.229	1487
300.285	1681
300.341	953
300.397	358
300.453	-329
300.510	45
300.566	1392
300.622	2941
300.678	15537
300.734	21336
300.790	9995
300.845	6831
300.901	7549
300.957	13135
301.013	5632
301.069	1680
301.125	1010
301.181	436
301.237	558
301.293	-603
301.349	188
301.405	-103
301.461	-126
301.516	-161
301.572	-1534
301.628	-182
301.684	250
301.740	-115
301.796	1368
301.851	557
301.907	1576
301.963	1383
302.019	4260
302.074	17999
302.130	17695
302.186	6959
302.242	1939
302.297	1262
302.353	205
302.409	1237
302.464	390
302.520	374
302.576	2742
302.631	3594
302.687	955
302.743	648
302.798	25
302.854	-185
302.910	-243
302.965	-26
303.021	154
303.076	548
303.132	-441
303.187	56
303.243	-179
303.299	-250
303.354	-944
303.410	-436
303.465	-316
303.521	-80
303.576	-38
303.632	-955
303.687	-268
303.743	4120
303.798	3341
303.853	1185
303.909	-591
303.964	-761
304.020	-903
304.075	187
304.130	-263
304.186	260
304.241	-37
304.297	114
304.352	-1195
304.358	-1038
304.407	240
304.449	-220
304.463	-376
304.518	-41
304.539	82
304.573	269
304.629	113
304.630	107
304.684	-63
304.720	1375
304.739	2070
304.794	5259
304.811	4170
304.850	1621
304.902	-118
304.905	-230
304.960	245
304.992	-15
305.015	-214
305.071	-181
305.083	-250
305.126	-513
305.173	-363
305.181	-332
305.236	-328
305.264	36
305.292	366
305.347	-632
305.354	-530
305.402	200
305.445	-182
305.457	-307
305.512	519
305.535	277
305.567	-20
305.622	-632
305.626	-591
305.678	256
305.716	1970
305.733	2587
305.788	2396
305.807	2246
305.843	2270
305.897	3899
305.898	3914
305.953	4399
305.988	2536
306.008	1544
306.063	875
306.078	670
306.118	186
306.168	122
306.173	130
306.228	-919
306.259	-555
306.283	-339
306.338	-469
306.349	-390
306.393	18
306.440	-137
306.448	-170
306.503	412
306.530	155
306.558	-23
306.613	744
306.620	848
306.668	1510
306.711	1985
306.723	2004
306.778	1733
306.801	1322
306.833	953
306.888	356
306.892	354
306.943	416
306.982	145
306.997	17
307.052	-428
307.072	-383
307.107	-107
307.162	750
307.163	752
307.217	904
307.253	907
307.272	849
307.327	520
307.343	461
307.381	641
307.434	523
307.436	521
307.491	987
307.524	1419
307.546	1543
307.600	1803
307.614	1614
307.655	1019
307.704	867
307.710	885
307.765	268
307.795	704
307.819	1199
307.874	2071
307.885	2118
307.929	1719
307.975	1657
307.984	1842
308.038	3391
308.065	4353
308.093	8320
308.148	17791
308.156	20562
308.202	31897
308.246	37472
308.257	36784
308.312	18376
308.336	11387
308.366	7211
308.421	3359
308.426	3152
308.475	2129
308.517	2011
308.530	1911
308.585	1597
308.607	1257
308.639	1119
308.694	1901
308.697	1912
308.748	2390
308.787	3056
308.803	2892
308.857	1691
308.877	1521
308.912	2088
308.967	2313
308.967	2324
309.021	3622
309.058	4559
309.076	5764
309.130	10622
309.148	12439
309.185	28007
309.238	56902
309.239	56955
309.293	58138
309.328	47335
309.348	40137
309.402	17086
309.418	11936
309.457	8217
309.508	5143
309.511	5021
309.566	5284
309.598	5391
309.620	5955
309.674	8592
309.688	9325
309.729	8970
309.778	7001
309.783	6811
309.837	4664
309.868	3222
309.892	2958
309.946	3208
309.959	3465
310.001	3864
310.049	3714
310.055	3578
310.109	2146
310.139	1400
310.163	1270
310.218	1371
310.229	1363
310.272	1478
310.319	1612
310.326	1542
310.381	1083
310.409	823
310.435	759
310.489	549
310.499	570
310.543	779
310.589	650
310.598	615
310.652	527
310.679	540
310.706	751
310.760	1093
310.769	1128
310.814	1043
310.859	1204
310.868	1204
310.923	713
310.948	608
310.977	667
311.031	696
311.038	720
311.085	914
311.128	819
311.139	775
311.193	880
311.218	769
311.247	836
311.301	1163
311.308	1191
311.356	1047
311.398	942
311.410	960
311.464	967
311.488	972
311.518	902
311.572	696
311.578	686
311.626	1115
311.668	1384
311.680	1333
311.734	1136
311.758	1001
311.788	1024
311.842	1165
311.847	1170
311.896	1311
311.937	1459
311.950	1361
312.004	903
312.027	715
312.058	800
312.112	929
312.117	942
312.165	1129
312.207	1287
312.297	772
312.386	727
312.476	1411
312.566	1667
312.656	1692
312.745	863
312.835	1236
312.925	1070
313.015	1583
313.104	1231
313.194	1535
313.284	1290
313.374	1589
313.463	905
313.553	1838
313.643	1472
313.732	1728
313.822	1721
313.912	2107
314.001	2126
314.091	2397
314.180	1484
314.270	2807
314.360	1852
314.449	1709
314.539	1430
314.628	2112
314.718	2079
314.808	2786
314.897	2575
314.987	2879
315.076	2458
315.166	2530
315.255	2838
315.345	3153
315.434	2503
315.524	3855
315.613	4360
315.703	8038
315.792	32930
315.881	115044
315.971	26035
316.060	6525
316.150	3670
316.239	3206
316.328	2722
316.418	2520
316.507	1898
316.597	2965
316.686	2697
316.775	2961
316.865	3558
316.954	2529
317.043	2367
317.133	1444
317.222	1482
317.311	2180
317.400	2286
317.490	3880
317.579	3828
317.668	5908
317.757	12602
317.847	59453
317.936	170756
318.025	40828
318.114	40009
318.203	12394
318.293	4912
318.382	4085
318.471	4693
318.560	3884
318.649	5166
318.738	2274
318.828	2368
318.917	1851
319.006	1899
319.095	2395
319.184	5266
319.273	3196
319.362	2211
319.451	909
319.540	1111
319.629	1749
319.718	2235
319.807	1798
319.896	3001
319.985	6025
320.074	2709
320.163	1873
320.252	1781
320.341	2903
320.430	1736
320.519	1845
320.608	1406
320.697	2338
320.786	2071
320.875	3266
320.964	3450
321.053	3620
321.142	3516
321.230	4224
321.319	4373
321.408	5786
321.497	4954
321.586	4477
321.675	3539
321.764	3798
321.852	3689
321.941	3717
322.030	2758
322.119	2725
322.207	5839
322.296	5585
322.385	5866
322.474	7841
322.562	8258
322.651	5509
322.740	3329
322.829	4319
322.917	4447
323.006	2702
323.095	2719
323.183	2303
323.272	2160
323.361	4453
323.449	7885
323.538	3147
323.626	5532
323.715	3821
323.804	2319
323.892	4339
323.981	2359
324.069	1801
324.158	3617
324.246	3194
324.335	1654
324.424	1745
324.512	1780
324.601	1352
324.689	2795
324.778	3172
324.866	2355
324.954	1674
325.043	1563
325.131	511
325.220	3225
325.308	2147
325.397	2299
325.485	1348
325.574	1406
325.662	1647
325.750	553
325.839	1834
325.927	1183
326.015	835
326.104	1297
326.192	1700
326.280	1208
326.369	1393
326.457	1191
326.545	1537
326.634	1429
326.722	783
326.810	1808
326.898	1774
326.987	1240
327.075	887
327.163	2398
327.251	1313
327.340	2007
327.428	2656
327.516	2884
327.604	2409
327.692	1474
327.781	1621
327.869	1733
327.957	1571
328.045	1004
328.133	408
328.221	1434
328.309	1165
328.397	1636
328.485	1132
328.574	2937
328.662	4215
328.750	2776
328.838	1932
328.926	1462
329.014	918
329.102	1821
329.190	1942
329.278	1719
329.366	1173
329.454	1440
329.542	1677
329.630	27
329.718	1876
329.806	1309
329.893	1930
329.981	646
330.069	1810
330.157	2146
330.245	4398
330.333	2613
330.421	1595
330.509	1391
330.597	2650
330.684	1835
330.772	1352
330.860	882
330.948	1753
331.036	1646
331.123	1365
331.211	952
331.299	1127
331.387	1771
331.475	2243
331.562	2333
331.650	1141
331.738	1165
331.825	1796
331.913	1253
332.001	2062
332.089	1207
332.176	1515
332.264	2698
332.352	2216
332.439	1318
332.527	1838
332.614	775
332.702	1304
332.790	1145
332.877	2123
332.965	2575
333.052	1510
333.140	2006
333.228	3472
333.315	963
333.403	1658
333.490	2335
333.578	2329
333.665	4993
333.753	2996
333.840	2393
333.928	2426
334.015	2836
334.103	3947
334.190	8335
334.278	5380
334.365	7532
334.452	6711
334.540	3992
334.627	3791
334.715	4806
334.802	7781
334.889	20326
334.977	23476
335.064	11242
335.151	5060
335.239	3724
335.326	3031
335.413	5660
335.501	5449
335.588	2836
335.675	3724
335.762	3937
335.850	6334
335.937	8797
336.024	16805
336.111	31760
336.199	24987
336.286	9790
336.373	4879
336.460	3477
336.547	3144
336.635	1986
336.722	2034
336.809	1590
336.896	2091
336.983	3388
337.070	5117
337.157	7207
337.245	6768
337.332	4139
337.419	1198
337.506	834
337.593	1889
337.680	1949
337.767	4075
337.854	2268
337.941	2379
338.028	2839
338.115	831
338.202	1944
338.289	2752
338.376	4717
338.463	2481
338.550	3276
338.637	2546
338.724	1967
338.811	1886
338.898	1619
338.984	1664
339.071	959
339.158	1681
339.245	1501
339.332	2544
339.419	2695
339.506	2229
339.593	726
339.679	1080
339.766	364
339.853	1423
339.940	1117
340.027	1666
340.113	874
340.200	1452
340.287	575
340.374	1496
340.460	2403
340.547	558
340.634	1417
340.720	3195
340.807	1638
340.894	1982
340.980	1288
341.067	1145
341.154	2098
341.240	1304
341.327	969
341.414	1845
341.500	595
341.587	1536
341.674	1338
341.760	1954
341.847	772
341.933	1719
342.020	1196
342.106	1178
342.193	1694
342.279	913
342.366	888
342.452	1840
342.539	624
342.625	1711
342.712	1889
342.798	2032
342.885	910
342.971	506
343.058	1381
343.144	859
343.230	2337
343.317	1680
343.403	904
343.490	1240
343.576	1320
343.662	618
343.749	971
343.835	1084
343.921	1839
344.008	12023
344.094	17370
344.180	3868
344.267	2131
344.353	4151
344.439	3342
344.525	1432
344.612	1656
344.698	1167
344.784	1380
344.870	1908
344.957	668
345.043	2462
345.129	750
345.215	1824
345.301	832
345.387	1246
345.474	1349
345.560	1991
345.646	970
345.732	1301
345.818	1668
345.904	695
345.990	911
346.076	1624
346.162	1259
346.249	2150
346.335	1279
346.421	1750
346.507	3462
346.593	5098
346.679	929
346.765	2551
346.851	3140
346.937	1201
347.023	2647
347.108	1545
347.194	1163
347.280	1633
347.366	2304
347.452	6728
347.538	9299
347.624	5911
347.710	3676
347.796	766
347.882	1295
347.967	1985
348.053	1631
348.139	1990
348.225	1366
348.311	928
348.397	1265
348.482	2182
348.568	1550
348.654	2140
348.740	7149
348.825	4737
348.911	4061
348.997	4560
349.083	6885
349.168	1837
349.254	1078
349.340	1712
349.425	1415
349.511	1526
349.597	1071
349.682	1518
349.768	4059
349.854	1590
349.939	1468
350.025	1806
350.110	1384
350.196	868
350.282	412
350.367	1973
350.453	1709
350.538	1118
350.624	826
350.709	1438
350.795	1170
350.880	1118
350.966	2461
351.051	2135
351.137	1711
351.222	1658
351.308	1827
351.393	3271
351.479	882
351.564	1398
351.649	1026
351.735	1308
351.820	1247
351.906	1734
351.991	1405
352.076	2541
352.162	2963
352.247	1540
352.332	1520
352.418	877
352.503	1668
352.588	4142
352.673	2635
352.759	1613
352.844	1406
352.929	1562
353.014	790
353.100	2510
353.185	1735
353.270	1569
353.355	1893
353.441	2494
353.526	1572
353.611	1723
353.696	1586
353.781	2163
353.866	1100
353.952	2927
354.037	1960
354.122	2738
354.207	2338
354.292	1789
354.377	1435
354.462	1101
354.547	1129
354.632	2230
354.717	2647
354.802	996
354.887	1962
354.972	1653
355.057	1650
355.142	982
355.227	2488
355.312	1700
355.397	2108
355.482	3275
355.567	2011
355.652	3122
355.737	2384
355.822	4724
355.907	2652
355.991	2943
356.076	1314
356.161	1826
356.246	1734
356.331	2150
356.416	1993
356.501	10594
356.585	5691
356.670	1144
356.755	3333
356.840	3209
356.924	8983
357.009	20547
357.094	7208
357.179	1985
357.263	1165
357.348	2696
357.433	2254
357.517	1807
357.602	1928
357.687	2496
357.771	2709
357.856	3184
357.941	2897
358.025	9453
358.110	30584
358.195	10933
358.279	2956
358.364	2723
358.448	3800
358.533	6456
358.617	4576
358.702	4003
358.787	3406
358.871	2301
358.956	1300
359.040	1761
359.125	1315
359.209	2035
359.294	2962
359.378	3855
359.462	1919
359.547	1711
359.631	1043
359.716	1085
359.800	1194
359.885	2243
359.969	1521
360.053	2033
360.138	1706
360.222	1908
360.306	1586
360.391	1755
360.475	2476
360.559	3038
360.644	3141
360.728	1940
360.812	7210
360.896	11764
360.981	4027
361.065	2002
361.149	2650
361.233	2021
361.318	1485
361.402	2768
361.486	2487
361.570	681
361.654	2246
361.739	2917
361.823	9659
361.907	12728
361.991	3390
362.075	3094
362.159	3834
362.243	9130
362.327	18879
362.411	27667
362.495	9803
362.580	5271
362.664	4877
362.748	4372
362.832	8206
362.916	16765
363.000	51393
363.084	72983
363.168	31232
363.252	8385
363.336	5311
363.420	4827
363.503	7111
363.587	6239
363.671	3197
363.755	2695
363.839	4674
363.923	3538
364.007	4873
364.091	6325
364.175	10244
364.258	26690
364.342	57832
364.426	104799
364.510	49965
364.594	14668
364.677	8934
364.761	13095
364.845	9342
364.929	3758
365.013	2888
365.096	3469
365.180	2297
365.264	4302
365.347	8893
365.431	3343
365.515	2071
365.598	1475
365.682	3100
365.766	1080
365.849	1681
365.933	1714
366.017	2651
366.100	1900
366.184	1482
366.267	3156
366.351	1572
366.435	1771
366.518	1566
366.602	2163
366.685	1875
366.769	2187
366.852	2274
366.936	1880
367.019	1972
367.103	1361
367.186	2659
367.270	1623
367.353	1316
367.436	2805
367.520	1860
367.603	2528
367.687	1735
367.770	2197
367.853	3220
367.937	5334
368.020	3907
368.104	2140
368.187	3019
368.270	2038
368.353	2025
368.437	2446
368.520	5053
368.603	2294
368.687	3234
368.770	5020
368.853	2342
368.936	3016
369.020	2718
369.103	1028
369.186	1378
369.269	1439
369.352	2236
369.436	1267
369.519	1797
369.602	-278
369.685	3063
369.768	1034
369.851	2443
369.934	659
370.018	1424
370.101	858
370.184	3638
370.267	2492
370.350	2058
370.433	4084
370.516	18413
370.599	48364
370.682	18015
370.765	6017
370.848	5043
370.931	5835
371.014	3357
371.097	840
371.180	2667
371.263	2632
371.346	495
371.429	2725
371.511	1831
371.594	1820
371.677	2238
371.760	3047
371.843	2457
371.926	14814
372.009	24170
372.091	8703
372.174	3511
372.257	7275
372.340	2732
372.423	3111
372.505	3548
372.588	2115
372.671	3340
372.754	5949
372.836	3761
372.919	3982
373.002	4393
373.085	326
373.167	2954
373.250	4651
373.332	8228
373.415	17576
373.498	29034
373.580	23617
373.663	78476
373.746	66879
373.828	10972
373.911	5089
373.993	3762
374.076	5694
374.159	4416
374.241	3975
374.324	5874
374.406	5444
374.489	10332
374.571	19580
374.654	6127
374.736	5481
374.819	13425
374.901	21106
374.983	17445
375.066	4807
375.148	3503
375.231	5183
375.313	7256
375.395	3742
375.478	3019
375.560	2886
375.643	3426
375.725	6820
375.807	15592
375.890	11409
375.972	2782
376.054	3456
376.136	4609
376.219	2215
376.301	6110
376.383	8989
376.465	4722
376.548	2242
376.630	4350
376.712	8830
376.794	3635
376.877	1623
376.959	1110
377.041	2267
377.123	2126
377.205	1800
377.287	981
377.369	1785
377.452	1949
377.534	2066
377.616	1831
377.698	1082
377.780	1205
377.862	2013
377.944	2371
378.026	1066
378.108	1709
378.190	1533
378.272	3360
378.354	2159
378.436	1604
378.518	1457
378.600	2484
378.682	3344
378.764	3631
378.846	3773
378.928	1746
379.010	679
379.091	2469
379.173	1238
379.255	1306
379.337	1846
379.419	2487
379.501	5190
379.583	2982
379.664	1553
379.746	2254
379.828	5140
379.910	3693
379.991	4847
380.073	1143
380.155	2467
380.237	854
380.318	1698
380.400	1396
380.482	2663
380.564	2231
380.645	2430
380.727	2423
380.809	2845
380.890	2161
380.972	705
381.053	2440
381.135	2374
381.217	2574
381.298	4917
381.380	2585
381.461	3769
381.543	9757
381.624	8833
381.706	2849
381.787	2676
381.869	3114
381.951	8517
382.032	20832
382.113	13294
382.195	2908
382.276	4030
382.358	4848
382.439	8077
382.521	13255
382.602	16627
382.684	9008
382.765	12403
382.846	18174
382.928	31708
383.009	16270
383.090	16844
383.172	53806
383.253	65830
383.334	19819
383.416	14339
383.497	8871
383.578	6946
383.659	14100
383.741	52659
383.822	108025
383.903	46831
383.984	12610
384.066	15183
384.147	8423
384.228	4904
384.309	4624
384.390	4642
384.471	3126
384.553	4365
384.634	3814
384.715	4455
384.796	2948
384.877	3313
384.958	6591
385.039	4227
385.120	3806
385.201	4198
385.282	3626
385.363	4526
385.444	3486
385.525	5311
385.606	8090
385.687	7026
385.768	4076
385.849	4891
385.930	15123
386.011	20211
386.092	7074
386.173	4608
386.254	3521
386.335	4086
386.416	4145
386.496	4170
386.577	5436
386.658	3304
386.739	2895
386.820	4496
386.901	3510
386.981	5058
387.062	5692
387.143	6113
387.224	5823
387.304	7774
387.385	5855
387.466	4457
387.547	6878
387.627	5428
387.708	7758
387.789	10932
387.869	9552
387.950	6440
388.031	4361
388.111	2497
388.192	5932
388.273	6816
388.353	5167
388.434	3152
388.514	4738
388.595	10117
388.676	9169
388.756	4878
388.837	4509
388.917	3706
388.998	1216
389.078	3613
389.159	2417
389.239	1383
389.320	3753
389.400	1878
389.480	3634
389.561	5135
389.641	3715
389.722	3043
389.802	1942
389.883	3774
389.963	6583
390.043	4022
390.124	2045
390.204	3217
390.284	4873
390.365	2955
390.445	5400
390.525	9263
390.605	8845
390.686	2936
390.766	3715
390.846	3935
390.927	2590
391.007	2792
391.087	3905
391.167	2550
391.247	2426
391.328	4721
391.408	4514
391.488	4076
391.568	2388
391.648	3986
391.728	4337
391.808	5353
391.888	4200
391.969	5719
392.049	6544
392.129	6181
392.209	6980
392.289	10427
392.369	8369
392.449	7989
392.529	7907
392.609	10979
392.689	13141
392.769	15966
392.849	18949
392.929	24301
393.009	34311
393.089	49507
393.169	106265
393.248	300149
393.328	637625
393.408	592292
393.488	231702
393.568	82740
393.648	42899
393.728	27443
393.807	18592
393.887	16220
393.967	12178
394.047	10526
394.127	8401
394.206	10666
394.286	23681
394.366	75637
394.446	68675
394.525	14466
394.605	6855
394.685	6651
394.764	8444
394.844	10885
394.924	10691
395.003	5643
395.083	4462
395.163	4747
395.242	4348
395.322	5265
395.402	3085
395.481	6196
395.561	6585
395.640	17144
395.720	25712
395.799	14983
395.879	9074
395.958	8469
396.038	30704
396.117	103189
396.197	94236
396.276	23816
396.356	12449
396.435	15793
396.515	21249
396.594	33221
396.673	85237
396.753	286176
396.832	553102
396.912	376773
396.991	99840
397.070	38546
397.150	20465
397.229	18597
397.308	26685
397.388	38648
397.467	18555
397.546	7735
397.625	4215
397.705	7336
397.784	5388
397.863	4520
397.942	4188
398.022	4291
398.101	4295
398.180	5468
398.259	3622
398.338	3713
398.417	2149
398.497	2716
398.576	3136
398.655	1493
398.734	2873
398.813	2561
398.892	3119
398.971	5984
399.050	2286
399.129	368
399.208	2651
399.287	2011
399.366	1850
399.445	2346
399.524	1686
399.603	-342
399.682	1881
399.761	3014
399.840	5838
399.919	4107
399.998	1708
400.077	555
400.156	692
400.235	4103
400.313	972
400.392	975
400.471	3402
400.550	3742
400.629	91
400.708	1918
400.786	316
400.865	634
400.944	796
401.023	2788
401.102	347
401.180	1052
401.259	988
401.338	773
401.416	1146
401.495	595
401.574	1491
401.652	931
401.731	1787
401.810	330
401.888	386
401.967	-6
402.046	608
402.124	1368
402.203	648
402.281	1575
402.360	875
402.438	1957
402.517	-269
402.596	1676
402.674	785
402.753	1235
402.831	1760
402.910	2105
402.988	745
403.066	2453
403.145	2119
403.223	2854
403.302	1801
403.380	3052
403.459	1833
403.537	1552
403.615	1946
403.694	402
403.772	2489
403.850	991
403.929	829
404.007	340
404.085	2528
404.164	652
404.242	621
404.320	3504
404.398	5475
404.477	4981
404.555	11913
404.633	9085
404.711	3865
404.789	2552
404.868	1099
404.946	206
405.024	1163
405.102	484
405.180	504
405.258	-106
405.336	1861
405.415	100
405.493	984
405.571	2332
405.649	126
405.727	114
405.805	1692
405.883	1820
405.961	1518
406.039	369
406.117	-402
406.195	1893
406.273	1776
406.351	7259
406.429	4995
406.507	918
406.585	571
406.663	1498
406.740	614
406.818	310
406.896	467
406.974	2210
407.052	290
407.130	4793
407.208	5291
407.285	1846
407.363	605
407.441	1005
407.519	11
407.596	1985
407.674	10789
407.752	32074
407.830	21233
407.907	3688
407.985	804
408.063	1542
408.141	539
408.218	2481
408.296	231
408.373	1008
408.451	1303
408.529	1212
408.606	458
408.684	381
408.762	1961
408.839	963
408.917	2066
408.994	1781
409.072	579
409.149	1891
409.227	5480
409.304	6475
409.382	7663
409.459	7686
409.537	10703
409.614	8502
409.692	7027
409.769	7240
409.846	11112
409.924	13544
410.001	6940
410.079	5352
410.156	4533
410.233	2870
410.311	1931
410.388	1857
410.465	2522
410.543	1602
410.620	2196
410.697	2439
410.775	2633
410.852	788
410.929	2430
411.006	2905
411.083	1819
411.161	1215
411.238	2711
411.315	1704
411.392	1866
411.469	1376
411.547	1803
411.624	-278
411.701	91
411.778	909
411.855	264
411.932	45
412.009	1378
412.086	825
412.163	241
412.240	20
412.317	1268
412.394	504
412.471	394
412.548	827
412.625	184
412.702	665
412.779	1638
412.856	1424
412.933	297
413.010	766
413.087	718
413.164	694
413.241	2118
413.318	489
413.395	1622
413.471	753
413.548	1015
413.625	985
413.702	-238
413.779	158
413.855	1185
413.932	283
414.009	374
414.086	262
414.162	637
414.239	1156
414.316	2015
414.393	3136
414.469	-42
414.546	269
414.623	779
414.699	551
414.776	131
414.853	106
414.929	1181
415.006	-110
415.082	643
415.159	432
415.236	437
415.312	1080
415.389	492
415.465	338
415.542	593
415.618	308
415.695	691
415.771	20
415.848	155
415.924	905
416.000	594
416.077	1168
416.153	-121
416.230	109
416.306	-14
416.383	226
416.459	1227
416.535	552
416.612	91
416.688	356
416.764	32
416.841	-852
416.917	-272
416.993	596
417.069	227
417.146	-704
417.222	1032
417.298	9
417.374	422
417.451	216
417.527	-312
417.603	-127
417.679	601
417.755	656
417.831	-629
417.908	1268
417.984	697
418.060	-200
418.136	1113
418.212	-97
418.288	858
418.364	1080
418.440	-229
418.516	1234
418.592	517
418.668	839
418.744	696
418.820	1267
418.896	455
418.972	-211
419.048	527
419.124	1505
419.200	-282
419.276	830
419.352	160
419.428	1567
419.504	451
419.579	496
419.655	368
419.731	1040
419.807	1134
419.883	993
419.959	947
420.034	1318
420.110	1291
420.186	2121
420.262	1990
420.337	1171
420.413	1339
420.489	1623
420.565	2115
420.640	456
420.716	1717
420.792	271
420.867	1824
420.943	1648
421.019	1652
421.094	1102
421.170	2058
421.245	1709
421.321	2886
421.397	3412
421.472	10327
421.548	20530
421.623	11930
421.699	4803
421.774	4669
421.850	5115
421.925	7135
422.001	7831
422.076	9479
422.152	11316
422.227	16081
422.302	23176
422.378	34893
422.453	61333
422.529	125075
422.604	239566
422.679	300840
422.755	212429
422.830	106463
422.905	56976
422.981	34321
423.056	23915
423.131	17677
423.207	12093
423.282	9943
423.357	8987
423.432	6444
423.508	6210
423.583	4685
423.658	4501
423.733	4115
423.808	4272
423.883	4165
423.959	3892
424.034	4664
424.109	5659
424.184	2576
424.259	3000
424.334	2322
424.409	1773
424.484	1656
424.559	617
424.634	1239
424.709	785
424.784	1626
424.859	1091
424.934	421
425.009	2089
425.084	2932
425.159	236
425.234	1009
425.309	336
425.384	1396
425.459	452
425.534	1381
425.609	-256
425.683	569
425.758	695
425.833	483
425.908	995
425.983	276
426.058	2016
426.132	1417
426.207	752
426.282	1687
426.357	-100
426.431	164
426.506	339
426.581	563
426.655	994
426.730	574
426.805	-594
426.879	1175
426.954	261
427.029	157
427.103	3174
427.178	4046
427.253	2251
427.327	384
427.402	113
427.476	852
427.551	-117
427.625	1118
427.700	1208
427.774	-695
427.849	785
427.923	-184
427.998	-146
428.072	853
428.147	4461
428.221	27954
428.296	71245
428.370	36102
428.444	3590
428.519	1142
428.593	856
428.667	1226
428.742	1912
428.816	10018
428.890	46761
428.965	61143
429.039	13830
429.113	1602
429.188	924
429.262	718
429.336	1355
429.410	807
429.485	1182
429.559	1111
429.633	1032
429.707	2203
429.781	8890
429.855	44041
429.930	52051
430.004	13484
430.078	9103
430.152	32306
430.226	103409
430.300	89347
430.374	15747
430.448	4817
430.522	3884
430.596	5180
430.670	16831
430.744	57544
430.818	55362
430.892	8275
430.966	546
431.040	1044
431.114	-337
431.188	29
431.262	-342
431.336	-262
431.410	1292
431.484	508
431.557	841
431.631	429
431.705	3487
431.779	23334
431.853	70718
431.927	41427
432.000	4666
432.074	1139
432.148	572
432.222	202
432.295	57
432.369	-661
432.443	155
432.516	1973
432.590	5365
432.664	1703
432.737	-41
432.811	-824
432.885	-43
432.958	-18
433.032	-630
433.106	-325
433.179	-344
433.253	-84
433.326	-784
433.400	-908
433.473	-322
433.547	159
433.620	27
433.694	-1104
433.767	98
433.841	-909
433.914	-193
433.988	-606
434.061	254
434.134	-373
434.208	-791
434.281	-671
434.355	-1169
434.428	-406
434.501	-283
434.575	-882
434.648	-677
434.721	-329
434.795	-183
434.868	-433
434.941	-440
435.014	73
435.088	249
435.161	848
435.234	562
435.307	575
435.381	808
435.454	2679
435.527	5762
435.600	5453
435.673	3902
435.746	2679
435.819	1846
435.892	1248
435.966	307
436.039	-6
436.112	-299
436.185	-452
436.258	-244
436.331	-1049
436.404	-614
436.477	-275
436.550	-780
436.623	217
436.696	-365
436.769	-525
436.842	-440
436.915	-317
436.987	-359
437.060	-660
437.133	-470
437.206	-506
437.279	-504
437.352	-498
437.425	-166
437.498	-319
437.570	-357
437.643	-553
437.716	718
437.789	-262
437.861	-669
437.934	-333
438.007	-993
438.080	-586
438.152	-778
438.225	494
438.298	4077
438.370	9906
438.443	3336
438.516	615
438.588	-219
438.661	-1287
438.734	-650
438.806	-278
438.879	-457
438.951	-761
439.024	-425
439.096	-1018
439.169	68
439.241	-1204
439.314	-1056
439.386	-528
439.459	-7
439.531	-516
439.604	-538
439.676	-830
439.749	-30
439.821	-1138
439.893	-270
439.966	-463
440.038	-1461
440.110	-341
440.183	-464
440.255	-674
440.327	100
440.400	1116
440.472	4211
440.544	1988
440.617	442
440.689	322
440.761	110
440.833	-342
440.905	-221
440.978	-989
441.050	-728
441.122	85
441.194	-973
441.266	-538
441.338	-807
441.411	-453
441.483	1659
441.555	982
441.627	-88
441.699	138
441.771	-550
441.843	-478
441.915	-450
441.987	855
442.059	-154
442.131	573
442.203	1057
442.275	1606
442.347	3615
442.419	11037
442.491	54298
442.563	100814
442.635	37845
442.706	7253
442.778	2813
442.850	1205
442.922	1171
442.994	1757
443.066	2118
443.137	2020
443.209	3666
443.281	6178
443.353	16321
443.425	65815
443.496	174575
443.568	158828
443.640	61047
443.711	13030
443.783	5349
443.855	1865
443.926	1981
443.998	1715
444.070	1039
444.141	550
444.213	761
444.285	732
444.356	108
444.428	393
444.499	517
444.571	-117
444.642	200
444.714	-16
444.785	576
444.857	955
444.928	1382
445.000	2108
445.071	3232
445.143	3534
445.214	5705
445.285	11198
445.357	35948
445.428	126225
445.500	218592
445.571	150217
445.642	91061
445.714	29826
445.785	9591
445.856	2832
445.928	2515
445.999	1611
446.070	806
446.141	846
446.213	998
446.284	114
446.355	376
446.426	-328
446.497	475
446.569	33
446.640	10
446.711	-265
446.782	-138
446.853	-9
446.924	853
446.995	-433
447.066	119
447.138	-1060
447.209	-639
447.280	-373
447.351	-143
447.422	-1516
447.493	-414
447.564	-137
447.635	-1153
447.706	-786
447.777	-582
447.847	-551
447.918	-1353
447.989	-411
448.060	50
448.131	-340
448.202	-443
448.273	-975
448.344	106
448.414	-798
448.485	-1289
448.556	-230
448.627	-313
448.698	-316
448.768	-893
448.839	-1389
448.910	-532
448.981	-436
449.051	-426
449.122	-441
449.193	-498
449.263	-1233
449.334	-550
449.405	-497
449.475	-360
449.546	-372
449.616	210
449.687	-60
449.758	-499
449.828	-918
449.899	-1073
449.969	-1144
450.040	-225
450.110	-745
450.181	-806
450.251	-1104
450.322	-204
450.392	-131
450.463	-381
450.533	-310
450.604	-390
450.674	-676
450.744	287
450.815	-68
450.885	578
450.955	544
451.026	-616
451.096	-873
451.166	-460
451.237	337
451.307	1158
451.377	269
451.447	-510
451.518	-888
451.588	-890
451.658	-257
451.728	-477
451.799	-308
451.869	192
451.939	-664
452.009	-70
452.079	-887
452.149	-460
452.219	-448
452.289	628
452.360	513
452.430	-17
452.500	580
452.570	2101
452.640	7658
452.710	16215
452.780	16346
452.850	7662
452.920	3474
452.990	2006
453.060	885
453.129	242
453.199	-248
453.269	1628
453.339	2047
453.409	2474
453.479	3596
453.549	4249
453.619	3984
453.688	535
453.758	-99
453.828	-290
453.898	-232
453.968	-638
454.037	-115
454.087	-406
454.107	-541
454.168	-691
454.177	-730
454.247	-1426
454.249	-1385
454.316	-782
454.330	-786
454.386	-851
454.411	-859
454.456	-957
454.492	-461
454.525	-10
454.574	-262
454.595	-411
454.655	-656
454.665	-708
454.734	-35
454.736	-18
454.804	-121
454.817	64
454.873	687
454.898	670
454.943	631
454.979	132
455.013	-327
455.060	-229
455.082	-203
455.141	234
455.152	384
455.221	1668
455.222	1728
455.291	2709
455.303	3458
455.360	6115
455.384	9166
455.430	13240
455.465	8978
455.499	5535
455.546	2272
455.569	753
455.627	749
455.638	775
455.707	-173
455.708	-158
455.777	-713
455.789	-547
455.846	284
455.869	370
455.916	453
455.950	200
455.985	-58
456.031	245
456.054	405
456.112	397
456.124	361
456.193	234
456.193	217
456.262	551
456.274	595
456.332	944
456.355	959
456.401	792
456.436	512
456.470	172
456.516	211
456.540	241
456.597	251
456.609	281
456.678	1211
456.678	1197
456.747	327
456.759	261
456.817	252
456.840	536
456.886	786
456.920	946
456.955	1299
457.001	1454
457.024	1312
457.082	724
457.093	649
457.162	1349
457.163	1366
457.232	1157
457.243	1211
457.301	1717
457.324	1587
457.370	1135
457.405	1491
457.439	2011
457.485	2237
457.508	2333
457.566	3281
457.577	3874
457.646	7483
457.647	7564
457.715	17613
457.727	19791
457.784	32555
457.808	42106
457.853	49514
457.889	52448
457.922	51378
457.969	38041
457.991	39553
458.050	50074
458.060	52130
458.129	85870
458.130	86836
458.198	69613
458.211	60336
458.267	34197
458.292	24052
458.336	18137
458.372	19234
458.405	28921
458.453	45691
458.474	55231
458.533	91979
458.543	93075
458.611	120161
458.614	120321
458.680	66246
458.694	50443
458.749	23285
458.775	16529
458.818	9444
458.855	7371
458.887	6226
458.936	5203
458.955	4890
459.016	4182
459.024	4138
459.093	3672
459.097	3688
459.162	3205
459.177	3141
459.230	3256
459.257	3133
459.299	2981
459.338	2969
459.368	2828
459.418	2785
459.437	2777
459.499	2727
459.505	2726
459.574	2972
459.579	2978
459.643	2745
459.659	2642
459.711	2587
459.740	2775
459.780	2957
459.820	2982
459.849	2947
459.900	2926
459.917	2852
459.981	2729
459.986	2762
460.054	3275
460.061	3300
460.123	2576
460.141	2556
460.191	3252
460.222	3512
460.260	3378
460.302	2964
460.328	3095
460.382	3795
460.397	3937
460.462	4299
460.465	4602
460.534	12567
460.543	13502
460.602	28791
460.623	35014
460.671	54047
460.703	70390
460.739	55870
460.783	31592
460.808	26423
460.864	7284
460.876	5613
460.944	3634
460.945	3609
461.013	3379
461.024	3373
461.081	3240
461.104	3368
461.150	3362
461.184	3151
461.218	3243
461.264	3241
461.286	3098
461.345	2856
461.355	2836
461.423	2587
461.425	2589
461.491	2821
461.505	2895
461.559	3212
461.585	3190
461.628	3292
461.665	3792
461.696	4112
461.745	4550
461.764	4417
461.825	3319
461.832	3284
461.901	3061
461.905	3066
461.969	2895
461.985	2830
462.037	3203
462.065	3611
462.105	3452
462.145	3197
462.173	3605
462.225	3841
462.241	3791
462.305	4227
462.310	4219
462.378	3943
462.385	3879
462.446	3688
462.465	3742
462.514	3538
462.545	3397
462.582	3465
462.625	3296
462.650	3160
462.705	2962
462.718	3039
462.785	3446
462.786	3441
462.854	3279
462.865	3171
462.922	3415
462.945	3705
462.990	3558
463.025	3217
463.058	3361
463.104	3600
463.126	3381
463.184	3003
463.194	3107
463.262	3508
463.264	3528
463.330	3864
463.344	3934
463.398	4621
463.424	4848
463.466	3664
463.504	2584
463.533	2993
463.583	3921
463.601	3914
463.663	3567
463.669	3548
463.737	3380
463.743	3352
463.805	4314
463.823	4628
463.873	4799
463.903	5002
463.940	5125
463.982	5109
464.008	4863
464.062	4168
464.076	4074
464.142	3565
464.144	3567
464.211	3873
464.221	3847
464.279	3360
464.301	3236
464.347	3761
464.381	4265
464.414	3988
464.461	3178
464.482	3385
464.540	4298
464.550	4240
464.617	3726
464.620	3700
464.685	4676
464.699	4899
464.753	4544
464.779	4317
464.820	4760
464.859	5226
464.888	4581
464.938	3575
464.956	4029
465.018	5462
465.023	5439
465.091	4914
465.098	4871
465.158	5059
465.177	5079
465.226	4778
465.257	4564
465.293	4817
465.336	5151
465.361	5151
465.416	5190
465.428	5206
465.495	5029
465.496	5041
465.563	5350
465.575	5414
465.631	6328
465.654	6733
465.698	5524
465.734	4391
465.765	4277
465.813	4012
465.833	4186
465.893	4863
465.900	4895
465.968	5136
465.972	5130
466.035	4316
466.052	4123
466.102	4945
466.131	5383
466.170	5313
466.210	5215
466.237	5297
466.290	5484
466.304	5279
466.369	4104
466.372	4137
466.439	5048
466.449	5142
466.506	4745
466.528	4612
466.573	5728
466.607	6559
466.641	6881
466.687	7256
466.708	7628
466.766	8635
466.775	8291
466.842	5586
466.845	5448
466.909	6425
466.925	6638
466.977	6125
467.004	5845
467.044	5937
467.083	6032
467.111	6181
467.163	6398
467.178	6563
467.242	7198
467.245	7149
467.312	5855
467.321	5675
467.379	6491
467.400	6767
467.446	6482
467.480	6255
467.559	6819
467.638	5408
467.717	6449
467.796	7897
467.875	7320
467.955	7144
468.034	10323
468.113	11699
468.192	14386
468.271	13524
468.350	20332
468.429	28241
468.508	27832
468.588	15391
468.667	10367
468.746	8740
468.825	7661
468.904	6464
468.983	8144
469.062	7175
469.141	7755
469.220	6305
469.299	7304
469.378	6387
469.456	7698
469.535	6118
469.614	7216
469.693	6323
469.772	6878
469.851	7499
469.930	7110
470.009	5981
470.088	6133
470.166	6755
470.245	9516
470.324	9453
470.403	8354
470.482	6238
470.560	6852
470.639	6119
470.718	6584
470.797	5788
470.875	6543
470.954	5809
471.033	6985
471.111	5070
471.190	5471
471.269	5498
471.347	5967
471.426	5405
471.505	6584
471.583	5167
471.662	5901
471.740	5567
471.819	5842
471.898	5481
471.976	5707
472.055	5836
472.133	6825
472.212	7032
472.290	6167
472.369	5921
472.447	6170
472.526	6024
472.604	6300
472.683	6139
472.761	6215
472.839	5189
472.918	5992
472.996	5349
473.075	5909
473.153	6222
473.231	5654
473.310	6048
473.388	7040
473.466	6243
473.545	7119
473.623	6064
473.701	6808
473.780	6932
473.858	5174
473.936	7141
474.014	6931
474.093	6798
474.171	8558
474.249	7135
474.327	6515
474.405	5339
474.484	6621
474.562	5349
474.640	5099
474.718	5512
474.796	6070
474.874	6292
474.952	5667
475.030	5961
475.108	5968
475.187	5869
475.265	7135
475.343	5606
475.421	7539
475.499	4849
475.577	6364
475.655	5589
475.733	7421
475.811	7342
475.889	8145
475.966	5350
476.044	6391
476.122	5411
476.200	5506
476.278	4548
476.356	5382
476.434	5257
476.512	6357
476.590	4981
476.667	6163
476.745	6035
476.823	6382
476.901	5168
476.979	5274
477.056	5724
477.134	5960
477.212	5434
477.290	4892
477.367	4534
477.445	5686
477.523	4928
477.601	5452
477.678	5301
477.756	6327
477.834	5754
477.911	5060
477.989	5239
478.066	6007
478.144	5167
478.222	6073
478.299	6161
478.377	6914
478.454	5904
478.532	5395
478.609	4765
478.687	7067
478.764	4952
478.842	5440
478.919	4966
478.997	6082
479.074	4682
479.152	5998
479.229	5896
479.307	5606
479.384	5073
479.461	5553
479.539	5126
479.616	5317
479.694	4828
479.771	5387
479.848	5779
479.926	5488
480.003	7364
480.080	6185
480.157	5413
480.235	5784
480.312	5701
480.389	5983
480.467	5679
480.544	7175
480.621	6765
480.698	7516
480.775	6734
480.853	6160
480.930	5992
481.007	7648
481.084	7885
481.161	11043
481.238	6416
481.315	5892
481.392	5993
481.470	6305
481.547	5514
481.624	7246
481.701	5679
481.778	6534
481.855	6573
481.932	7476
482.009	9340
482.086	8482
482.163	9325
482.240	10176
482.317	10400
482.393	9853
482.470	7965
482.547	8095
482.624	6382
482.701	8328
482.778	7207
482.855	7303
482.932	6910
483.009	8547
483.085	9986
483.162	12495
483.239	12476
483.316	10737
483.393	10362
483.469	8998
483.546	7393
483.623	7721
483.699	6634
483.776	6267
483.853	5869
483.930	6848
484.006	8206
484.083	11706
484.160	10167
484.236	13327
484.313	10209
484.389	9951
484.466	11402
484.543	12659
484.619	15790
484.696	17514
484.772	11051
484.849	10947
484.925	9367
485.002	9023
485.078	8031
485.155	8572
485.231	7634
485.308	8067
485.384	8034
485.461	9228
485.537	8140
485.614	10238
485.690	6045
485.766	7383
485.843	7421
485.919	7527
485.995	8547
486.072	6996
486.148	7099
486.224	7740
486.301	7509
486.377	8406
486.453	7430
486.530	8643
486.606	9849
486.682	10252
486.758	9840
486.835	10225
486.911	8971
486.987	12518
487.063	12446
487.139	14722
487.215	16115
487.292	17308
487.368	16023
487.444	19385
487.520	27175
487.596	46874
487.672	127856
487.748	333617
487.824	407158
487.900	102581
487.976	33531
488.052	19969
488.128	14668
488.204	11852
488.280	11231
488.356	11086
488.432	11389
488.508	11784
488.584	8273
488.660	8268
488.736	7597
488.812	8315
488.888	8065
488.964	8840
489.039	9979
489.115	12670
489.191	9693
489.267	7571
489.343	6481
489.418	7892
489.494	6826
489.570	5863
489.646	7892
489.722	7663
489.797	6929
489.873	7881
489.949	8952
490.024	8442
490.100	6725
490.176	6431
490.251	7367
490.327	7373
490.403	6135
490.478	7278
490.554	6043
490.629	6857
490.705	6216
490.781	7131
490.856	4751
490.932	6942
491.007	6915
491.083	6663
491.158	5747
491.234	7156
491.309	8060
491.385	6929
491.460	5268
491.536	6897
491.611	4073
491.686	6399
491.762	5392
491.837	7305
491.913	8317
491.988	11428
492.063	10594
492.139	7651
492.214	6244
492.289	5942
492.365	4790
492.440	6590
492.515	4900
492.590	5854
492.666	5500
492.741	5992
492.816	5853
492.891	5211
492.967	6373
493.042	6264
493.117	5798
493.192	7905
493.267	16036
493.342	42037
493.418	41561
493.493	8218
493.568	5880
493.643	6254
493.718	5715
493.793	5776
493.868	6228
493.943	5398
494.018	5023
494.093	4990
494.168	5730
494.243	5244
494.318	5582
494.393	4996
494.468	5487
494.543	5693
494.618	3967
494.693	4481
494.768	5291
494.842	4788
494.917	5238
494.992	6165
495.067	4258
495.142	4826
495.217	6071
495.292	5811
495.366	4809
495.441	4852
495.516	6360
495.591	7161
495.665	11257
495.740	16760
495.815	7494
495.890	5145
495.964	4084
496.039	7818
496.114	7199
496.188	10923
496.263	6577
496.338	5264
496.412	4184
496.487	6433
496.561	5307
496.636	5608
496.710	5418
496.785	6388
496.860	5512
496.934	4579
497.009	5537
497.083	5611
497.158	5061
497.232	5600
497.307	5113
497.381	5946
497.455	5821
497.530	6630
497.604	4710
497.679	6892
497.753	6340
497.827	5317
497.902	5887
497.976	7667
498.050	15013
498.125	37666
498.199	25821
498.273	7938
498.348	6135
498.422	5705
498.496	6426
498.570	6759
498.645	4801
498.719	4799
498.793	4970
498.867	7567
498.941	8372
499.016	19225
499.090	34005
499.164	10419
499.238	5944
499.312	6215
499.386	6846
499.460	6911
499.534	6687
499.609	7259
499.683	6462
499.757	7531
499.831	11158
499.905	25427
499.979	16743
500.053	6614
500.127	6744
500.201	5242
500.275	6200
500.349	6149
500.422	5285
500.496	7462
500.570	8723
500.644	18143
500.718	20854
500.792	7147
500.866	6081
500.940	5610
501.013	5781
501.087	6237
501.161	5872
501.235	6155
501.309	12765
501.382	20816
501.456	14331
501.530	7509
501.603	7902
501.677	5992
501.751	3173
501.825	6735
501.898	7290
501.972	10743
502.046	5909
502.119	5322
502.193	7612
502.266	10162
502.340	6136
502.413	7206
502.487	8424
502.561	5760
502.634	5382
502.708	5742
502.781	4154
502.855	6998
502.928	3872
503.002	5452
503.075	5162
503.149	5694
503.222	5614
503.295	5577
503.369	6388
503.442	7775
503.516	12746
503.589	17060
503.662	12246
503.736	12508
503.809	17661
503.882	19491
503.956	34306
504.029	72386
504.102	186612
504.175	205062
504.249	63162
504.322	26120
504.395	14470
504.468	10894
504.542	8126
504.615	6918
504.688	6188
504.761	4350
504.834	6992
504.907	5567
504.980	6144
505.053	4941
505.127	2733
505.200	7544
505.273	4479
505.346	5122
505.419	3769
505.492	4777
505.565	4118
505.638	5681
505.711	3431
505.784	3726
505.857	3846
505.930	5716
506.003	2978
506.076	5558
506.149	3886
506.221	2934
506.294	5098
506.367	5320
506.440	11210
506.513	6417
506.586	4020
506.659	4229
506.731	4010
506.804	3868
506.877	3148
506.950	4559
507.022	4207
507.095	2548
507.168	3924
507.241	4426
507.313	2030
507.386	3338
507.459	4867
507.531	2523
507.604	2874
507.677	4640
507.749	1688
507.822	4964
507.894	4558
507.967	5990
508.040	3848
508.112	5153
508.185	3526
508.257	3721
508.330	5943
508.402	3216
508.475	3577
508.547	4047
508.620	4247
508.692	4714
508.765	3755
508.837	3469
508.909	4538
508.982	3648
509.054	3293
509.127	3819
509.199	2836
509.271	3539
509.344	2977
509.416	3880
509.488	2602
509.560	3998
509.633	3424
509.705	4799
509.777	3836
509.849	4849
509.922	2746
509.994	4522
510.066	4590
510.138	2770
510.210	6827
510.283	4797
510.355	4538
510.427	4796
510.499	3628
510.571	4431
510.643	3444
510.715	5769
510.787	2754
510.859	4982
510.931	3764
511.003	5354
511.076	5027
511.148	3835
511.219	3444
511.291	5345
511.363	4744
511.435	4265
511.507	2539
511.579	5224
511.651	4075
511.723	3738
511.795	3415
511.867	4129
511.939	4034
512.010	3681
512.082	4555
512.154	2885
512.226	2816
512.298	6149
512.369	5221
512.441	5160
512.513	4957
512.585	3596
512.656	4497
512.728	4363
512.800	2936
512.871	5174
512.943	3937
513.015	3241
513.086	3784
513.158	4360
513.230	3790
513.301	3549
513.373	5353
513.444	4236
513.516	3398
513.588	4238
513.659	4036
513.731	4823
513.802	2707
513.874	6188
513.945	5372
514.016	4064
514.088	4866
514.159	3535
514.231	5217
514.302	4956
514.374	4718
514.445	3109
514.516	6116
514.588	4397
514.659	4408
514.730	4305
514.802	4969
514.873	2905
514.944	6231
515.016	5418
515.087	3149
515.158	4523
515.229	5458
515.301	3341
515.372	4883
515.443	3978
515.514	3601
515.585	3381
515.656	5102
515.728	5919
515.799	3167
515.870	5354
515.941	4697
516.012	4018
516.083	5644
516.154	5371
516.225	5873
516.296	6887
516.367	5950
516.438	6795
516.509	7418
516.580	12701
516.651	45078
516.722	95904
516.793	23968
516.864	8744
516.935	9534
517.006	12190
517.077	15090
517.148	43642
517.219	171772
517.289	151560
517.360	20758
517.431	9878
517.502	6726
517.573	8037
517.643	6712
517.714	7082
517.785	8705
517.856	8353
517.926	11287
517.997	12234
518.068	13039
518.138	19733
518.209	34243
518.280	143782
518.350	325515
518.421	74900
518.492	23194
518.562	23700
518.633	31438
518.703	54326
518.774	139714
518.845	317612
518.915	202494
518.986	52846
519.056	24878
519.127	18699
519.197	15764
519.268	17612
519.338	11800
519.408	8095
519.479	7853
519.549	5829
519.620	7282
519.690	6290
519.760	5483
519.831	6103
519.901	5372
519.971	6187
520.042	4884
520.112	3239
520.182	5216
520.253	5486
520.323	3798
520.393	4998
520.463	5802
520.534	3260
520.604	7580
520.674	6359
520.744	4416
520.814	6320
520.885	5767
520.955	7299
521.025	12201
521.095	5791
521.165	4759
521.235	3683
521.305	3106
521.375	5085
521.445	4368
521.515	3530
521.585	4749
521.655	4025
521.725	5277
521.795	5922
521.865	2127
521.935	6766
522.005	3416
522.075	3922
522.145	5406
522.215	4027
522.285	4500
522.355	5058
522.424	6108
522.494	5849
522.564	4997
522.634	6702
522.704	10080
522.774	4314
522.843	5205
522.913	5244
522.983	4161
523.053	4970
523.122	5104
523.192	5319
523.262	5859
523.331	5339
523.401	4994
523.471	4125
523.540	4982
523.610	4381
523.680	5712
523.749	6009
523.819	5526
523.888	4638
523.958	4241
524.027	4521
524.097	4359
524.166	4346
524.236	3699
524.305	6517
524.375	3559
524.444	3638
524.514	6767
524.583	5065
524.653	3962
524.722	5552
524.791	2939
524.861	6893
524.930	3935
524.999	5532
525.069	6627
525.138	6285
525.207	5509
525.277	8231
525.346	6187
525.415	8416
525.484	9220
525.554	9267
525.623	13321
525.692	17163
525.761	18190
525.830	22016
525.900	29317
525.969	52711
526.038	98500
526.107	261650
526.176	549322
526.245	300299
526.314	116980
526.383	318747
526.452	327489
526.522	578519
526.591	311928
526.660	54570
526.729	38303
526.797	47766
526.867	84086
526.935	303479
527.004	793656
527.073	298208
527.142	43127
527.211	21553
527.280	16079
527.349	12229
527.418	8426
527.487	9821
527.555	6626
527.624	7185
527.693	5233
527.762	7631
527.831	5330
527.899	6365
527.968	5316
528.037	3965
528.106	5465
528.174	6503
528.243	6230
528.312	5300
528.380	5036
528.449	4106
528.518	6375
528.586	3344
528.655	5798
528.723	4566
528.792	4107
528.861	4104
528.929	3961
528.998	6396
529.066	6365
529.135	7351
529.203	6056
529.272	8961
529.340	10057
529.409	9604
529.477	7333
529.545	7273
529.614	10526
529.682	9505
529.751	9951
529.819	14037
529.887	11939
529.956	10926
530.024	10581
530.092	9608
530.161	10870
530.229	10893
530.297	10065
530.365	12922
530.434	11975
530.502	10981
530.570	10387
530.638	9788
530.707	9464
530.775	10310
530.843	9110
530.911	10438
530.979	9698
531.047	12020
531.115	11536
531.183	10940
531.252	10026
531.320	9467
531.388	9000
531.456	11701
531.524	9350
531.592	12169
531.660	13968
531.728	10818
531.796	9633
531.864	11362
531.932	10878
532.000	10916
532.067	11495
532.135	12895
532.203	13459
532.271	13369
532.339	14432
532.407	15250
532.475	12634
532.542	12856
532.610	13110
532.678	12900
532.746	21704
532.814	23735
532.881	13896
532.949	13461
533.017	12013
533.084	12959
533.152	11325
533.220	12192
533.287	10296
533.355	11808
533.423	12790
533.490	12097
533.558	12569
533.625	12797
533.693	10935
533.761	12734
533.828	11965
533.896	11303
533.963	14101
534.031	14242
534.098	16492
534.166	14444
534.233	13306
534.300	15329
534.368	15324
534.435	14645
534.503	16162
534.570	18095
534.637	18212
534.705	22711
534.772	29067
534.840	74321
534.907	294442
534.974	192743
535.041	24353
535.109	16173
535.176	14658
535.243	14839
535.310	13900
535.378	11902
535.445	13493
535.512	12397
535.579	12335
535.646	11311
535.714	12688
535.781	12733
535.848	12856
535.915	12697
535.982	10691
536.049	11439
536.116	11477
536.183	11127
536.250	10732
536.317	10215
536.384	11573
536.451	12224
536.518	12192
536.585	10247
536.652	12677
536.719	12548
536.786	9429
536.853	10216
536.920	12166
536.987	12697
537.053	10711
537.120	18116
537.187	13831
537.254	11608
537.321	11109
537.388	12035
537.454	10626
537.521	11145
537.588	10412
537.654	12244
537.721	11141
537.788	11916
537.855	10126
537.921	12258
537.988	9851
538.055	11146
538.121	9825
538.188	10726
538.254	9646
538.321	10385
538.388	11386
538.454	11910
538.521	11481
538.587	11306
538.654	10718
538.720	10851
538.787	10925
538.853	11052
538.920	9774
538.986	10372
539.053	8869
539.119	10432
539.185	10064
539.252	10908
539.318	11070
539.385	12889
539.451	9321
539.517	10716
539.583	10989
539.650	12593
539.716	12698
539.782	10672
539.849	9010
539.915	11216
539.981	8656
540.047	9786
540.114	9822
540.180	11376
540.246	9309
540.312	11366
540.378	11423
540.444	11767
540.510	12815
540.576	14110
540.643	9418
540.709	9147
540.775	10250
540.841	10101
540.907	10587
540.973	11736
541.039	10462
541.105	11292
541.171	10334
541.237	10955
541.303	10459
541.369	12700
541.435	11200
541.500	11112
541.566	8348
541.632	9818
541.698	10053
541.764	11204
541.830	10195
541.896	9730
541.961	10295
542.027	9665
542.093	10597
542.159	11146
542.224	9418
542.290	11319
542.356	10556
542.421	11592
542.487	10519
542.553	9665
542.618	9320
542.684	10163
542.750	9805
542.815	11316
542.881	9707
542.947	14955
543.012	11626
543.078	9264
543.143	8225
543.209	10060
543.274	9069
543.340	11137
543.405	11397
543.471	10684
543.536	10403
543.602	10169
543.667	9439
543.732	12134
543.798	10120
543.863	10746
543.928	9408
543.994	10253
544.059	10638
544.124	10868
544.190	10160
544.255	11700
544.320	10988
544.386	10348
544.451	12226
544.516	11245
544.581	10472
544.646	13278
544.712	13715
544.777	12250
544.842	10863
544.907	11257
544.972	11260
545.037	13226
545.102	12351
545.168	13423
545.233	12153
545.298	12865
545.363	12232
545.428	13821
545.493	15710
545.558	14314
545.623	13055
545.688	12842
545.753	12886
545.818	14608
545.883	14918
545.947	14573
546.012	16072
546.077	15678
546.142	17446
546.207	16768
546.272	18207
546.337	18372
546.401	21012
546.466	21223
546.531	19814
546.596	23187
546.661	23259
546.725	24576
546.790	25527
546.855	27872
546.919	30923
546.984	34592
547.049	36516
547.113	42886
547.178	46456
547.243	54695
547.307	62950
547.372	66989
547.436	66102
547.501	71648
547.565	74381
547.630	66866
547.695	65063
547.759	66034
547.823	66440
547.888	68998
547.952	70494
548.017	74597
548.081	75268
548.146	73640
548.210	77602
548.274	82563
548.339	77763
548.403	71237
548.468	66260
548.532	68625
548.596	68658
548.660	70301
548.725	78894
548.789	82545
548.853	78607
548.917	76358
548.982	69858
549.046	65146
549.110	59187
549.174	66179
549.238	75172
549.303	80713
549.367	82084
549.431	76675
549.495	72148
549.559	75202
549.623	89153
549.687	90603
549.751	93555
549.815	111301
549.879	107639
549.943	105558
550.007	109785
550.071	105733
550.135	94845
550.199	93099
550.263	88688
550.327	87638
550.391	92115
550.455	101315
550.519	104595
550.582	115465
550.646	127298
550.710	125356
550.774	125121
550.838	126835
550.901	131451
550.965	140860
551.029	146972
551.093	159687
551.156	177773
551.220	210756
551.284	216164
551.347	157305
551.411	135050
551.475	133504
551.538	132797
551.602	122048
551.666	116659
551.729	108357
551.793	107020
551.856	104299
551.920	103489
551.983	105110
552.047	103311
552.110	105311
552.174	107450
552.237	106227
552.301	97935
552.364	94569
552.428	92927
552.491	96750
552.554	96607
552.618	96698
552.681	97527
552.745	94552
552.808	102486
552.871	105692
552.934	100978
552.998	98320
553.061	95255
553.124	91644
553.187	92366
553.251	94958
553.314	95346
553.377	99012
553.440	108996
553.503	135518
553.567	126446
553.630	103238
553.693	100942
553.756	100997
553.819	95886
553.882	95653
553.945	95848
554.008	95731
554.071	95965
554.134	95809
554.197	89366
554.260	89793
554.323	92210
554.386	92812
554.449	96287
554.512	95846
554.575	90662
554.638	91277
554.701	91320
554.764	88122
554.827	86052
554.889	82480
554.952	77880
555.015	78380
555.078	79920
555.141	79665
555.203	77012
555.266	78395
555.329	76045
555.391	74325
555.454	71400
555.517	70803
555.580	68797
555.642	64850
555.705	64815
555.768	64318
555.830	62864
555.893	60132
555.955	58162
556.018	57682
556.080	57616
556.143	59356
556.206	56591
556.268	57130
556.330	55308
556.393	55226
556.455	53032
556.518	51935
556.580	50202
556.643	48519
556.705	47576
556.767	45643
556.830	46729
556.892	46254
556.955	44024
557.017	44264
557.079	43378
557.142	42821
557.204	42026
557.266	43315
557.328	38330
557.391	37362
557.453	37214
557.515	37308
557.577	38419
557.639	38522
557.701	39030
557.764	37713
557.826	39500
557.888	41293
557.950	44186
558.012	50427
558.074	77905
558.136	208279
558.198	300172
558.260	74298
558.322	45655
558.384	45215
558.446	48544
558.508	54189
558.570	59594
558.632	72163
558.694	102283
558.756	205820
558.818	616345
558.880	813442
558.942	309157
559.003	341266
559.065	108130
559.127	60632
559.189	59382
559.251	72981
559.312	124451
559.374	352473
559.436	689858
559.498	207121
559.559	65225
559.621	60639
559.683	80708
559.744	156817
559.806	479516
559.868	392442
559.929	79247
559.991	75203
560.052	163444
560.114	341602
560.176	150632
560.237	249535
560.299	228553
560.360	40075
560.422	24044
560.483	21065
560.545	18892
560.606	18863
560.667	17705
560.729	17069
560.790	15699
560.852	15348
560.913	15828
560.974	14517
561.036	15093
561.097	15814
561.158	14277
561.220	14114
561.281	12754
561.342	14119
561.403	13542
561.465	13925
561.526	14275
561.587	14295
561.648	12707
561.709	11969
561.771	12159
561.832	11368
561.893	11293
561.954	11927
562.015	11312
562.076	11279
562.137	10812
562.198	11131
562.259	11739
562.320	12262
562.381	10949
562.442	11858
562.503	10612
562.564	10793
562.625	9878
562.686	10526
562.747	9406
562.808	10545
562.869	10502
562.930	10849
562.991	10138
563.051	10042
563.112	9146
563.173	9985
563.234	9048
563.294	9964
563.355	9832
563.416	9318
563.477	8823
563.537	10533
563.598	9634
563.659	10008
563.720	8412
563.780	9021
563.841	9524
563.901	9510
563.962	9070
564.023	9616
564.083	8367
564.144	8763
564.204	6730
564.265	8263
564.325	8337
564.386	9318
564.446	8157
564.507	8473
564.567	7562
564.628	8760
564.688	7579
564.749	7870
564.809	7809
564.869	9079
564.930	7600
564.990	8513
565.050	7493
565.111	8507
565.171	7156
565.231	8342
565.292	8899
565.352	6922
565.412	7995
565.472	8385
565.532	7448
565.593	7874
565.653	7400
565.713	7838
565.773	8076
565.833	7878
565.893	8972
565.953	7381
566.013	6976
566.074	7818
566.134	8403
566.194	7554
566.254	8052
566.314	7744
566.374	7188
566.434	8549
566.494	7871
566.554	7803
566.614	7428
566.673	8338
566.733	8085
566.793	7820
566.853	8068
566.913	8763
566.973	7727
567.033	8098
567.092	7552
567.152	8626
567.212	8210
567.272	8435
567.331	9400
567.391	9590
567.451	8872
567.511	9232
567.570	8876
567.630	8413
567.690	7964
567.749	8789
567.809	8457
567.868	8701
567.928	8165
567.988	8675
568.047	8910
568.107	8442
568.166	9326
568.226	10800
568.285	10963
568.345	10278
568.404	10077
568.464	9991
568.523	9326
568.582	9395
568.642	9962
568.701	10300
568.761	11811
568.820	14174
568.879	11810
568.939	11725
568.998	9306
569.057	9737
569.116	9060
569.176	9071
569.235	8052
569.294	7346
569.353	7661
569.413	9525
569.472	7275
569.531	7104
569.590	7967
569.649	7472
569.708	7049
569.767	7928
569.827	8218
569.886	7654
569.945	7437
570.004	8156
570.063	7468
570.122	7926
570.181	7406
570.240	8938
570.299	7820
570.358	7799
570.417	7937
570.475	8437
570.534	9409
570.593	8226
570.652	8212
570.711	8113
570.770	8447
570.829	7839
570.887	8584
570.946	9383
571.005	7229
571.064	9137
571.122	9002
571.181	7697
571.240	8009
571.299	8396
571.357	8030
571.416	8535
571.475	8554
571.533	9036
571.592	9398
571.650	8717
571.709	10059
571.768	10831
571.826	10780
571.885	9509
571.943	8701
572.002	8362
572.060	7999
572.119	9089
572.177	8145
572.236	8240
572.294	8024
572.352	10083
572.411	8543
572.469	8646
572.528	7720
572.586	7510
572.644	7337
572.703	9054
572.761	7334
572.819	7434
572.877	7389
572.936	7297
572.994	6953
573.052	7275
573.110	6177
573.169	8030
573.227	7824
573.285	8326
573.343	6958
573.401	8020
573.459	7725
573.517	7991
573.576	8867
573.634	9092
573.692	7689
573.750	8028
573.808	7295
573.866	7519
573.924	7509
573.982	8384
574.040	8184
574.098	8329
574.155	7869
574.213	8259
574.271	7649
574.329	9854
574.387	7492
574.445	7487
574.503	7189
574.560	7437
574.618	6550
574.676	6860
574.734	7471
574.792	7835
574.849	6093
574.907	5939
574.965	6360
575.022	5763
575.080	5225
575.138	5876
575.195	5049
575.253	5613
575.311	6095
575.368	5616
575.426	6043
575.483	7045
575.541	6290
575.598	5843
575.656	5909
575.713	6688
575.771	6147
575.828	6363
575.886	5311
575.943	6925
576.001	5154
576.058	4931
576.115	6129
576.173	6008
576.230	6301
576.287	6742
576.345	7022
576.402	6750
576.459	5930
576.517	6000
576.574	5659
576.631	6135
576.688	5020
576.746	5632
576.803	5268
576.860	4960
576.917	5680
576.974	5500
577.031	5318
577.089	5864
577.146	4925
577.203	5190
577.260	5157
577.317	6272
577.374	5828
577.431	5018
577.488	5272
577.545	4285
577.602	5474
577.659	6473
577.716	5676
577.773	6606
577.830	4239
577.886	6291
577.943	4752
578.000	5009
578.057	4795
578.114	5722
578.171	5594
578.227	6468
578.284	4894
578.341	6278
578.398	4745
578.454	6134
578.511	4961
578.568	6931
578.625	5098
578.681	5045
578.738	5546
578.794	6489
578.851	5378
578.908	5041
578.964	4601
579.021	5592
579.077	5682
579.134	5405
579.190	5376
579.247	6276
579.303	4804
579.360	5264
579.416	4293
579.473	5953
579.529	5398
579.586	5516
579.642	5191
579.698	5694
579.755	5975
579.811	5910
579.867	6554
579.924	6136
579.980	4879
580.036	7597
580.093	6545
580.149	8625
580.205	7514
580.261	7294
580.317	6071
580.374	6806
580.430	7436
580.486	7458
580.542	6401
580.598	6070
580.619	6273
580.654	6631
580.692	6911
580.710	7067
580.765	6312
580.767	6294
580.823	6730
580.838	6827
580.879	7115
580.911	6982
580.935	6903
580.984	6652
580.991	6629
581.047	7634
581.057	7528
581.103	7078
581.130	7159
581.159	7253
581.203	6871
581.215	6781
581.270	6829
581.276	6845
581.326	7054
581.349	7129
581.382	7217
581.422	6651
581.438	6450
581.494	6661
581.494	6652
581.550	6151
581.567	6503
581.606	7301
581.640	6671
581.661	6247
581.713	7875
581.717	8014
581.773	7116
581.786	7012
581.829	6688
581.859	6712
581.885	6767
581.932	7219
581.940	7294
581.996	6636
582.004	6663
582.052	6844
582.077	6626
582.107	6357
582.150	6703
582.163	6826
582.219	6870
582.223	6916
582.274	7544
582.296	7002
582.330	6115
582.368	7407
582.386	8031
582.441	7467
582.441	7467
582.497	7370
582.514	7113
582.552	6827
582.587	7680
582.608	8139
582.659	7123
582.663	7036
582.719	8001
582.732	7938
582.774	7857
582.805	7966
582.830	8072
582.877	7853
582.885	7815
582.941	8308
582.950	8387
582.996	8707
583.023	9272
583.052	10080
583.095	10474
583.107	10483
583.162	9121
583.168	9022
583.218	8301
583.240	8469
583.273	8675
583.313	8183
583.328	8011
583.384	8366
583.385	8360
583.439	7939
583.458	8028
583.494	8343
583.531	7644
583.549	7380
583.603	7925
583.605	7929
583.660	7061
583.676	7255
583.715	7922
583.748	7788
583.770	7698
583.820	7575
583.825	7539
583.881	6888
583.893	7048
583.936	7817
583.965	7517
583.991	7126
584.038	7908
584.046	8079
584.101	7274
584.110	7392
584.156	7685
584.183	7506
584.211	7518
584.255	8040
584.266	8201
584.321	8597
584.328	8601
584.376	8380
584.400	8300
584.431	8124
584.472	8158
584.486	8143
584.541	9159
584.545	9142
584.596	9158
584.617	9099
584.651	8873
584.689	9443
584.706	9753
584.761	10268
584.762	10275
584.816	10341
584.834	10572
584.871	11176
584.906	11678
584.926	11862
584.978	12100
584.980	12117
585.035	13290
585.051	13680
585.090	14688
585.123	15676
585.145	16293
585.195	17154
585.200	17302
585.254	20954
585.267	21849
585.309	24566
585.340	27349
585.364	29688
585.412	33250
585.419	33806
585.473	44395
585.484	47648
585.528	64099
585.556	83943
585.583	112692
585.628	187971
585.637	211032
585.692	431816
585.700	450915
585.747	503543
585.772	410046
585.801	237005
585.845	90624
585.856	72337
585.910	36116
585.917	32799
585.965	24455
585.989	21742
586.019	19569
586.061	17459
586.074	16905
586.128	15670
586.133	15491
586.183	14083
586.205	14157
586.237	14101
586.277	13317
586.292	13066
586.346	13149
586.349	13132
586.401	13175
586.421	13343
586.455	13040
586.493	12557
586.509	12611
586.564	12881
586.565	12914
586.618	14433
586.637	15090
586.672	16605
586.709	18967
586.727	20131
586.781	21159
586.781	21139
586.835	14948
586.853	14076
586.889	13433
586.925	12026
586.944	11296
586.996	11260
586.998	11281
587.052	10976
587.068	11406
587.106	12247
587.140	12146
587.161	11824
587.212	11622
587.215	11618
587.269	10840
587.284	11036
587.323	11550
587.356	11486
587.377	11696
587.427	12582
587.431	12597
587.485	12365
587.499	12467
587.539	12943
587.571	12976
587.593	13032
587.643	14443
587.648	14550
587.702	13900
587.715	14218
587.755	14858
587.786	14561
587.810	14522
587.858	14735
587.864	14766
587.917	15413
587.930	15672
587.971	16153
588.001	16071
588.025	16236
588.073	16991
588.079	17042
588.133	17412
588.145	17663
588.187	18744
588.217	19165
588.241	19708
588.288	21015
588.295	21216
588.348	23851
588.360	24350
588.402	26124
588.431	27323
588.456	28178
588.503	30750
588.510	31213
588.564	35071
588.575	36083
588.617	40066
588.646	43248
588.671	46809
588.718	56668
588.725	59075
588.778	83563
588.789	90726
588.832	147450
588.861	194528
588.886	277812
588.932	455322
588.939	471102
588.993	534195
589.004	529910
589.047	293899
589.075	159266
589.100	118359
589.147	62882
589.154	60661
589.207	49168
589.218	47348
589.261	47218
589.290	48090
589.314	50254
589.361	57759
589.368	60834
589.421	92734
589.433	101573
589.475	183491
589.504	251406
589.528	332190
589.576	470717
589.582	454717
589.635	234768
589.647	193505
589.689	100776
589.718	46134
589.742	39300
589.790	27645
589.795	27067
589.849	22808
589.861	22092
589.902	21077
589.932	20056
589.955	19000
590.004	17255
590.009	17167
590.062	16693
590.075	16562
590.115	16235
590.146	15849
590.168	15564
590.218	15358
590.222	15300
590.275	14703
590.289	14618
590.328	15139
590.360	15260
590.381	15204
590.431	15742
590.435	15782
590.488	16057
590.503	16276
590.541	15848
590.574	15469
590.594	15695
590.645	16489
590.647	16495
590.700	16673
590.716	16833
590.753	16618
590.787	16419
590.806	16460
590.859	16737
590.859	16724
590.912	17108
590.930	17319
590.965	17263
591.001	17277
591.018	17234
591.071	16865
591.072	16881
591.124	16783
591.143	16839
591.177	16617
591.214	16360
591.230	16701
591.283	18184
591.285	18236
591.336	17391
591.356	17309
591.389	17451
591.427	17428
591.442	17262
591.495	16744
591.498	16720
591.547	16608
591.569	16676
591.600	17120
591.640	17572
591.653	17559
591.706	17690
591.711	17715
591.759	17438
591.782	17380
591.811	17884
591.853	18628
591.864	18664
591.917	18949
591.924	18994
591.969	18958
591.995	19052
592.022	18994
592.066	18914
592.075	19077
592.127	20302
592.137	20531
592.180	20058
592.208	19815
592.233	19876
592.279	20082
592.285	20066
592.338	20197
592.350	20247
592.390	20597
592.421	20929
592.443	20935
592.491	21070
592.495	21052
592.548	21245
592.562	21330
592.600	21271
592.633	21291
592.653	21367
592.704	21528
592.705	21646
592.775	21452
592.846	22164
592.916	22492
592.987	22078
593.058	22799
593.128	22997
593.199	22935
593.270	23617
593.341	23173
593.411	24655
593.482	24621
593.553	26385
593.623	25490
593.694	26844
593.764	27294
593.835	27231
593.906	27893
593.976	28018
594.047	29090
594.117	30209
594.188	31075
594.258	31224
594.329	31320
594.399	31673
594.470	32731
594.540	34216
594.611	34092
594.681	34399
594.751	33776
594.822	36562
594.892	36427
594.963	38214
595.033	38725
595.103	40116
595.174	40070
595.244	42229
595.314	43788
595.384	44017
595.455	44800
595.525	46752
595.595	47854
595.665	49514
595.736	47106
595.806	48672
595.876	48832
595.946	48928
596.016	51214
596.087	52838
596.157	52732
596.227	52912
596.297	56163
596.367	60438
596.437	63493
596.507	63388
596.577	62790
596.647	64993
596.717	67467
596.787	70236
596.857	69745
596.927	70097
596.997	69954
597.067	71814
597.137	71970
597.207	73048
597.277	72319
597.347	69986
597.417	68017
597.487	69388
597.557	70093
597.626	71894
597.696	73149
597.766	72250
597.836	67868
597.906	64020
597.975	63356
598.045	64625
598.115	68831
598.185	72510
598.254	81750
598.324	87894
598.394	89169
598.464	86964
598.533	85139
598.603	79729
598.672	77028
598.742	78750
598.812	79132
598.881	82620
598.951	82808
599.020	84133
599.090	86118
599.159	87517
599.229	84484
599.299	83185
599.368	85885
599.437	85441
599.507	78447
599.576	75131
599.646	75812
599.715	74010
599.785	73778
599.854	72151
599.924	70058
599.993	71460
600.062	72198
600.132	75658
600.201	79347
600.270	91383
600.340	96304
600.409	93796
600.478	93319
600.547	96197
600.617	86699
600.686	73047
600.755	64604
600.824	64409
600.894	63383
600.963	62947
601.032	62991
601.101	61436
601.170	59448
601.239	57321
601.308	57990
601.378	59351
601.447	58169
601.516	59266
601.585	60300
601.654	62034
601.723	61752
601.792	63983
601.861	65771
601.930	69307
601.999	70733
602.068	70161
602.137	69338
602.206	70870
602.275	72302
602.343	72508
602.412	73859
602.481	73525
602.550	74379
602.619	76251
602.688	77488
602.756	79716
602.825	78779
602.894	80653
602.963	80635
603.032	82756
603.100	82486
603.169	81839
603.238	83665
603.307	82907
603.375	83512
603.444	87137
603.513	84831
603.581	87016
603.650	89154
603.719	84067
603.787	84004
603.856	86346
603.924	89058
603.993	92505
604.061	95008
604.130	99336
604.198	101502
604.267	103211
604.335	104525
604.404	106167
604.472	106856
604.541	109089
604.609	108640
604.678	112146
604.746	111990
604.815	116551
604.883	114462
604.951	115602
605.020	117301
605.088	117884
605.156	118248
605.225	119534
605.293	119561
605.361	119806
605.429	119684
605.498	122931
605.566	123867
605.634	131632
605.702	134132
605.771	137073
605.839	137852
605.907	135393
605.975	131862
606.043	127684
606.111	126058
606.180	129450
606.248	125086
606.316	124543
606.384	124131
606.452	122314
606.520	120113
606.588	127202
606.656	126403
606.724	124525
606.792	116774
606.860	104852
606.928	96481
606.996	93192
607.064	90614
607.132	93684
607.200	98056
607.267	103820
607.335	104247
607.403	106901
607.471	101836
607.539	99488
607.607	100542
607.674	90488
607.742	89861
607.810	89019
607.878	88742
607.946	90450
608.013	95401
608.081	96925
608.149	97682
608.216	99766
608.284	104669
608.352	104629
608.419	100429
608.487	102172
608.555	98063
608.622	102155
608.690	107707
608.757	117968
608.825	121152
608.893	117457
608.960	111753
609.028	106805
609.095	106834
609.163	106344
609.230	93688
609.298	86709
609.365	90903
609.432	99051
609.500	107435
609.567	122703
609.635	139269
609.702	146245
609.769	140297
609.837	109495
609.904	95792
609.971	100047
610.039	114629
610.106	152428
610.173	287608
610.241	635265
610.308	371728
610.375	137850
610.442	107242
610.509	99021
610.577	99508
610.644	101903
610.711	104072
610.778	107233
610.845	110570
610.912	117971
610.980	122431
611.047	124378
611.114	122199
611.181	114518
611.248	114959
611.315	121082
611.382	124894
611.449	130662
611.516	133951
611.583	129344
611.650	130742
611.717	132830
611.784	135827
611.851	143186
611.918	155502
611.984	181691
612.051	255177
612.118	484927
612.185	1038748
612.252	705296
612.319	230188
612.386	180865
612.452	160345
612.519	150880
612.586	147555
612.653	149835
612.719	153958
612.786	148095
612.853	135645
612.919	133837
612.986	135816
613.053	128148
613.120	119165
613.186	115201
613.253	116196
613.319	117156
613.386	117873
613.453	119248
613.519	119732
613.586	117191
613.652	119292
613.719	116942
613.785	118764
613.852	120513
613.918	120341
613.985	123766
614.051	129919
614.118	134720
614.184	129693
614.250	119988
614.317	122029
614.383	122233
614.449	122568
614.516	121691
614.582	121675
614.648	121681
614.715	120797
614.781	117813
614.847	116357
614.914	115796
614.980	112609
615.046	113096
615.112	116041
615.179	117204
615.245	118842
615.311	116985
615.377	117638
615.443	121578
615.509	121617
615.575	128367
615.642	125492
615.708	129217
615.774	136136
615.840	146372
615.906	159467
615.972	194214
616.038	291731
616.104	582527
616.170	1163915
616.236	983930
616.302	335367
616.368	251381
616.434	177227
616.500	161911
616.565	180276
616.631	234599
616.697	187955
616.763	189180
616.829	293981
616.895	528728
616.961	495319
617.026	211439
617.092	140065
617.158	127612
617.224	122468
617.289	112810
617.355	107217
617.421	104654
617.487	106100
617.552	99722
617.618	98262
617.684	98323
617.749	100399
617.815	94800
617.880	93544
617.946	92722
618.012	94948
618.077	96014
618.143	93129
618.208	93286
618.274	99091
618.339	99947
618.405	83806
618.470	83670
618.536	81966
618.601	81063
618.667	75926
618.732	71703
618.798	70232
618.863	70700
618.928	70039
618.994	70875
619.059	70015
619.124	72233
619.190	70790
619.255	68502
619.320	69750
619.386	70597
619.451	67735
619.516	67444
619.581	69110
619.647	69678
619.712	70844
619.777	66336
619.842	66937
619.907	69063
619.972	68984
620.038	69595
620.103	67305
620.168	67349
620.233	68772
620.298	69034
620.363	69959
620.428	72691
620.493	73576
620.558	74688
620.623	75604
620.688	75473
620.753	74782
620.818	75993
620.883	75842
620.948	74752
621.013	75782
621.078	73771
621.143	73265
621.207	77238
621.272	74606
621.337	71691
621.402	72011
621.467	71232
621.532	70969
621.596	71827
621.661	69496
621.726	68329
621.791	68731
621.855	70383
621.920	66741
621.985	69863
622.049	70960
622.114	70467
622.179	72819
622.243	73919
622.308	76444
622.373	80416
622.437	77446
622.502	72863
622.566	72664
622.631	70886
622.695	74194
622.760	73438
622.824	73436
622.889	73542
622.953	72963
623.018	78344
623.082	77427
623.147	78092
623.211	75173
623.276	76115
623.340	71627
623.404	71256
623.469	69350
623.533	72164
623.597	67857
623.662	69483
623.726	63906
623.790	59843
623.854	58096
623.919	61343
623.983	59949
624.047	62668
624.111	61222
624.176	64106
624.240	62013
624.304	66812
624.368	62018
624.432	63794
624.496	63982
624.560	68695
624.625	68936
624.689	69160
624.753	71692
624.817	68201
624.881	65352
624.945	59929
625.009	57334
625.073	58799
625.137	59363
625.201	62938
625.265	64078
625.329	60391
625.393	62407
625.456	62386
625.520	64270
625.584	63921
625.648	65686
625.712	68308
625.776	69885
625.839	66087
625.903	54039
625.967	50495
626.031	56423
626.095	65626
626.158	59394
626.222	47263
626.286	44019
626.349	42081
626.413	37836
626.477	40721
626.540	39961
626.604	40050
626.668	39424
626.731	37766
626.795	38762
626.858	37570
626.922	37136
626.986	37520
627.049	36653
627.113	39114
627.176	38041
627.240	36241
627.303	36816
627.366	35558
627.430	36947
627.493	37233
627.557	34330
627.620	38220
627.684	37706
627.747	39319
627.810	34332
627.874	32566
627.937	29895
628.000	33020
628.064	31224
628.127	26991
628.190	27815
628.253	27284
628.317	24799
628.380	24312
628.443	23162
628.506	23572
628.569	22016
628.632	21330
628.696	20881
628.759	20661
628.822	19587
628.885	19969
628.948	19305
629.011	20163
629.074	17944
629.137	18299
629.200	16977
629.263	18766
629.326	17083
629.389	16704
629.452	17111
629.515	17598
629.578	16326
629.641	17886
629.704	16609
629.767	17229
629.830	17641
629.892	16221
629.955	15579
630.018	17686
630.081	15704
630.144	16279
630.207	14542
630.269	17370
630.332	15231
630.395	16640
630.458	15050
630.520	12908
630.583	15395
630.646	15272
630.708	14035
630.771	15139
630.834	16984
630.896	15707
630.959	16403
631.021	15355
631.084	15494
631.146	16489
631.209	15990
631.272	16250
631.334	15929
631.397	15853
631.459	15770
631.522	18386
631.584	18055
631.646	20660
631.709	22279
631.771	22972
631.834	20873
631.896	20327
631.958	17708
632.021	18192
632.083	13858
632.145	15508
632.208	14101
632.270	16936
632.332	15213
632.395	15401
632.457	15336
632.519	14176
632.581	15488
632.643	14262
632.706	15797
632.768	12771
632.830	15039
632.892	15025
632.954	13835
633.016	16306
633.078	13970
633.141	15677
633.203	13912
633.265	15004
633.327	14667
633.389	14355
633.451	15410
633.513	14776
633.575	14926
633.637	15222
633.698	14832
633.760	17500
633.822	17701
633.884	18679
633.946	18388
634.008	20436
634.070	21378
634.132	23291
634.193	25468
634.255	28964
634.317	28889
634.379	30017
634.441	23344
634.502	21194
634.564	20697
634.626	16986
634.687	17395
634.749	15045
634.811	15403
634.873	13873
634.934	14308
634.996	16110
635.057	14035
635.119	14726
635.181	16030
635.242	17239
635.304	14445
635.365	18319
635.427	15096
635.488	16421
635.550	15163
635.611	17144
635.673	15627
635.734	19321
635.796	18831
635.857	21965
635.918	22461
635.980	28768
636.041	28658
636.102	32720
636.164	32890
636.225	30948
636.286	24212
636.348	21957
636.409	19707
636.470	16814
636.531	16377
636.593	14984
636.654	15352
636.715	14109
636.776	13922
636.838	13076
636.899	13217
636.960	12512
637.021	12215
637.082	12400
637.143	12136
637.204	11726
637.265	11069
637.326	12277
637.387	13046
637.448	12339
637.509	12811
637.570	11524
637.631	12625
637.692	11139
637.753	10084
637.814	11630
637.875	11021
637.936	11079
637.997	10699
638.058	10192
638.119	11301
638.179	10904
638.240	10265
638.301	10994
638.362	9530
638.423	10411
638.483	10449
638.544	8313
638.605	9480
638.666	10365
638.726	10197
638.787	10732
638.848	10321
638.908	10638
638.969	9709
639.030	8586
639.090	7939
639.151	9243
639.211	9963
639.272	10049
639.332	9648
639.393	11035
639.453	11103
639.514	12267
639.574	10126
639.635	9175
639.695	9391
639.756	7462
639.816	8896
639.877	8735
639.937	9932
639.997	10144
640.058	7795
640.118	8884
640.178	10167
640.239	8241
640.299	8842
640.359	9559
640.420	10086
640.480	12646
640.540	14304
640.600	14488
640.661	12106
640.721	10826
640.781	12703
640.841	10373
640.901	10176
640.961	9892
641.021	10517
641.082	10884
641.142	8902
641.202	10026
641.262	7219
641.322	9232
641.382	6993
641.442	9016
641.502	7620
641.562	8622
641.622	8539
641.682	10970
641.742	11526
641.802	10852
641.861	9382
641.921	7790
641.981	8743
642.041	8272
642.101	7434
642.161	6317
642.221	7435
642.280	7577
642.340	7257
642.400	6986
642.460	8219
642.519	8211
642.579	8384
642.639	9530
642.698	5806
642.758	10819
642.818	7513
642.877	7331
642.937	7568
642.997	8504
643.056	8721
643.116	7485
643.175	9669
643.235	8954
643.294	9838
643.354	10792
643.414	11655
643.473	14644
643.532	18624
643.592	26819
643.651	42735
643.711	77047
643.770	150351
643.830	353242
643.889	689137
643.948	193383
644.008	39596
644.067	22775
644.126	15060
644.186	13483
644.245	11458
644.304	9461
644.363	11259
644.423	8901
644.482	9714
644.541	10637
644.600	9060
644.659	15337
644.719	18886
644.778	30176
644.837	54419
644.896	114308
644.955	261404
645.014	86821
645.073	18371
645.132	12309
645.191	11211
645.250	11018
645.309	12033
645.368	13590
645.427	18488
645.486	33185
645.545	62078
645.604	16553
645.663	9207
645.722	9813
645.781	11556
645.840	13468
645.898	16652
645.957	26259
646.016	39986
646.075	73434
646.134	142281
646.192	369648
646.251	526773
646.310	95176
646.369	26888
646.427	21123
646.486	13841
646.545	11423
646.603	9667
646.662	9161
646.721	8837
646.779	8756
646.838	8483
646.896	12931
646.955	17759
647.014	31365
647.072	61878
647.131	174279
647.189	83454
647.248	11517
647.306	8563
647.365	7962
647.423	4699
647.481	7790
647.540	4130
647.598	6073
647.657	4845
647.715	6414
647.773	4302
647.832	6073
647.890	3609
647.948	5124
648.007	5595
648.065	3601
648.123	5207
648.181	6130
648.240	4736
648.298	4314
648.356	3346
648.414	5374
648.472	3658
648.531	4995
648.589	4173
648.647	4594
648.705	4405
648.763	4719
648.821	4981
648.879	5166
648.937	6022
648.995	8370
649.053	11892
649.111	19376
649.169	33490
649.227	60548
649.285	129695
649.343	361906
649.401	176616
649.459	24163
649.516	12262
649.574	9597
649.632	13615
649.690	17094
649.748	14519
649.806	22127
649.863	44636
649.921	126352
649.979	83781
650.037	10526
650.094	4712
650.152	5295
650.210	3014
650.268	4271
650.325	4047
650.383	4444
650.440	2621
650.498	3370
650.556	2940
650.613	2034
650.671	3953
650.728	3832
650.786	3091
650.843	6385
650.901	3305
650.958	3486
651.016	3327
651.073	2502
651.131	1643
651.188	1631
651.246	2025
651.303	1340
651.360	2687
651.418	1958
651.475	2529
651.532	1585
651.590	2985
651.647	1668
651.704	1917
651.762	2311
651.819	2345
651.876	2177
651.933	2148
651.990	2376
652.048	524
652.105	1134
652.162	2518
652.219	1629
652.276	2051
652.333	1953
652.390	970
652.448	1790
652.505	1824
652.562	1471
652.619	2151
652.676	2699
652.733	2322
652.790	1658
652.847	912
652.904	2681
652.961	1453
653.017	1194
653.074	1772
653.131	2014
653.188	158
653.245	2531
653.302	1722
653.359	1376
653.415	1697
653.472	1779
653.529	1596
653.586	555
653.642	956
653.699	1665
653.756	1276
653.813	1511
653.869	2352
653.926	225
653.983	702
654.039	2485
654.096	1760
654.152	3005
654.209	424
654.266	1424
654.322	1072
654.379	1799
654.435	1979
654.492	1521
654.548	1333
654.605	1050
654.661	2493
654.717	1137
654.774	2473
654.830	1666
654.887	882
654.943	1715
655.000	2668
655.056	1929
655.112	1242
655.168	1343
655.225	714
655.281	2003
655.337	822
655.394	1145
655.450	1030
655.506	2342
655.562	1154
655.618	2215
655.675	1002
655.731	1623
655.787	1141
655.843	1483
655.899	761
655.955	2062
656.011	1674
656.067	1435
656.123	2748
656.179	2798
656.235	4049
656.291	2105
656.347	2860
656.403	1883
656.459	1080
656.515	1295
656.571	1868
656.627	1401
656.683	1146
656.739	2016
656.795	2020
656.850	1181
656.906	2291
656.962	1985
657.018	1351
657.074	2125
657.129	3179
657.185	6081
657.241	16066
657.297	8288
657.352	2191
657.408	1340
657.464	1679
657.519	1249
657.575	409
657.630	476
657.686	406
657.742	257
657.797	762
657.853	223
657.908	1404
657.964	684
658.019	932
658.075	1315
658.130	1026
658.186	-507
658.241	1071
658.297	70
658.352	1107
658.407	856
658.463	118
658.518	1467
658.573	365
658.629	236
658.684	86
658.739	718
658.795	318
658.850	709
658.905	348
658.960	1422
659.016	-205
659.071	1515
659.126	198
659.181	184
659.236	1612
659.291	1551
659.346	793
659.401	1343
659.457	1515
659.512	884
659.567	1785
659.622	1233
659.677	179
659.732	362
659.787	532
659.842	876
659.897	312
659.952	1027
660.007	27
660.061	867
660.116	-209
660.171	-60
660.226	535
660.281	1875
660.336	593
660.391	1913
660.445	-574
660.500	983
660.555	708
660.610	739
660.664	645
660.719	347
660.774	487
660.828	754
660.883	1154
660.938	455
660.992	-972
661.047	885
661.101	-197
661.156	-303
661.211	-540
661.265	129
661.320	547
661.374	709
661.429	737
661.483	302
661.538	-400
661.592	76
661.647	8
661.701	654
661.755	476
661.810	1399
661.864	-61
661.919	125
661.973	1151
662.027	403
662.081	-526
662.136	-242
662.190	231
662.244	715
662.299	-19
662.353	171
662.407	-696
662.461	-612
662.515	301
662.569	211
662.624	665
662.678	439
662.732	-40
662.786	-159
662.840	787
662.894	1054
662.948	-303
663.002	191
663.056	-32
663.110	-337
663.164	111
663.218	404
663.272	-24
663.326	769
663.380	225
663.434	265
663.488	-226
663.542	1068
663.595	462
663.649	407
663.703	257
663.757	497
663.811	458
663.864	336
663.918	170
663.972	-30
664.026	225
664.079	392
664.133	841
664.187	624
664.240	615
664.294	530
664.348	537
664.401	724
664.455	92
664.508	518
664.562	700
664.615	721
664.669	450
664.722	629
664.776	226
664.829	315
664.883	290
664.936	769
664.990	434
665.043	697
665.097	28
665.150	1472
665.203	-144
665.257	900
665.310	184
665.363	41
665.417	976
665.470	635
665.523	762
665.576	845
665.630	-93
665.683	-59
665.736	1093
665.789	265
665.842	189
665.895	615
665.949	276
666.002	851
666.055	-90
666.108	317
666.161	778
666.214	1169
666.267	990
666.320	1104
666.373	994
666.426	380
666.479	-231
666.532	819
666.585	413
666.638	743
666.691	388
666.744	71
666.796	-291
666.849	203
666.902	1165
666.955	272
667.008	-181
667.060	-88
667.113	-26
667.166	384
667.219	554
667.271	1021
667.324	816
667.377	929
667.430	30
667.482	566
667.535	616
667.587	1048
667.640	132
667.693	1089
667.745	340
667.798	1358
667.850	314
667.903	348
667.955	257
668.008	517
668.060	77
668.113	721
668.165	313
668.218	521
668.270	361
668.322	755
668.375	27
668.427	1581
668.479	417
668.532	1067
668.584	364
668.636	1040
668.689	636
668.741	-22
668.793	1119
668.845	725
668.898	-47
668.950	872
669.002	576
669.054	458
669.106	168
669.158	489
669.211	822
669.263	426
669.315	645
669.367	570
669.419	-121
669.471	840
669.523	-341
669.575	908
669.627	17
669.679	580
669.731	472
669.783	445
669.835	952
669.886	698
669.938	596
669.990	847
670.042	536
670.094	977
670.146	296
670.197	1339
670.249	323
670.301	1091
670.353	1489
670.404	3954
670.456	4389
670.508	8572
670.560	14304
670.611	25783
670.663	44434
670.715	111025
670.766	182126
670.818	53795
670.869	8227
670.921	4100
670.972	3027
671.024	2196
671.075	1358
671.127	2405
671.178	803
671.230	1127
671.281	1874
671.333	1533
671.384	2667
671.436	3783
671.487	5421
671.538	9105
671.590	15843
671.641	26735
671.692	49327
671.744	96832
671.795	64019
671.846	21199
671.897	8534
671.949	5699
672.000	2999
672.051	3210
672.102	1471
672.153	1257
672.204	1039
672.256	1394
672.307	312
672.358	575
672.409	208
672.460	166
672.511	325
672.562	-163
672.613	-113
672.664	274
672.715	39
672.766	514
672.817	555
672.868	413
672.919	-317
672.970	204
673.021	-545
673.071	-262
673.122	567
673.173	-624
673.224	-1221
673.275	-178
673.326	-582
673.376	119
673.427	-98
673.478	450
673.528	289
673.579	-128
673.630	285
673.680	123
673.731	-838
673.782	-437
673.832	-647
673.883	275
673.934	-432
673.984	-32
674.035	-950
674.085	-153
674.136	-355
674.186	27
674.237	-220
674.287	457
674.338	358
674.388	-145
674.438	435
674.489	824
674.539	505
674.589	666
674.640	-9
674.690	340
674.740	292
674.791	194
674.841	-265
674.891	472
674.942	-313
674.992	-545
675.042	-660
675.092	-537
675.142	-1018
675.193	-195
675.243	-848
675.293	-17
675.343	-902
675.393	-198
675.443	-760
675.493	-567
675.543	-835
675.593	28
675.643	-493
675.693	-207
675.743	-1344
675.793	-401
675.843	-1523
675.893	-179
675.943	-844
675.993	-202
676.043	-744
676.093	544
676.142	-579
676.192	-18
676.242	-1156
676.292	-669
676.341	-1094
676.391	-135
676.441	-1142
676.491	-538
676.540	-566
676.590	125
676.640	-1202
676.689	-454
676.739	-695
676.789	-296
676.838	-1079
676.888	202
676.937	-1335
676.987	-955
677.037	-40
677.086	-535
677.136	-88
677.185	-846
677.235	-1462
677.284	-322
677.333	-453
677.383	-1008
677.432	-1423
677.482	-1071
677.531	-458
677.580	-594
677.630	-402
677.679	-765
677.728	-763
677.778	-342
677.827	-163
677.876	94
677.925	-806
677.975	-817
678.024	-722
678.073	442
678.122	-725
678.171	-422
678.220	-322
678.269	-82
678.319	642
678.368	640
678.417	-478
678.466	-280
678.515	-472
678.564	-1010
678.613	-1103
678.662	-1297
678.711	-724
678.760	-1049
678.809	-728
678.857	-180
678.906	-639
678.955	-937
679.004	-975
679.053	-560
679.102	-1313
679.151	-942
679.199	-911
679.248	56
679.297	-1065
679.346	-1377
679.394	-973
679.443	-1022
679.492	-875
679.540	-1094
679.589	-1303
679.638	-852
679.686	-240
679.735	-917
679.784	-113
679.832	644
679.881	32
679.929	-140
679.978	-1079
680.026	-675
680.075	-1464
680.123	-285
680.172	-1443
680.220	-553
680.268	-1044
680.317	-847
680.365	-1234
680.414	-722
680.462	-720
680.510	-783
680.559	-159
680.607	-1273
680.655	-1576
680.703	-855
680.752	-1249
680.800	-676
680.848	-778
680.896	-910
680.945	-1246
680.993	-1045
681.041	-100
681.089	-543
681.137	-1275
681.185	-494
681.233	-1217
681.258	-1214
681.281	-1229
681.329	-1434
681.377	-133
681.380	-169
681.425	-1133
681.473	80
681.502	-610
681.521	-1121
681.569	468
681.617	-845
681.624	-787
681.665	-566
681.713	-441
681.745	-90
681.761	54
681.809	-411
681.857	-275
681.867	-267
681.904	-321
681.952	143
681.989	-523
682.000	-740
682.048	-583
682.096	-780
682.111	-478
682.143	96
682.191	-510
682.233	-44
682.239	11
682.286	-368
682.334	-137
682.354	-444
682.382	-915
682.430	485
682.476	-561
682.477	-599
682.525	34
682.572	-1026
682.598	-803
682.620	-649
682.667	-319
682.715	523
682.720	520
682.763	328
682.810	246
682.841	278
682.857	282
682.905	950
682.952	832
682.963	818
683.000	665
683.047	-229
683.085	901
683.095	1205
683.142	754
683.190	738
683.206	522
683.237	60
683.284	1307
683.328	543
683.332	465
683.379	635
683.426	262
683.449	573
683.473	905
683.521	1058
683.568	1051
683.571	1076
683.615	1105
683.662	650
683.693	540
683.709	488
683.757	596
683.804	458
683.814	549
683.851	794
683.898	1344
683.936	1094
683.945	1011
683.992	850
684.039	1231
684.057	1199
684.086	1177
684.133	1262
684.179	828
684.180	802
684.227	823
684.274	1631
684.300	1643
684.321	1637
684.368	1123
684.415	1584
684.422	1609
684.462	1657
684.509	1584
684.543	1088
684.556	915
684.603	2098
684.649	1467
684.665	1638
684.696	1965
684.743	1842
684.786	1909
684.790	1896
684.837	1940
684.883	2372
684.908	1885
684.930	1455
684.977	2051
685.023	1802
685.029	1774
685.070	1442
685.117	1649
685.150	1786
685.164	1846
685.210	2051
685.257	2341
685.272	2327
685.303	2296
685.350	2277
685.393	2398
685.396	2385
685.443	2361
685.490	1942
685.514	2190
685.536	2533
685.583	2346
685.629	2424
685.636	2384
685.675	1928
685.722	2588
685.757	2680
685.768	2709
685.815	2879
685.861	2878
685.878	2763
685.908	2597
685.954	2373
686.000	2803
686.000	2808
686.047	2243
686.093	2982
686.121	2901
686.139	2733
686.185	3044
686.232	2361
686.242	2482
686.278	3036
686.324	3415
686.363	3206
686.370	3148
686.416	2538
686.463	3636
686.484	3341
686.509	3138
686.555	3254
686.601	3060
686.606	3138
686.647	3484
686.693	3087
686.727	3412
686.739	3541
686.785	2958
686.831	2945
686.848	3097
686.877	3489
686.923	2880
686.969	3316
686.969	3318
687.015	3224
687.061	3662
687.090	3634
687.107	3599
687.153	3445
687.199	4189
687.211	3871
687.245	2988
687.291	3499
687.332	3911
687.336	3957
687.382	3462
687.428	3131
687.453	3565
687.474	3865
687.520	3888
687.565	3257
687.574	3300
687.611	3812
687.657	4200
687.695	4725
687.702	4831
687.748	5592
687.794	6282
687.816	5977
687.839	5267
687.885	4831
687.931	4549
687.937	4490
687.976	4270
688.022	4136
688.058	3962
688.067	3964
688.113	4095
688.158	3322
688.179	3418
688.204	3640
688.249	3844
688.295	4033
688.300	4029
688.340	4011
688.386	4906
688.421	4698
688.431	4633
688.477	4105
688.522	4695
688.542	4820
688.567	5039
688.613	4732
688.658	5222
688.663	5185
688.703	4695
688.749	4914
688.784	4731
688.794	4748
688.839	4653
688.884	5050
688.905	5266
688.930	5331
688.975	4863
689.020	4723
689.026	4625
689.065	4281
689.110	4401
689.146	4916
689.155	5056
689.201	4783
689.246	4842
689.267	4898
689.291	4910
689.336	4913
689.381	4926
689.388	4891
689.426	4731
689.471	5181
689.509	5017
689.516	5018
689.561	5067
689.606	5341
689.630	5313
689.651	5191
689.696	4973
689.741	5290
689.750	5211
689.785	5190
689.830	5406
689.871	5555
689.875	5539
689.920	5023
689.965	4678
689.992	4584
690.010	4697
690.054	4764
690.099	5427
690.112	5368
690.144	5302
690.189	5396
690.233	5471
690.233	5480
690.278	5338
690.323	5164
690.354	5188
690.367	5248
690.412	5665
690.457	5367
690.474	5316
690.501	5204
690.546	5621
690.590	4918
690.595	4920
690.635	5231
690.680	5268
690.716	5372
690.724	5424
690.769	5236
690.813	6489
690.836	6129
690.857	6091
690.902	7237
690.946	7818
690.957	8019
690.991	9605
691.035	11239
691.077	13627
691.080	13638
691.124	12572
691.168	12063
691.198	11163
691.213	10490
691.257	8912
691.301	6926
691.318	6379
691.346	6598
691.390	6287
691.434	6666
691.439	6659
691.478	6483
691.522	6520
691.559	6006
691.567	5961
691.611	6257
691.655	6202
691.680	6282
691.699	6403
691.743	6298
691.787	6517
691.800	6493
691.831	6439
691.875	6484
691.919	6242
691.921	6230
691.964	6195
692.008	6063
692.041	6067
692.052	6108
692.096	5925
692.139	6183
692.162	5868
692.183	5630
692.227	6154
692.271	5948
692.282	5963
692.315	5960
692.359	6011
692.402	5795
692.403	5811
692.447	5792
692.490	5970
692.523	6276
692.534	6315
692.578	6464
692.622	6041
692.643	6062
692.666	6134
692.709	5922
692.753	5807
692.763	5836
692.797	6189
692.840	6148
692.884	6440
692.884	6459
692.928	6774
692.971	6587
693.004	6814
693.015	6869
693.059	6748
693.102	6514
693.124	6396
693.146	6490
693.189	6784
693.233	6861
693.245	6933
693.276	7112
693.320	7362
693.363	7425
693.365	7398
693.407	7124
693.450	7485
693.485	7411
693.493	7478
693.537	8034
693.580	7960
693.605	8225
693.624	8906
693.667	10647
693.710	12167
693.725	12569
693.753	15468
693.797	20253
693.840	25105
693.845	25622
693.883	23707
693.926	21281
693.966	19350
693.970	19056
694.013	15072
694.056	11486
694.086	8988
694.099	8904
694.142	8308
694.185	8112
694.206	7900
694.229	7771
694.272	7555
694.315	7275
694.326	7106
694.358	7007
694.401	7436
694.444	7347
694.446	7339
694.487	7461
694.530	7356
694.566	7481
694.573	7505
694.616	6877
694.659	7000
694.686	6888
694.702	7007
694.745	7242
694.787	7403
694.806	7525
694.830	7632
694.873	7614
694.916	7716
694.926	7710
694.959	7862
695.002	8104
695.044	8322
695.046	8311
695.087	8310
695.130	7890
695.166	7984
695.172	8067
695.215	8017
695.258	8295
695.286	8288
695.301	8336
695.343	8612
695.386	8785
695.406	8777
695.428	8890
695.471	9289
695.514	9802
695.526	9838
695.556	10342
695.599	11193
695.641	11812
695.646	11872
695.684	11464
695.726	11030
695.766	10402
695.769	10421
695.811	10313
695.854	10317
695.886	10150
695.896	10091
695.938	9815
695.981	9562
696.005	9481
696.023	9891
696.065	10558
696.108	11487
696.125	11692
696.150	11705
696.192	11950
696.235	12068
696.245	12110
696.277	12172
696.319	12017
696.361	11995
696.365	11939
696.404	11703
696.446	11715
696.485	11472
696.488	11510
696.530	11684
696.572	11882
696.604	11980
696.614	11967
696.656	11814
696.698	11684
696.724	11467
696.740	11492
696.783	11625
696.825	11743
696.844	11697
696.867	11813
696.909	12075
696.951	12269
696.964	12328
696.992	12496
697.034	12671
697.076	12735
697.083	12730
697.118	12957
697.160	13070
697.202	13288
697.203	13252
697.244	13001
697.286	12921
697.323	12643
697.327	12679
697.369	12650
697.411	12729
697.442	12752
697.453	12793
697.494	12739
697.536	12696
697.562	12679
697.578	12714
697.620	12659
697.661	12550
697.682	12481
697.703	12786
697.744	13328
697.786	13950
697.801	14095
697.828	14112
697.869	14108
697.911	14058
697.921	14032
697.952	14050
697.994	13919
698.035	13812
698.040	13760
698.077	13592
698.118	13327
698.160	13101
698.160	13061
698.201	13637
698.243	14127
698.279	14601
698.284	14669
698.325	14827
698.367	15063
698.399	15160
698.408	15244
698.449	15464
698.491	15638
698.518	15736
698.532	15934
698.573	16415
698.614	16873
698.638	17082
698.656	16867
698.697	16260
698.738	15664
698.757	15335
698.779	15363
698.820	15325
698.862	15292
698.877	15239
698.903	15388
698.944	15552
698.985	15709
698.996	15711
699.026	15714
699.067	15653
699.116	15537
699.235	16442
699.354	15402
699.474	14996
699.593	15185
699.713	15220
699.832	15707
699.951	16198
700.070	15624
700.190	14010
700.309	14150
700.428	14095
700.547	13284
700.667	13200
700.786	12988
700.905	12919
701.024	13568
701.143	12909
701.262	13948
701.381	13823
701.500	13485
701.619	13209
701.738	13696
701.857	14690
701.976	12417
702.095	12491
702.214	12975
702.333	12830
702.452	14249
702.571	14893
702.690	14042
702.809	13339
702.928	13124
703.047	12015
703.165	13386
703.284	12238
703.403	12299
703.522	11527
703.640	10872
703.759	11393
703.878	12521
703.997	11439
704.115	12298
704.234	11941
704.353	12013
704.471	11035
704.590	10820
704.708	10751
704.827	11013
704.946	10663
705.064	10442
705.183	11060
705.301	10658
705.420	11386
705.538	10861
705.656	10803
705.775	10865
705.893	16556
706.012	19084
706.130	10013
706.249	10864
706.367	10178
706.485	10490
706.604	9845
706.722	10123
706.840	11158
706.958	15466
707.077	11929
707.195	10399
707.313	9338
707.431	9010
707.549	8551
707.668	8641
707.786	9707
707.904	7997
708.022	8848
708.140	8661
708.258	8857
708.376	9695
708.494	9225
708.612	10111
708.730	9780
708.848	10000
708.966	9110
709.084	9955
709.202	8675
709.320	8541
709.438	8854
709.556	9215
709.674	8088
709.791	7507
709.909	7132
710.027	7643
710.145	8584
710.263	8357
710.380	7951
710.498	8084
710.616	8779
710.733	7146
710.851	7294
710.969	8133
711.086	7228
711.204	7672
711.322	7195
711.439	7585
711.557	7285
711.674	7021
711.792	6949
711.909	8237
712.027	8487
712.144	7524
712.262	8077
712.379	6981
712.497	7355
712.614	7787
712.732	7659
712.849	7969
712.966	8030
713.084	7754
713.201	7166
713.318	7507
713.436	8014
713.553	8222
713.670	8778
713.787	8750
713.905	8434
714.022	9105
714.139	9161
714.256	13152
714.373	19542
714.490	41692
714.608	115718
714.725	481959
714.842	505570
714.959	47326
715.076	17393
715.193	11822
715.310	10582
715.427	8344
715.544	8017
715.661	8539
715.778	7037
715.895	7543
716.011	8140
716.128	6782
716.245	6647
716.362	7094
716.479	6358
716.596	6719
716.713	7245
716.829	6422
716.946	5247
717.063	5935
717.180	4950
717.296	6235
717.413	6694
717.530	6050
717.646	5338
717.763	5872
717.880	5480
717.996	5251
718.113	5537
718.229	5685
718.346	4259
718.462	5344
718.579	5187
718.695	6087
718.812	6070
718.928	5270
719.045	5864
719.161	5296
719.277	5839
719.394	5590
719.510	6090
719.626	7090
719.743	9276
719.859	17690
719.975	38527
720.092	165748
720.208	388615
720.324	47422
720.440	10872
720.557	7649
720.673	7483
720.789	7131
720.905	7434
721.021	6669
721.137	4866
721.253	4756
721.369	4944
721.486	5005
721.602	5509
721.718	4870
721.834	3733
721.950	5092
722.066	4236
722.181	4721
722.297	4278
722.413	4684
722.529	4587
722.645	4992
722.761	4667
722.877	5021
722.993	5464
723.108	7508
723.224	7227
723.340	5549
723.456	4587
723.571	4748
723.687	3749
723.803	4586
723.918	3745
724.034	3843
724.150	3657
724.265	4468
724.381	3894
724.497	4825
724.612	4444
724.728	4344
724.843	3506
724.959	3168
725.074	4676
725.190	4622
725.305	3965
725.421	4688
725.536	3554
725.651	4041
725.767	3414
725.882	4867
725.997	3863
726.113	4329
726.228	3754
726.343	4355
726.459	3509
726.574	3810
726.689	3599
726.804	3737
726.920	2921
727.035	3760
727.150	4200
727.265	3986
727.380	4249
727.495	4196
727.610	3574
727.725	3146
727.841	4095
727.956	7352
728.071	6662
728.186	3942
728.301	3638
728.416	4825
728.531	3680
728.645	3627
728.760	3479
728.875	3020
728.990	3914
729.105	3792
729.220	3300
729.335	3992
729.449	3979
729.564	3775
729.679	3029
729.794	2787
729.908	3235
730.023	3228
730.138	3330
730.253	3807
730.367	3195
730.482	3920
730.596	3432
730.711	4663
730.826	6082
730.940	6863
731.055	4916
731.169	4381
731.284	4190
731.398	4710
731.513	4727
731.627	5667
731.742	6938
731.856	8788
731.970	8853
732.085	12297
732.199	19763
732.313	36386
732.428	100460
732.542	308953
732.656	189909
732.771	32262
732.885	16057
732.999	12592
733.113	12275
733.227	10784
733.342	10158
733.456	9181
733.570	8745
733.684	8461
733.798	8415
733.912	9158
734.026	7906
734.140	7717
734.254	8498
734.368	8125
734.482	7822
734.596	8623
734.710	7475
734.824	7343
734.938	6611
735.052	7836
735.166	7711
735.280	6832
735.393	6868
735.507	6903
735.621	7153
735.735	6333
735.849	7136
735.962	6658
736.076	6443
736.190	6135
736.303	5752
736.417	7017
736.531	6281
736.644	6038
736.758	6214
736.872	6165
736.985	6329
737.099	6761
737.212	6040
737.326	5963
737.439	7142
737.553	6363
737.666	6790
737.780	6175
737.893	6096
738.007	5994
738.120	5813
738.233	5277
738.347	6611
738.460	6013
738.573	6456
738.687	5455
738.800	5640
738.913	5584
739.026	5500
739.140	5378
739.253	4951
739.366	4724
739.479	5213
739.592	6343
739.705	5135
739.818	5904
739.932	5103
740.045	4983
740.158	5259
740.271	5161
740.384	5651
740.497	4398
740.610	5500
740.723	4391
740.836	5167
740.949	5280
741.062	6183
741.174	5366
741.287	5615
741.400	5158
741.513	4969
741.626	5346
741.739	4499
741.851	5350
741.964	4081
742.077	5276
742.189	4281
742.302	5437
742.415	4982
742.527	4480
742.640	5295
742.753	4060
742.865	3988
742.978	3971
743.090	4271
743.203	4244
743.316	3773
743.428	4246
743.541	4502
743.653	3921
743.766	4211
743.878	4631
743.990	4721
744.103	5721
744.215	6051
744.327	3757
744.440	4925
744.552	4415
744.664	4039
744.777	4522
744.889	4174
745.001	3985
745.113	4586
745.226	4016
745.338	4202
745.450	4688
745.562	3729
745.674	3696
745.786	4676
745.898	4323
746.010	4016
746.122	4524
746.234	4103
746.347	4653
746.459	4720
746.570	3764
746.682	6048
746.794	9298
746.906	3648
747.018	3910
747.130	4238
747.242	2625
747.354	3607
747.466	4096
747.577	3198
747.689	4328
747.801	3929
747.913	3530
748.024	3539
748.136	2826
748.248	3076
748.359	3500
748.471	4494
748.583	3744
748.694	3050
748.806	4233
748.918	3674
749.029	3169
749.141	3683
749.252	4194
749.364	2422
749.475	3728
749.587	2682
749.698	2711
749.809	3443
749.921	3238
750.032	3071
750.144	3165
750.255	2191
750.366	3340
750.478	2645
750.589	2863
750.700	3322
750.811	3337
750.923	3658
751.034	2270
751.145	3490
751.256	3429
751.367	1802
751.479	3223
751.590	2620
751.701	2952
751.812	2481
751.923	2759
752.034	2940
752.145	3169
752.256	3237
752.367	2170
752.478	2694
752.589	3164
752.700	2921
752.811	2481
752.922	2344
753.032	2232
753.143	2824
753.254	2910
753.365	3827
753.476	3324
753.586	2467
753.697	2429
753.808	3062
753.919	1807
754.029	2617
754.140	3022
754.251	3166
754.361	2257
754.472	2578
754.582	2804
754.693	2500
754.804	3530
754.914	2231
755.025	2289
755.135	2269
755.246	3377
755.356	3082
755.466	3179
755.577	2205
755.687	2544
755.798	3035
755.908	2114
756.018	2003
756.129	2936
756.239	1968
756.349	3312
756.460	3304
756.570	3496
756.680	2329
756.790	3558
756.900	2870
757.011	2602
757.121	2347
757.231	2612
757.341	3063
757.451	2355
757.561	1947
757.671	2188
757.781	2367
757.891	3062
758.001	2712
758.111	2962
758.221	2930
758.331	2983
758.441	3603
758.551	2579
758.661	4236
758.771	3227
758.880	2788
758.990	3470
759.100	3181
759.210	3330
759.320	3276
759.429	3883
759.539	4183
759.649	3988
759.758	4877
759.868	5466
759.978	4873
760.087	6195
760.197	5630
760.307	6347
760.416	4728
760.526	4595
760.635	4568
760.745	5573
760.854	5817
760.964	6803
761.073	6461
761.182	5680
761.292	4697
761.401	4698
761.511	4586
761.620	3584
761.729	3004
761.839	2988
761.948	3943
762.057	2852
762.166	3250
762.276	2625
762.385	4449
762.494	2922
762.603	3026
762.712	2890
762.822	3035
762.931	3295
763.040	2835
763.149	3001
763.258	2366
763.367	3851
763.476	3384
763.585	3155
763.694	3560
763.803	3567
763.912	3560
764.021	3489
764.130	3152
764.238	4764
764.347	3981
764.456	5392
764.565	4948
764.674	4556
764.783	4163
764.891	4544
765.000	6489
765.109	6685
765.217	7035
765.326	8297
765.435	9419
765.543	11238
765.652	13283
765.761	16982
765.869	24895
765.978	36839
766.086	60697
766.195	111215
766.303	229499
766.412	410995
766.520	337303
766.629	188146
766.737	89438
766.846	51720
766.954	33358
767.062	25083
767.171	19003
767.279	14762
767.387	11163
767.496	9974
767.604	7899
767.712	7994
767.820	6662
767.928	7061
768.037	6032
768.145	5897
768.253	5991
768.361	5532
768.469	5601
768.577	5044
768.685	6168
768.793	6168
768.901	6108
769.009	6995
769.117	8229
769.225	11439
769.333	15432
769.441	24859
769.549	42231
769.657	92184
769.765	230072
769.873	337345
769.981	189267
770.088	72391
770.196	35036
770.304	23252
770.412	16756
770.519	13137
770.627	10116
770.735	8274
770.842	6918
770.950	6603
771.058	6832
771.165	6807
771.273	6314
771.380	5845
771.488	6277
771.595	7607
771.703	6171
771.810	5624
771.918	5696
772.025	6688
772.133	6719
772.240	6886
772.348	8083
772.455	7119
772.562	6473
772.670	6113
772.777	6785
772.884	5841
772.991	6166
773.099	7174
773.206	6039
773.313	6453
773.420	6452
773.528	5063
773.635	5393
773.742	6001
773.849	5746
773.956	5223
774.063	4812
774.170	5797
774.277	5821
774.384	4587
774.491	5037
774.598	5278
774.705	5621
774.812	5770
774.919	4849
775.026	4724
775.133	5836
775.239	4978
775.346	5101
775.453	4365
775.560	4402
775.667	5301
775.773	4748
775.880	5910
775.987	3932
776.093	4625
776.200	4679
776.307	4234
776.413	4333
776.520	4981
776.627	4740
776.733	4471
776.840	3332
776.946	7231
777.053	7044
777.159	10173
777.266	6403
777.372	9255
777.478	7912
777.585	5597
777.691	3557
777.798	4689
777.904	3522
778.010	4400
778.117	4477
778.223	4178
778.329	3963
778.435	3667
778.542	4613
778.648	3984
778.754	3502
778.860	3504
778.966	3852
779.072	3592
779.178	3327
779.284	3283
779.391	3333
779.497	3165
779.603	4372
779.708	3041
779.815	5795
779.920	13324
780.026	27544
780.132	5927
780.238	4103
780.344	3661
780.450	4578
780.556	3212
780.661	2743
780.767	3736
780.873	3127
780.979	2921
781.085	3081
781.190	2449
781.296	1936
781.402	3476
781.507	2411
781.613	2913
781.719	2631
781.824	3262
781.930	3391
782.035	3052
782.141	3384
782.246	2916
782.352	2055
782.457	3494
782.563	2765
782.668	2731
782.773	2987
782.879	2133
782.984	3028
783.090	3110
783.195	2725
783.300	2940
783.405	2059
783.511	1824
783.616	1833
783.721	2471
783.826	2542
783.932	2533
784.037	2461
784.142	2753
784.247	1566
784.352	2349
784.457	1844
784.562	3189
784.667	2655
784.772	2298
784.877	557
784.982	2604
785.087	2803
785.192	2018
785.297	1837
785.402	2465
785.507	2650
785.611	2700
785.716	1677
785.821	2355
785.926	2351
786.031	1750
786.135	1548
786.240	2322
786.345	1292
786.450	2095
786.554	1811
786.659	1336
786.763	1679
786.868	2703
786.973	2582
787.077	1576
787.182	1602
787.286	3129
787.391	2495
787.495	829
787.600	975
787.704	1124
787.809	1856
787.913	2415
788.017	1706
788.122	2251
788.226	1805
788.330	719
788.435	1893
788.539	2343
788.643	2318
788.747	1037
788.852	1473
788.956	1198
789.060	1548
789.164	2666
789.268	1028
789.372	2247
789.476	1603
789.580	795
789.684	1179
789.788	2505
789.892	1584
789.996	2529
790.100	945
790.204	2072
790.308	2176
790.412	951
790.516	1492
790.620	1039
790.724	1878
790.828	272
790.931	645
791.035	2914
791.139	1016
791.242	394
791.346	1911
791.450	1339
791.554	1802
791.657	573
791.761	2041
791.864	2759
791.968	1872
792.072	1836
792.175	1653
792.279	1018
792.382	1498
792.486	1966
792.589	907
792.693	1730
792.796	350
792.899	2039
793.003	853
793.106	480
793.209	550
793.313	2116
793.416	42
793.519	2097
793.623	2229
793.726	1259
793.829	1354
793.932	962
794.035	650
794.138	2073
794.242	2611
794.345	1551
794.448	1032
794.551	1870
794.654	6546
794.757	14189
794.860	3745
794.963	714
795.066	786
795.169	2660
795.272	1417
795.375	2448
795.477	1087
795.580	1407
795.683	502
795.786	1651
795.889	243
795.991	2213
796.094	1367
796.197	181
796.300	2415
796.402	1947
796.505	325
796.608	1045
796.710	1851
796.813	1273
796.915	1535
797.018	1707
797.120	1711
797.223	576
797.326	3257
797.428	681
797.530	645
797.633	1140
797.735	2417
797.838	874
797.940	1678
798.042	638
798.145	1120
798.247	1971
798.349	-354
798.452	1462
798.554	1072
798.656	1106
798.758	1764
798.860	1260
798.962	828
799.065	1590
799.167	836
799.269	2222
799.371	2198
799.473	2667
799.575	1482
799.677	1328
799.779	2261
799.881	-301
799.983	2146
800.085	559
800.187	1330
800.289	-95
800.390	1254
800.492	1217
800.594	1468
800.696	1306
800.798	1247
800.899	762
801.001	1084
801.103	1630
801.205	1414
801.306	1508
801.408	86
801.509	1684
801.611	1490
801.713	1507
801.814	-384
801.916	388
802.017	494
802.119	51
802.220	842
802.322	-352
802.423	2081
802.525	-507
802.626	619
802.727	853
802.829	1445
802.930	-1632
803.031	2044
803.133	372
803.234	248
803.335	1323
803.436	-324
803.538	358
803.639	-414
803.740	1158
803.841	216
803.942	1101
804.043	1228
804.144	-34
804.245	1315
804.346	109
804.447	618
804.548	590
804.649	946
804.750	953
804.851	861
804.952	968
805.053	1016
805.154	-91
805.255	919
805.355	1181
805.456	-170
805.557	345
805.658	120
805.758	1118
805.859	797
805.960	828
806.061	-210
806.161	475
806.262	116
806.362	-510
806.463	696
806.564	767
806.664	428
806.765	275
806.865	101
806.966	97
807.066	547
807.166	628
807.267	1009
807.367	500
807.468	795
807.568	-837
807.668	1211
807.769	838
807.869	-347
807.969	810
808.069	240
808.170	650
808.270	-90
808.370	1310
808.470	892
808.570	52
808.670	615
808.770	407
808.870	-170
808.970	971
809.070	-258
809.170	51
809.271	952
809.370	-1
809.470	-12
809.570	-177
809.670	419
809.770	42
809.870	1223
809.970	1343
810.070	734
810.169	831
810.269	-814
810.369	1253
810.469	-78
810.568	184
810.668	144
810.768	-30
810.867	663
810.967	583
811.066	150
811.166	-556
811.265	1283
811.365	129
811.464	1095
811.564	-219
811.663	421
811.763	-829
811.862	292
811.962	954
812.061	74
812.160	-868
812.260	-206
812.359	26
812.458	33
812.557	1449
812.657	1085
812.756	996
812.855	-23
812.954	-130
813.053	1331
813.153	465
813.252	-230
813.351	-545
813.450	-212
813.549	137
813.648	297
813.747	-644
813.846	616
813.945	-188
814.044	541
814.143	339
814.242	327
814.341	-190
814.439	858
814.538	746
814.637	287
814.736	553
814.835	171
814.933	681
815.032	1116
815.131	1021
815.229	2949
815.328	4896
815.427	3300
815.525	2896
815.624	2587
815.722	2269
815.821	2412
815.919	2412
816.018	1843
816.116	2963
816.215	2053
816.313	3389
816.412	2899
816.510	3813
816.609	4339
816.707	4157
816.805	3695
816.904	2933
817.002	4091
817.100	4828
817.198	5069
817.296	4276
817.395	4114
817.493	4002
817.591	3329
817.689	3297
817.787	3107
817.885	4291
817.983	4690
818.081	6543
818.179	12180
818.277	29821
818.375	26017
818.473	8048
818.571	4580
818.669	4144
818.767	5238
818.865	4070
818.963	3294
819.061	4378
819.158	4682
819.256	11557
819.354	22108
819.452	53553
819.549	32502
819.647	9149
819.745	4579
819.842	4529
819.940	3757
820.038	2972
820.135	1751
820.233	4702
820.330	1999
820.428	1773
820.525	3948
820.623	2428
820.720	1845
820.818	2853
820.915	2994
821.012	3234
821.110	1246
821.207	3488
821.304	1762
821.402	2945
821.499	3356
821.596	4615
821.693	3083
821.791	3163
821.888	2072
821.985	3275
822.082	1598
822.179	3153
822.276	2286
822.373	2099
822.470	1441
822.567	2390
822.664	1096
822.761	2369
822.858	1606
822.955	2453
823.052	2388
823.149	1891
823.246	1531
823.343	1034
823.440	1918
823.536	1893
823.633	804
823.730	1045
823.827	1718
823.923	1297
824.020	2747
824.117	2310
824.213	2091
824.310	2687
824.407	1477
824.503	1539
824.600	1698
824.696	1948
824.793	3047
824.889	1748
824.986	1772
825.082	1141
825.179	2371
825.275	1733
825.371	1770
825.468	1344
825.564	1025
825.660	2134
825.757	2244
825.853	1913
825.949	33
826.045	1657
826.142	1716
826.238	2036
826.334	1484
826.430	1442
826.526	1407
826.622	192
826.718	1633
826.814	1861
826.910	1694
827.006	484
827.102	-246
827.198	1852
827.294	1565
827.390	2515
827.486	1873
827.582	-49
827.678	638
827.774	2494
827.869	180
827.965	1834
828.061	201
828.157	2087
828.252	1959
828.348	999
828.444	1895
828.539	930
828.635	1931
828.731	1582
828.826	343
828.922	1678
829.017	1664
829.113	2269
829.208	309
829.304	1158
829.399	2935
829.495	1727
829.590	2189
829.685	790
829.781	1405
829.876	819
829.971	477
830.066	528
830.162	541
830.257	2057
830.352	1387
830.447	1360
830.543	496
830.638	-129
830.733	2024
830.828	307
830.923	2337
831.018	1675
831.113	1710
831.208	758
831.303	711
831.398	1100
831.493	462
831.588	1436
831.683	61
831.778	1327
831.873	1202
831.967	2446
832.062	527
832.157	687
832.252	2042
832.346	8
832.441	1355
832.536	1627
832.631	999
832.725	1164
832.820	420
832.914	1669
833.009	0
833.104	439
833.198	983
833.293	131
833.387	1354
833.482	518
833.576	880
833.670	1377
833.765	1073
833.859	1233
833.954	982
834.048	661
834.142	930
834.237	93
834.331	580
834.425	1447
834.519	268
834.613	1067
834.708	3
834.802	829
834.896	-259
834.990	258
835.084	34
835.178	-255
835.272	-164
835.366	1105
835.460	1087
835.554	637
835.648	665
835.742	-167
835.836	-415
835.930	-785
836.024	315
836.117	2128
836.211	-203
836.305	435
836.399	1069
836.493	-549
836.586	1567
836.680	177
836.774	288
836.867	1291
836.961	844
837.055	-375
837.148	279
837.242	184
837.335	-174
837.429	197
837.522	82
837.616	567
837.709	824
837.803	-162
837.896	564
837.989	-354
838.083	-444
838.176	-439
838.269	-174
838.363	588
838.456	685
838.549	1252
838.642	-12
838.735	1422
838.829	549
838.922	176
839.015	123
839.108	-317
839.201	-70
839.294	1384
839.387	1065
839.480	-544
839.573	-40
839.666	-231
839.759	593
839.852	-226
839.945	591
840.038	248
840.131	-224
840.223	875
840.316	184
840.409	862
840.502	-460
840.594	1260
840.687	-756
840.780	-341
840.873	-579
840.965	8
841.058	641
841.150	420
841.243	-590
841.336	1423
841.428	-590
841.521	-308
841.613	394
841.706	46
841.798	-325
841.890	496
841.983	-1418
842.075	491
842.167	-688
842.260	-38
842.352	690
842.444	564
842.537	-55
842.629	-6
842.721	-282
842.813	307
842.905	-517
842.997	1002
843.090	-436
843.182	-73
843.274	-928
843.366	452
843.458	558
843.550	1052
843.642	-757
843.734	578
843.826	-233
843.918	330
844.009	700
844.101	40
844.193	-574
844.285	-156
844.377	585
844.469	592
844.560	251
844.652	1366
844.744	548
844.835	20
844.927	405
845.019	-154
845.110	-855
845.202	94
845.293	514
845.385	-560
845.476	351
845.568	904
845.659	-679
845.751	-156
845.842	-627
845.934	-585
846.025	-706
846.116	65
846.208	374
846.299	-212
846.390	-667
846.482	-44
846.573	-137
846.664	309
846.755	-382
846.846	1047
846.937	-1623
847.029	-638
847.120	65
847.211	-571
847.302	1114
847.393	-843
847.484	263
847.575	-694
847.666	-541
847.757	-117
847.847	-83
847.938	1364
848.029	-160
848.120	-6
848.211	-673
848.302	-1204
848.392	-1144
848.483	706
848.574	359
848.664	164
848.755	266
848.846	1164
848.936	-614
849.027	-272
849.118	216
849.208	718
849.299	1294
849.389	3758
849.480	9046
849.570	18732
849.661	36360
849.751	60934
849.841	22505
849.932	2125
850.022	641
850.112	513
850.203	-137
850.293	556
850.383	232
850.474	-709
850.564	-727
850.654	426
850.744	-108
850.834	-269
850.924	-252
851.014	26
851.104	-244
851.194	-774
851.284	762
851.374	-716
851.464	232
851.554	466
851.644	68
851.734	-198
851.824	-421
851.914	-237
852.004	1407
852.094	156
852.183	198
852.273	-15
852.363	37
852.452	468
852.542	-135
852.632	16
852.721	159
852.811	-204
852.901	470
852.990	590
853.080	1261
853.169	220
853.259	420
853.348	1436
853.438	1230
853.527	3366
853.617	5142
853.706	9960
853.795	19071
853.885	40793
853.974	74991
854.063	134189
854.152	186539
854.242	80820
854.331	19413
854.420	7592
854.509	5032
854.598	3655
854.687	2163
854.777	1881
854.866	516
854.955	1291
855.044	473
855.133	708
855.222	142
855.311	155
855.400	562
855.488	-196
855.577	216
855.666	152
855.755	247
855.844	-567
855.933	-215
856.021	218
856.110	40
856.199	-371
856.288	26
856.376	-185
856.465	-200
856.554	522
856.642	-845
856.731	407
856.819	-63
856.908	222
856.996	-500
857.085	-342
857.173	-463
857.262	-818
857.350	-538
857.438	-856
857.527	-279
857.615	-472
857.703	-79
857.792	-951
857.880	-647
857.968	-287
858.056	-737
858.145	-124
858.233	-140
858.321	-265
858.409	747
858.497	-844
858.585	-808
858.673	-315
858.761	-727
858.849	-473
858.937	-447
859.025	517
859.113	-233
859.201	-52
859.289	212
859.377	-163
859.465	335
859.552	94
859.640	-687
859.728	-338
859.816	-163
859.903	-848
859.991	-1192
860.079	125
860.166	99
860.254	38
860.342	447
860.429	-734
860.517	-365
860.604	-144
860.692	-161
860.779	-117
860.867	-898
860.954	-118
861.042	-160
861.129	-93
861.216	-247
861.304	506
861.391	-489
861.478	-428
861.565	-1148
861.653	683
861.740	-595
861.827	-289
861.914	-852
862.001	-500
862.089	-485
862.176	-158
862.263	-544
862.350	505
862.437	-917
862.524	-283
862.611	-233
862.698	368
862.785	516
862.871	-55
862.958	105
863.045	293
863.132	153
863.219	-584
863.306	-1046
863.392	195
863.479	-262
863.566	-186
863.652	111
863.739	285
863.826	-553
863.912	-747
863.999	148
864.086	-300
864.172	638
864.259	274
864.345	-401
864.432	331
864.518	-312
864.604	105
864.691	-193
864.777	518
864.863	1241
864.950	1383
865.036	2270
865.122	3915
865.209	5201
865.295	4624
865.381	4054
865.467	4914
865.553	5662
865.639	7979
865.726	11943
865.812	23736
865.898	43113
865.984	63565
866.070	110575
866.156	114950
866.242	36335
866.328	11337
866.414	6860
866.499	4976
866.585	4912
866.671	3726
866.757	3416
866.843	4148
866.928	3002
867.014	3078
867.100	2374
867.186	2742
867.271	2579
867.357	2821
867.442	2424
867.528	3253
867.614	2513
867.699	2438
867.785	3738
867.870	3338
867.956	3727
868.041	3773
868.127	2830
868.212	3556
868.297	2448
868.383	2695
868.468	2457
868.553	2628
868.639	2246
868.724	1920
868.809	2232
868.894	2058
868.979	1800
869.065	2218
869.150	435
869.235	1509
869.320	1636
869.405	2062
869.490	2160
869.575	1704
869.660	473
869.745	1719
869.830	1645
869.915	1399
870.000	1792
870.085	2321
870.169	3045
870.254	2321
870.339	453
870.424	1580
870.509	2431
870.593	2699
870.678	2462
870.763	1140
870.847	1384
870.932	2384
871.016	2557
871.101	1541
871.186	1586
871.270	2807
871.355	1363
871.439	846
871.523	2419
871.608	703
871.692	947
871.777	1832
871.861	1697
871.945	1988
872.030	2016
872.114	1417
872.198	646
872.282	1243
872.367	496
872.451	-394
872.535	830
872.619	1879
872.703	665
872.787	1524
872.871	1515
872.955	741
873.039	508
873.123	1132
873.207	1406
873.291	394
873.375	824
873.459	2078
873.543	1457
873.627	1331
873.711	848
873.794	1027
873.878	648
873.962	1300
874.045	1026
874.129	1169
874.137	1165
874.213	1133
874.245	1271
874.296	1495
874.352	579
874.380	128
874.460	1021
874.464	1056
874.547	799
874.568	744
874.631	598
874.676	1122
874.714	1548
874.784	1038
874.798	940
874.881	1548
874.892	1381
874.965	248
874.999	552
875.048	957
875.107	500
875.131	305
875.215	1222
875.215	1221
875.298	-17
875.323	109
875.381	367
875.430	1077
875.465	1591
875.538	1283
875.548	1235
875.631	208
875.646	245
875.714	464
875.753	454
875.798	438
875.861	1051
875.881	1230
875.964	1241
875.968	1190
876.047	326
876.076	501
876.130	802
876.183	773
876.213	768
876.291	912
876.296	923
876.379	808
876.398	621
876.462	18
876.506	385
876.545	717
876.613	504
876.628	450
876.711	977
876.721	892
876.794	223
876.828	316
876.877	432
876.935	340
876.960	390
877.043	148
877.043	152
877.125	655
877.150	694
877.208	974
877.258	611
877.291	357
877.365	-367
877.374	-469
877.456	392
877.472	445
877.539	694
877.579	441
877.622	291
877.687	871
877.704	978
877.787	582
877.794	556
877.869	452
877.901	709
877.952	1024
878.008	525
878.034	258
878.115	306
878.117	311
878.199	-126
878.222	-87
878.282	87
878.329	531
878.364	788
878.437	403
878.447	327
878.529	-233
878.544	-184
878.611	346
878.651	226
878.694	179
878.758	809
878.776	863
878.858	695
878.865	689
878.941	721
878.972	625
879.023	529
879.078	417
879.105	513
879.185	523
879.187	516
879.269	570
879.292	605
879.351	623
879.399	506
879.433	466
879.506	228
879.516	188
879.598	414
879.613	402
879.680	569
879.720	532
879.762	353
879.827	-223
879.844	-314
879.926	622
879.933	629
880.007	641
880.040	422
880.089	-50
880.147	648
880.171	1026
880.253	1003
880.254	1004
880.335	1121
880.360	1278
880.417	1837
880.467	2445
880.499	2744
880.574	3049
880.580	3050
880.662	1557
880.680	1285
880.744	115
880.787	-67
880.825	99
880.893	306
880.907	301
880.989	638
881.000	647
881.070	849
881.106	675
881.152	341
881.213	285
881.233	311
881.315	153
881.319	184
881.396	946
881.426	945
881.478	693
881.532	893
881.559	1036
881.639	564
881.641	547
881.722	267
881.745	166
881.803	353
881.852	697
881.885	822
881.958	472
881.966	453
882.047	545
882.064	647
882.129	876
882.171	770
882.210	540
882.277	36
882.291	15
882.372	581
882.383	634
882.454	836
882.489	831
882.535	859
882.596	670
882.616	548
882.697	363
882.702	324
882.778	118
882.808	235
882.859	225
882.914	296
882.940	459
883.020	353
883.021	353
883.102	543
883.127	517
883.183	693
883.233	585
883.264	305
883.339	-55
883.345	-49
883.426	85
883.445	168
883.507	133
883.551	-31
883.587	180
883.657	566
883.668	639
883.749	995
883.763	1031
883.830	168
883.869	-84
883.910	281
883.975	708
883.991	679
884.072	462
884.081	426
884.152	695
884.187	808
884.233	773
884.292	908
884.314	815
884.394	-131
884.398	-152
884.475	181
884.504	218
884.555	193
884.610	254
884.636	408
884.716	1167
884.716	1172
884.797	1293
884.821	1068
884.877	401
884.927	-94
884.958	-109
885.033	186
885.038	190
885.118	295
885.139	360
885.199	248
885.244	-104
885.279	108
885.350	867
885.359	879
885.439	725
885.456	636
885.520	355
885.561	465
885.600	411
885.667	86
885.680	174
885.760	598
885.773	671
885.840	250
885.878	32
885.920	154
885.984	386
886.000	344
886.080	147
886.089	92
886.160	465
886.195	731
886.240	420
886.300	113
886.320	216
886.400	458
886.406	464
886.480	-48
886.511	-138
886.560	244
886.616	416
886.640	369
886.720	405
886.722	400
886.800	600
886.827	700
886.879	406
886.932	63
886.959	512
887.038	1918
887.039	1913
887.119	778
887.143	488
887.198	752
887.248	778
887.278	728
887.354	690
887.358	693
887.437	652
887.459	657
887.517	1024
887.564	1297
887.596	1196
887.669	982
887.676	949
887.755	502
887.774	344
887.835	307
887.880	426
887.914	537
887.985	620
887.994	610
888.073	557
888.090	546
888.153	1176
888.195	1536
888.232	1144
888.300	454
888.311	418
888.391	211
888.405	152
888.470	333
888.510	439
888.549	650
888.615	1096
888.628	1048
888.708	646
888.720	595
888.787	489
888.825	356
888.866	634
888.930	1147
888.945	1108
889.024	814
889.035	781
889.103	537
889.140	367
889.182	688
889.245	1193
889.261	1152
889.340	931
889.349	904
889.419	338
889.454	50
889.498	500
889.559	1142
889.577	1129
889.656	1064
889.664	1059
889.735	909
889.768	839
889.814	435
889.873	-101
889.978	414
890.083	901
890.187	1391
890.292	750
890.397	514
890.501	868
890.606	1095
890.710	1012
890.815	1294
890.919	761
891.024	789
891.128	1008
891.233	692
891.337	910
891.442	893
891.546	1243
891.650	1399
891.755	535
891.859	2365
891.963	1474
892.068	1057
892.172	275
892.276	-270
892.380	453
892.484	1491
892.589	1146
892.693	1328
892.797	43
892.901	1154
893.005	-154
893.109	1171
893.213	736
893.317	582
893.421	270
893.525	130
893.629	695
893.733	552
893.837	1599
893.941	1484
894.045	632
894.148	195
894.252	331
894.356	1203
894.460	1348
894.564	885
894.667	222
894.771	351
894.875	222
894.978	1354
895.082	-404
895.186	1689
895.289	570
895.393	583
895.496	248
895.600	1205
895.703	459
895.807	399
895.910	-117
896.014	1059
896.117	551
896.221	1530
896.324	166
896.427	-179
896.531	-257
896.634	248
896.737	835
896.840	191
896.944	517
897.047	1134
897.150	871
897.253	129
897.356	167
897.460	508
897.563	412
897.666	278
897.769	933
897.872	206
897.975	1012
898.078	742
898.181	230
898.284	567
898.387	140
898.490	668
898.593	-23
898.695	983
898.798	63
898.901	559
899.004	1276
899.107	1149
899.209	-23
899.312	868
899.415	612
899.518	401
899.620	-15
899.723	480
899.826	575
899.928	1106
900.031	325
900.133	731
900.236	-400
900.338	320
900.441	-68
900.543	274
900.646	-104
900.748	569
900.851	502
900.953	660
901.055	-621
901.158	-21
901.260	-41
901.362	549
901.465	-194
901.567	-187
901.669	499
901.771	269
901.873	435
901.976	419
902.078	408
902.180	532
902.282	-393
902.384	-503
902.486	886
902.588	574
902.690	517
902.792	465
902.894	456
902.996	474
903.098	888
903.200	537
903.302	1044
903.404	476
903.505	-291
903.607	-263
903.709	819
903.811	827
903.913	332
904.014	536
904.116	846
904.218	591
904.319	851
904.421	1486
904.523	1428
904.624	358
904.726	662
904.827	756
904.929	600
905.030	1016
905.132	310
905.233	516
905.335	175
905.436	-398
905.537	146
905.639	823
905.740	-310
905.841	252
905.943	499
906.044	943
906.145	291
906.247	-104
906.348	209
906.449	720
906.550	599
906.651	975
906.752	279
906.854	378
906.955	344
907.056	817
907.157	-326
907.258	475
907.359	-456
907.460	347
907.561	-227
907.662	159
907.762	-38
907.863	827
907.964	-132
908.065	859
908.166	-378
908.267	-714
908.367	61
908.468	490
908.569	494
908.670	364
908.770	-71
908.871	187
908.971	-311
909.072	336
909.173	-447
909.273	501
909.374	-206
909.474	-162
909.575	523
909.675	-240
909.776	-390
909.876	1054
909.977	591
910.077	691
910.177	461
910.278	476
910.378	-533
910.478	-355
910.579	-92
910.679	1165
910.779	-162
910.879	474
910.980	853
911.080	390
911.180	613
911.280	-472
911.380	-358
911.480	-425
911.580	218
911.680	88
911.780	424
911.880	421
911.980	-280
912.080	100
912.180	391
912.280	346
912.380	-239
912.480	386
912.580	-168
912.679	-241
912.779	-80
912.879	341
912.979	189
913.078	127
913.178	414
913.278	69
913.377	-143
913.477	-168
913.577	-720
913.676	415
913.776	144
913.875	111
913.975	33
914.074	-280
914.174	2
914.273	-427
914.373	220
914.472	563
914.572	-1183
914.671	-254
914.770	224
914.870	-733
914.969	94
915.068	184
915.167	-26
915.267	-192
915.366	-765
915.465	63
915.564	-102
915.663	253
915.763	-115
915.862	709
915.961	-250
916.060	-98
916.159	-370
916.258	-85
916.357	-119
916.456	435
916.555	-212
916.654	20
916.752	-418
916.851	197
916.950	-881
917.049	-589
917.148	-70
917.247	909
917.345	-533
917.444	3
917.543	-21
917.642	-260
917.740	312
917.839	213
917.937	-38
918.036	148
918.135	-519
918.233	80
918.332	-631
918.430	208
918.529	189
918.627	960
918.726	-439
918.824	-460
918.923	-395
919.021	250
919.119	-135
919.218	-296
919.316	-287
919.414	41
919.512	-2
919.611	262
919.709	564
919.807	-86
919.905	557
920.003	423
920.102	-158
920.200	485
920.298	-714
920.396	-115
920.494	607
920.592	158
920.690	219
920.788	276
920.886	-547
920.984	422
921.082	-25
921.180	1584
921.277	91
921.375	166
921.473	517
921.571	995
921.669	304
921.766	928
921.864	809
921.962	733
922.060	227
922.157	1140
922.255	470
922.352	995
922.450	1325
922.548	824
922.645	1342
922.743	1347
922.840	2040
922.938	2342
923.035	1769
923.133	2392
923.230	2153
923.327	4074
923.425	3391
923.522	3412
923.619	3745
923.717	2695
923.814	3000
923.911	2446
924.008	3436
924.106	2986
924.203	2747
924.300	2776
924.397	2027
924.494	2977
924.591	2423
924.688	1481
924.786	2127
924.883	2553
924.979	2772
925.077	2955
925.173	2750
925.270	2161
925.367	1935
925.464	3396
925.561	2859
925.658	2558
925.755	2813
925.852	2839
925.948	3140
926.045	3292
926.142	3567
926.239	3599
926.335	2961
926.432	3907
926.529	4833
926.625	3995
926.722	2545
926.818	2463
926.915	2940
927.011	2295
927.108	1693
927.204	1877
927.301	1817
927.397	1610
927.494	2780
927.590	2179
927.687	2160
927.783	3208
927.879	2319
927.976	1815
928.072	1172
928.168	2088
928.264	2638
928.361	2680
928.457	3401
928.553	1811
928.649	1878
928.745	2493
928.841	1366
928.937	2039
929.033	1749
929.129	1725
929.225	1690
929.321	1698
929.417	2158
929.513	2252
929.609	1537
929.705	2151
929.801	2344
929.897	1709
929.993	1374
930.089	1556
930.184	1192
930.280	2468
930.376	1245
930.471	1239
930.567	1471
930.663	2378
930.758	1092
930.854	1723
930.950	749
931.045	848
931.141	1800
931.236	2288
931.332	1655
931.427	938
931.523	1087
931.618	2041
931.714	899
931.809	1378
931.905	1476
932.000	741
932.095	337
932.191	1817
932.286	2331
932.381	1355
932.476	341
932.572	1606
932.667	549
932.762	1188
932.857	1829
932.952	2203
933.047	673
933.142	479
933.237	1109
933.332	1446
933.427	1075
933.522	1413
933.617	783
933.712	1303
933.807	1235
933.902	1158
933.997	1743
934.092	1157
934.187	1449
934.282	914
934.376	916
934.471	1605
934.566	952
934.661	1116
934.755	1044
934.850	1578
934.945	1237
935.039	969
935.134	687
935.228	777
935.323	2048
935.417	1750
935.512	-312
935.606	425
935.701	977
935.795	1795
935.890	928
935.984	1152
936.079	-22
936.173	1735
936.267	1425
936.362	822
936.456	211
936.550	1107
936.644	1394
936.738	1321
936.833	1315
936.927	543
937.021	-387
937.115	1850
937.209	765
937.303	2045
937.397	315
937.491	436
937.585	1057
937.679	1154
937.773	455
937.867	532
937.961	-327
938.055	1468
938.149	1631
938.243	636
938.337	-27
938.430	1217
938.524	1402
938.618	3513
938.712	2654
938.805	1493
938.899	1524
938.993	2170
939.086	1602
939.180	2686
939.274	3256
939.367	2389
939.461	627
939.554	1520
939.648	186
939.741	514
939.835	665
939.928	2286
940.022	1077
940.115	770
940.208	817
940.302	1786
940.395	1549
940.488	555
940.582	376
940.675	341
940.768	75
940.861	948
940.954	1355
941.048	73
941.141	-271
941.234	169
941.327	72
941.420	1034
941.513	1699
941.606	1035
941.699	1727
941.792	1180
941.885	563
941.978	1173
942.071	1083
942.164	178
942.257	-513
942.349	754
942.442	501
942.535	-377
942.628	280
942.721	323
942.813	-2
942.906	1059
942.999	604
943.091	67
943.184	217
943.277	-413
943.369	155
943.462	-668
943.554	282
943.647	330
943.739	953
943.832	962
943.924	-654
944.017	445
944.109	39
944.201	642
944.294	530
944.386	744
944.478	583
944.571	-75
944.663	1102
944.755	193
944.847	1795
944.940	1128
945.032	-77
945.124	-216
945.216	904
945.308	744
945.400	508
945.492	1140
945.584	159
945.676	472
945.768	191
945.860	267
945.952	670
946.044	1455
946.136	957
946.228	-227
946.320	581
946.412	246
946.503	79
946.595	1248
946.687	-288
946.779	405
946.870	-462
946.962	249
947.054	658
947.145	1284
947.237	-156
947.329	-358
947.420	-316
947.512	283
947.603	-399
947.695	595
947.786	-373
947.878	345
947.969	592
948.061	-121
948.152	-82
948.243	-78
948.335	-510
948.426	688
948.517	-104
948.609	666
948.700	112
948.791	-5
948.882	-558
948.973	0
949.065	51
949.156	1121
949.247	-157
949.338	-565
949.429	-590
949.520	-34
949.611	-1099
949.702	886
949.793	144
949.884	407
949.975	-477
950.066	697
950.157	-91
950.247	783
950.338	-685
950.429	-191
950.520	-554
950.611	-45
950.701	-492
950.792	-238
950.883	126
950.973	-327
951.064	188
951.155	152
951.245	467
951.336	673
951.427	195
951.517	1752
951.608	-14
951.698	-119
951.788	-804
951.879	-209
951.969	-311
952.060	-510
952.150	-382
952.240	409
952.331	-866
952.421	835
952.511	-1185
952.602	-21
952.692	-673
952.782	-539
952.872	-579
952.962	260
953.052	-344
953.143	-71
953.233	-110
953.323	156
953.413	145
953.503	312
953.593	-233
953.683	-121
953.773	-942
953.863	-34
953.953	-320
954.042	-421
954.132	-253
954.222	789
954.312	-918
954.402	-268
954.492	-432
954.581	958
954.671	-448
954.761	-873
954.850	740
954.940	-368
955.030	-1333
955.119	-625
955.209	-32
955.298	-245
955.388	-268
955.477	813
955.567	-793
955.656	215
955.746	-490
955.835	-410
955.925	-403
956.014	460
956.103	53
956.193	-22
956.282	-467
956.371	436
956.461	-349
956.550	-845
956.639	-752
956.728	-180
956.817	-42
956.906	45
956.995	-796
957.085	88
957.174	-688
957.263	-501
957.352	-269
957.441	-810
957.530	-350
957.619	360
957.708	-513
957.796	-366
957.885	-436
957.974	-639
958.063	35
958.152	-694
958.241	-909
958.329	-470
958.418	-491
958.507	-997
958.596	134
958.684	-480
958.773	-131
958.861	-858
958.950	-146
959.039	-355
959.127	-533
959.216	262
959.304	-803
959.393	-317
959.481	-899
959.570	-666
959.658	-1203
959.746	-915
959.835	-24
959.923	-649
960.011	-931
960.100	167
960.188	-514
960.276	-94
960.365	-667
960.453	-401
960.541	-1104
960.629	-122
960.717	-1154
960.805	-915
960.893	-536
960.981	-959
961.069	375
961.158	267
961.245	-112
961.333	13
961.421	-551
961.509	-48
961.597	268
961.685	-763
961.773	-1090
961.861	-653
961.949	-144
962.036	-304
962.124	-345
962.212	-1278
962.299	-602
962.387	-890
962.475	-1170
962.562	-900
962.650	-969
962.738	30
962.825	-596
962.913	-454
963.000	-738
963.088	-892
963.175	-1089
963.263	-163
963.350	-912
963.438	-125
963.525	-1255
963.612	637
963.700	-972
963.787	-82
963.874	-199
963.962	-241
964.049	-452
964.136	-1295
964.223	-1310
964.310	-772
964.398	-420
964.485	-1271
964.572	-407
964.659	-17
964.746	-1746
964.833	-578
964.920	-144
965.007	-1069
965.094	-1369
965.181	-386
965.268	-938
965.355	-671
965.441	-214
965.528	-1256
965.615	-667
965.702	-758
965.789	-574
965.875	-126
965.962	-772
966.049	-949
966.136	403
966.222	-1263
966.309	-863
966.395	-592
966.482	33
966.569	-654
966.655	-1051
966.742	-378
966.828	-1107
966.915	-1592
967.001	-1169
967.087	-1333
967.174	-881
967.260	-1291
967.347	-1296
967.433	-1119
967.519	-824
967.605	-571
967.692	-850
967.778	-556
967.864	-1516
967.950	-738
968.036	-1853
968.123	-582
968.209	-628
968.295	-1650
968.381	236
968.467	58
968.553	-1983
968.639	-270
968.725	-783
968.811	-546
968.897	-235
968.983	-801
969.069	-871
969.154	-31
969.240	-1077
969.326	-1343
969.412	-401
969.497	-946
969.583	-819
969.669	189
969.755	-723
969.840	-587
969.926	-413
970.012	-413
970.097	596
970.183	70
970.268	-842
970.354	-1227
970.439	-1929
970.525	-627
970.610	-1635
970.696	-452
970.781	-857
970.866	-977
970.952	-673
971.037	-2049
971.122	-1398
971.208	-1081
971.293	-630
971.378	-1790
971.463	-1026
971.549	-117
971.634	-1023
971.719	-803
971.804	-994
971.889	3
971.974	-1725
972.059	-1100
972.144	-209
972.229	-1068
972.314	-655
972.399	-280
972.484	-1648
972.569	-556
972.654	-1842
972.739	-497
972.824	-1491
972.908	-665
972.993	-757
973.078	-2027
973.163	-1593
973.247	-1017
973.332	-2377
973.417	858
973.501	-1975
973.586	-1120
973.671	-1243
973.755	-1117
973.840	-282
973.924	-1013
974.009	-394
974.093	-1506
974.178	-135
974.262	-562
974.346	-1084
974.431	236
974.515	-930
974.600	-344
974.684	-421
974.768	-232
974.852	-254
974.937	-969
975.021	-454
975.105	-659
975.189	-118
975.273	-266
975.358	-498
975.442	-1562
975.526	-637
975.610	-1183
975.694	-1038
975.778	471
975.862	-1207
975.946	-2591
976.030	166
976.114	-1533
976.198	-1746
976.281	-586
976.365	-956
976.449	-1005
976.533	-1239
976.617	-1271
976.700	-1122
976.784	-227
976.868	-1414
976.951	-1070
977.035	-1421
977.119	-1243
977.202	-1015
977.286	-659
977.369	-951
977.453	-548
977.536	-838
977.620	-757
977.703	-292
977.787	-984
977.870	-983
977.953	-343
978.037	-1721
978.120	353
978.203	-1139
978.287	-798
978.370	-1387
978.453	-580
978.536	-1719
978.620	-313
978.703	-1193
978.786	-1549
978.869	-1976
978.952	-1294
979.035	-385
979.118	-251
979.201	-1424
979.284	-306
979.367	-1335
979.450	-493
979.533	-1900
979.616	-1281
979.699	-1732
979.782	-54
979.865	-1301
979.948	-1023
980.030	-2472
980.113	-548
980.196	-1624
980.279	-604
980.361	-1709
980.444	-901
980.526	77
980.609	-707
980.692	-269
980.774	436
980.857	-1902
980.939	134
981.022	-1356
981.104	-850
981.187	-1174
981.269	-900
981.352	-710
981.434	-1515
981.516	-1525
981.599	43
981.681	-464
981.763	-604
981.846	-952
981.928	-712
982.010	-1037
982.092	-1715
982.174	-431
982.256	-428
982.339	-1113
982.421	-731
982.503	-286
982.585	-688
982.667	-345
982.749	-984
982.831	-914
982.913	-1067
982.995	-456
983.077	-875
983.158	-218
983.240	-1052
983.322	-391
983.404	890
983.486	-995
983.568	-580
983.649	-897
983.731	-651
983.813	-1087
983.894	-472
983.976	-1513
984.058	-930
984.139	112
984.221	-465
984.302	-646
984.384	-916
984.465	-782
984.547	221
984.628	-1488
984.710	261
984.791	-1246
984.872	-280
984.954	-1359
985.035	-767
985.116	-1436
985.198	-1267
985.279	-101
985.360	-352
985.441	-1605
985.522	-107
985.604	-941
985.685	-1884
985.766	-1342
985.847	492
985.928	-1536
986.009	-891
986.090	-1400
986.171	-949
986.252	-315
986.333	-256
986.414	-198
986.495	-674
986.576	-269
986.656	-207
986.737	-814
986.818	-1450
986.899	-1008
986.980	-1229
987.060	-370
987.141	-875
987.222	-602
987.302	-725
987.383	-671
987.464	-478
987.544	-509
987.625	-976
987.705	-196
987.786	214
987.866	-764
987.947	0
988.027	-1248
988.108	-363
988.188	-511
988.268	178
988.349	-883
988.429	-334
988.509	-442
988.589	-172
988.670	-1753
988.750	720
988.830	-102
988.910	546
988.990	-885
989.070	-378
989.151	-1142
989.231	-1691
989.311	-708
989.391	368
989.471	-516
989.551	-246
989.631	-680
989.711	151
989.791	-1146
989.870	-1342
989.950	755
990.030	-1351
990.110	-452
990.190	-1282
990.269	-902
990.349	-1402
990.429	-383
990.509	-623
990.588	-866
990.668	-66
990.747	-537
990.827	-919
990.907	98
990.986	-1217
991.066	-1330
991.145	-767
991.225	-691
991.304	-573
991.383	-1416
991.463	-758
991.542	-1196
991.622	-789
991.701	-716
991.780	-1052
991.859	-1040
991.939	-904
992.018	-747
992.097	-505
992.176	-811
992.256	-1914
992.335	-1874
992.414	-380
992.493	-1502
992.572	-1046
992.651	60
992.730	-153
992.809	-945
992.888	-1372
992.967	-1344
993.046	-620
993.125	-1363
993.203	-1282
993.282	-939
993.361	-1214
993.440	-858
993.519	-797
993.597	-977
993.676	-1583
993.755	-577
993.834	-1030
993.912	-2243
993.991	126
994.069	-1103
994.148	-742
994.226	-1566
994.305	-1125
994.384	-1308
994.462	-238
994.540	-2063
994.619	-1779
994.697	-1151
994.776	-1508
994.854	-399
994.932	-1113
995.011	-1579
995.089	-1346
995.167	-542
995.245	-1099
995.324	-2117
995.402	-1180
995.480	-1068
995.558	-1024
995.636	-1806
995.714	-1350
995.792	-7
995.870	-1696
995.948	-966
996.026	-895
996.104	-2136
996.182	-721
996.260	-1788
996.338	-768
996.416	-2135
996.494	-1508
996.572	-898
996.649	-1773
996.727	-1529
996.805	-640
996.883	-1413
996.960	-1635
997.038	-369
997.116	-1223
997.193	-1699
997.271	-1110
997.348	-1542
997.426	-643
997.504	-2391
997.581	-1007
997.658	-688
997.736	-1863
997.813	-2146
997.891	-586
997.968	-2373
998.046	-1205
998.123	-1574
998.200	-1461
998.277	-1730
998.355	-717
998.432	-2491
998.509	-837
998.586	-830
998.663	-1015
998.741	-1121
998.818	-1459
998.895	-1852
998.972	-906
999.049	-1307
999.126	-1089
999.203	-1301
999.280	-1514
999.357	-1837
999.434	-1861
999.511	-1533
999.587	-999
999.664	-2332
999.741	-1316
999.818	-1536
999.895	-1655
999.971	-2305
1000.048	-1558
1000.125	-314
1000.202	-2042
1000.278	-1497
1000.355	-1171
1000.431	-1460
1000.508	-2076
1000.584	-1537
1000.661	-924
1000.738	-1836
1000.814	-1934
1000.890	-1357
1000.967	-1022
1001.043	-1386
1001.120	-2851
1001.196	-1291
1001.272	-1819
1001.349	-1865
1001.425	-754
1001.501	-1597
1001.577	-2504
1001.654	-1409
1001.730	-1397
1001.806	-1505
1001.882	-1866
1001.958	-1203
1002.034	-1290
1002.110	-1450
1002.186	-1680
1002.262	-1476
1002.338	-1661
1002.414	-694
1002.490	-1726
1002.566	-2221
1002.642	-1847
1002.718	-1062
1002.794	-1073
1002.870	-1641
1002.945	-692
1003.021	-1480
1003.097	-1524
1003.173	-1848
1003.248	-1816
1003.324	-1981
1003.400	-2029
1003.475	-2537
1003.551	-1622
1003.626	-2640
1003.702	-2564
1003.777	-1640
1003.853	-1396
1003.928	-2044
1004.004	-1680
1004.079	-1538
1004.155	-1317
1004.230	-2624
1004.305	-502
1004.381	-2386
1004.456	-1295
1004.531	-1886
1004.607	-1089
1004.682	-2325
1004.757	-978
1004.832	-1710
1004.907	-2333
1004.982	-1757
1005.057	-1400
1005.133	-2687
1005.208	-1794
1005.283	-2871
1005.358	-1934
1005.433	-2788
1005.508	-1243
1005.583	-2512
1005.657	-2617
1005.732	-888
1005.807	-1674
1005.882	-1764
1005.957	-2343
1006.032	-989
1006.106	-1532
1006.181	-2026
1006.256	-1872
1006.331	-2144
1006.405	-1753
1006.480	-1205
1006.554	-1735
1006.629	-1539
1006.704	-1761
1006.778	-2860
1006.853	-914
1006.927	-1695
1007.002	-1738
1007.076	-2056
1007.150	-1619
1007.225	-2106
1007.299	-1614
1007.373	-2599
1007.448	-959
1007.522	-1609
1007.596	-2156
1007.671	-2303
1007.745	-1523
1007.819	-2381
1007.893	-1302
1007.967	-1192
1008.041	-2392
1008.115	-1391
1008.190	-2592
1008.264	-2068
1008.338	-2663
1008.412	-2995
1008.486	-884
1008.560	-2436
1008.633	-1449
1008.707	-1726
1008.781	-1571
1008.855	-2224
1008.929	-1613
1009.003	-1884
1009.076	-1882
1009.150	-1955
1009.224	-1752
1009.298	-1804
1009.371	-2199
1009.445	-1589
1009.519	-1974
1009.592	-2255
1009.666	-888
1009.739	-2191
1009.813	-1737
1009.886	-562
1009.960	-2579
1010.033	-1127
1010.107	-1363
1010.180	-2309
1010.253	-1865
1010.327	-1716
1010.400	-1922
1010.473	-1731
1010.547	66
1010.620	-2193
1010.693	-1313
1010.766	-2044
1010.840	-1301
1010.913	-1554
1010.986	-1761
1011.059	-1323
1011.132	-1855
1011.205	-580
1011.278	-1976
1011.351	-1847
1011.424	-1393
1011.497	-1924
1011.570	-1973
1011.643	-2052
1011.716	-1540
1011.789	-1918
1011.862	-1197
1011.934	-1501
1012.007	-2800
1012.080	-2622
1012.153	-1367
1012.225	-1177
1012.298	-2469
1012.371	-1326
1012.443	-783
1012.516	-2891
1012.588	-1368
1012.661	-1398
1012.733	-2032
1012.806	-2101
1012.879	-1470
1012.951	-2560
1013.023	-2172
1013.096	-2174
1013.168	-1891
1013.241	-1787
1013.313	-1657
1013.385	-2011
1013.458	-2312
1013.530	-2217
1013.602	-3321
1013.674	-2165
1013.746	-1815
1013.819	-1877
1013.891	-1514
1013.963	-2615
1014.035	-1627
1014.107	-578
1014.179	-741
1014.251	-2175
1014.323	-1280
1014.395	-1073
1014.467	-2259
1014.539	-1756
1014.611	-2736
1014.683	-1312
1014.754	-2234
1014.826	-2487
1014.898	-1192
1014.970	-3092
1015.042	-1006
1015.113	-2104
1015.185	-1633
1015.257	-3453
1015.328	-1445
1015.400	-2790
1015.471	-2350
1015.543	-2980
1015.615	-1305
1015.686	-1914
1015.757	-1483
1015.829	-1440
1015.901	-2339
1015.972	-1712
1016.043	-2197
1016.115	-1720
1016.186	-1228
1016.257	-2165
1016.328	-1613
1016.400	-1411
1016.471	-1501
1016.542	-2112
1016.613	-1644
1016.685	-1934
1016.756	-1482
1016.827	-2269
1016.898	-2328
1016.969	-1077
1017.040	-2144
1017.111	-2377
1017.182	-2238
1017.253	-1630
1017.324	-2308
1017.395	-2045
1017.466	-1476
1017.537	-2603
1017.608	-1780
1017.678	-2077
1017.749	-2253
1017.820	-1362
1017.891	-2842
1017.961	-2105
1018.032	-1159
1018.103	-1705
1018.173	-1850
1018.244	-2305
1018.315	-1669
1018.385	-2113
1018.456	-1917
1018.526	-2873
1018.597	-2062
1018.667	-2641
1018.738	-2074
1018.808	-2328
1018.878	-2052
1018.949	-2057
1019.019	-2257
1019.089	-2641
1019.160	-1980
1019.230	-1853
1019.300	-2459
1019.371	-2656
1019.441	-1874
1019.511	-2794
1019.581	-2140
1019.651	-1605
1019.721	-1348
1019.791	-2168
1019.861	-2051
1019.931	-2213
1020.001	-1891
1020.071	-2302
1020.141	-2376
1020.211	-2808
1020.281	-2258
1020.351	-2302
1020.421	-1534
1020.491	-1995
1020.560	-2168
1020.630	-2005
1020.700	-1456
1020.770	-1814
1020.839	-1953
1020.909	-2708
1020.979	-1990
1021.048	-2173
1021.118	-2167
1021.187	-2119
1021.257	-2601
1021.326	-1914
1021.396	-1999
1021.465	-1813
1021.535	-1444
1021.604	-2901
1021.674	-1900
1021.743	-2435
1021.812	-1833
1021.882	-2030
1021.951	-2183
1022.020	-1713
1022.089	-1587
1022.159	-2127
1022.228	-1996
1022.297	-2608
1022.366	-2139
1022.435	-1578
1022.504	-2401
1022.573	-1822
1022.642	-1422
1022.711	-1875
1022.781	-2183
1022.849	-2323
1022.918	-2531
1022.987	-1850
1023.056	-2335
1023.125	-1696
1023.194	-2054
1023.263	-2081
1023.331	-1771
1023.400	-2714
1023.469	-2163
1023.538	-1736
1023.606	-2886
1023.675	-2406
1023.744	-2414
1023.812	-2705
1023.881	-1653
1023.949	-2534
1024.018	-2754
1024.086	-2593
1024.155	-1825
1024.223	-2380
1024.292	-1860
1024.360	-1841
1024.429	-1323
1024.497	-2507
1024.565	-1589
1024.634	-2023
1024.702	-1657
1024.770	-1896
1024.838	-2010
1024.907	-2116
1024.975	-1753
1025.043	-2145
1025.111	-2753
1025.179	-1929
1025.247	-1709
1025.315	-1919
1025.383	-2318
1025.451	-2740
1025.519	-2168
1025.587	-2558
1025.655	-1958
1025.723	-2698
1025.791	-2600
1025.859	-1636
1025.927	-1606
1025.995	-2207
1026.062	-1525
1026.130	-2570
1026.198	-1845
1026.266	-2153
1026.333	-1568
1026.401	-2357
1026.469	-2064
1026.536	-2439
1026.604	-2110
1026.671	-2330
1026.739	-2117
1026.806	-2178
1026.874	-1846
1026.941	-2141
1027.009	-1774
1027.076	-1664
1027.144	-1985
1027.211	-3000
1027.278	-2205
1027.345	-1728
1027.413	-2201
1027.480	-2033
1027.547	-1710
1027.614	-2748
1027.682	-2049
1027.749	-2026
1027.816	-1875
1027.883	-1856
1027.950	-2274
1028.017	-1785
1028.084	-1114
1028.151	-2178
1028.218	-2259
1028.285	-2212
1028.352	-1929
1028.419	-2426
1028.486	-1719
1028.553	-1852
1028.619	-2115
1028.686	-1620
1028.753	-2516
1028.820	-2699
1028.886	-2390
1028.953	-2644
1029.020	-2121
1029.086	-2097
1029.153	-2175
1029.220	-2452
1029.286	-1926
1029.353	-2151
1029.419	-2629
1029.486	-2536
1029.552	-1535
1029.619	-2454
1029.685	-1777
1029.751	-2100
1029.818	-932
1029.884	-1983
1029.951	-1390
1030.017	-2199
1030.083	-2160
1030.149	-2543
1030.216	-2939
1030.282	-1934
1030.348	-1899
1030.414	-2916
1030.480	-2305
1030.546	-2551
1030.612	-1862
1030.678	-2291
1030.744	-2282
1030.810	-2058
1030.876	-2396
1030.942	-3138
1031.008	-2293
1031.074	-1737
1031.140	-2186
1031.206	-2019
1031.272	-2327
1031.337	-2082
1031.403	-2439
1031.469	-1987
1031.534	-2324
1031.600	-1343
1031.666	-2423
1031.731	-2308
1031.797	-2333
1031.863	-1847
1031.928	-1814
1031.994	-1930
1032.059	-1741
1032.125	-2542
1032.190	-2130
1032.256	-2728
1032.321	-2498
1032.386	-2738
1032.452	-1776
1032.517	-2881
1032.582	-2733
1032.647	-1992
1032.713	-2897
1032.778	-2370
1032.843	-1843
1032.908	-2898
1032.974	-1215
1033.039	-2464
1033.104	-2521
1033.169	-1830
1033.234	-1729
1033.299	-1864
1033.364	-1455
1033.429	-2507
1033.494	-1947
1033.559	-1806
1033.624	-2457
1033.688	-2125
1033.753	-2597
1033.818	-2566
1033.883	-1485
1033.948	-2883
1034.013	-2456
1034.077	-2214
1034.142	-1463
1034.207	-2057
1034.271	-366
1034.336	13
1034.400	-1318
1034.465	-1905
1034.530	-1542
1034.594	-2061
1034.658	-1964
1034.723	-2535
1034.787	-2040
1034.852	-2304
1034.916	-2056
1034.981	-2417
1035.045	-1739
1035.109	-2084
1035.173	-1674
1035.238	-2793
1035.302	-1693
1035.366	-2418
1035.430	-2391
1035.495	-2345
1035.559	-1691
1035.623	-1641
1035.687	-2203
1035.751	-2444
1035.815	-2142
1035.879	-1917
1035.943	-1888
1036.007	-2357
1036.071	-1486
1036.135	-2503
1036.198	-1594
1036.262	-2420
1036.326	-2870
1036.390	-2325
1036.454	-2344
1036.517	-1788
1036.581	-2112
1036.645	-2536
1036.709	-1816
1036.772	-2088
1036.836	-1899
1036.900	-2610
1036.963	-2510
1037.026	-1922
1037.090	-3319
1037.154	-2431
1037.217	-2222
1037.280	-3024
1037.344	-2039
1037.407	-2695
1037.471	-1546
1037.534	-2257
1037.597	-1974
1037.661	-2822
1037.724	-1544
1037.787	-2247
1037.850	-2081
1037.913	-2802
1037.977	-2052
1038.040	-1968
1038.103	-1551
1038.166	-2338
1038.229	-2482
1038.292	-2794
1038.355	-2509
1038.418	-2575
1038.481	-874
1038.544	-2209
1038.607	-2695
1038.670	-2293
1038.732	-2041
1038.795	-2621
1038.858	-2251
1038.921	-2328
1038.984	-1460
1039.046	-2634
1039.109	-3018
1039.172	-2923
1039.234	-2442
1039.297	-2968
1039.360	-1772
1039.422	-2915
1039.485	-2580
1039.547	-2862
1039.610	-2263
1039.672	-2179
1039.734	-1944
1039.797	-2095
1039.859	-2723
1039.922	-2508
1039.984	-2517
1040.046	-2605
1040.109	-2205
1040.171	-2704
1040.233	-2729
1040.295	-2677
1040.358	-2432
1040.420	-2995
1040.482	-2343
1040.544	-2721
1040.606	-2509
1040.668	-2816
1040.730	-2336
1040.792	-2153
1040.854	-2469
1040.916	-2708
1040.978	-3055
1041.040	-1945
1041.102	-2207
1041.164	-2924
1041.225	-2799
1041.287	-2472
1041.349	-2051
1041.411	-2304
1041.472	-2604
1041.534	-3103
1041.596	-1875
1041.657	-2692
1041.719	-1689
1041.781	-3090
1041.842	-2915
1041.904	-2187
1041.965	-2121
1042.027	-2471
1042.088	-2086
1042.150	-2462
1042.211	-2670
1042.272	-1702
1042.334	-2499
1042.395	-3114
1042.456	-1980
1042.518	-2523
1042.579	-1653
1042.640	-2613
1042.701	-2034
1042.763	-3001
1042.824	-2253
1042.885	-2798
1042.946	-2740
1043.007	-2490
1043.068	-2479
1043.129	-2415
1043.190	-2850
1043.251	-1874
1043.312	-2548
1043.373	-1992
1043.434	-3158
1043.495	-2463
1043.556	-2152
1043.616	-2410
1043.677	-2128
1043.738	-2176
1043.799	-2495
1043.859	-2918
1043.920	-2582
1043.981	-2925
1044.041	-2968
1044.102	-2736
1044.162	-1491
1044.223	-2370
1044.284	-2622
1044.344	-1693
1044.405	-2436
1044.465	-2647
1044.525	-2063
1044.586	-2597
1044.646	-1862
1044.707	-2482
1044.767	-2151
1044.827	-2503
1044.887	-1631
1044.948	-2952
1045.008	-2246
1045.068	-2642
1045.128	-1226
1045.188	-2408
1045.249	-2205
1045.309	-2684
1045.369	-2131
1045.429	-2748
1045.489	-2409
1045.549	-2362
1045.609	-1755
1045.669	-2402
1045.729	-1623
1045.789	-1941
1045.848	-1827
1045.908	-1749
1045.968	-1316
1046.028	-2323
1046.088	-2235
1046.147	-1547
1046.207	-1226
1046.267	-2143
1046.326	-2112
1046.386	-1783
1046.446	-1499
1046.505	-1760
1046.565	-1328
1046.624	-1232
1046.684	-1094
1046.743	-987
1046.803	-1268
1046.862	-473
1046.922	0
