'Start Wavelength	183.907
'End Wavelength	1046.922
'Gate Delay	5.000
'Gate Width (ms)	1.050
'Laser Output Level	0.000
'X Position	0.000
'Y Position	0.000
'Z Position	0.000
'Grid Point Number	1.000
'Shot Number	100.000
183.907	726.000
183.977	165.000
184.047	44
184.116	-178
184.186	-6
184.256	485
184.325	35
184.395	-530
184.465	453
184.534	655
184.604	-44
184.674	97
184.743	494
184.813	615
184.883	-284
184.952	562
185.022	229
185.092	285
185.161	-212
185.231	339
185.301	118
185.370	-422
185.440	67
185.509	-515
185.579	-263
185.649	243
185.718	132
185.788	420
185.857	540
185.927	-61
185.996	219
186.066	-131
186.136	49
186.205	35
186.275	-66
186.344	208
186.414	-36
186.483	-349
186.553	551
186.622	300
186.692	-111
186.761	-79
186.831	-316
186.900	-465
186.970	-173
187.039	82
187.109	300
187.178	585
187.248	-86
187.317	586
187.387	-152
187.456	-158
187.526	68
187.595	876
187.664	-349
187.734	841
187.803	186
187.873	-38
187.942	450
188.012	12
188.081	-34
188.150	-61
188.220	653
188.289	249
188.358	403
188.428	105
188.497	265
188.567	279
188.636	10
188.705	215
188.775	-365
188.844	229
188.913	152
188.983	-423
189.052	-631
189.121	-299
189.191	-84
189.260	666
189.329	-133
189.399	-440
189.468	630
189.537	249
189.606	29
189.676	126
189.745	1010
189.814	-390
189.883	-255
189.953	139
190.022	-239
190.091	283
190.161	-264
190.230	279
190.299	69
190.368	-506
190.437	-110
190.507	317
190.576	-929
190.645	320
190.714	-454
190.783	92
190.853	-415
190.922	249
190.991	-149
191.060	263
191.129	210
191.198	-369
191.268	12
191.337	-184
191.406	500
191.475	352
191.544	16
191.613	415
191.682	-52
191.752	203
191.821	-647
191.890	-203
191.959	-304
192.028	-193
192.097	402
192.166	-369
192.235	-280
192.304	-12
192.373	212
192.442	-422
192.511	432
192.580	-103
192.650	632
192.719	-73
192.788	-64
192.857	163
192.926	-212
192.995	-797
193.064	-463
193.133	0
193.202	27
193.271	8
193.340	247
193.409	-26
193.478	78
193.547	-185
193.615	-282
193.684	300
193.753	128
193.822	-67
193.891	-68
193.960	-353
194.029	-1
194.098	-324
194.167	31
194.236	284
194.305	-82
194.374	-82
194.443	-244
194.512	890
194.580	499
194.649	249
194.718	-35
194.787	438
194.856	-452
194.925	-138
194.994	41
195.062	43
195.131	-311
195.200	-143
195.269	-176
195.338	-300
195.407	-371
195.475	66
195.544	143
195.613	-661
195.682	73
195.751	-198
195.819	-383
195.888	-180
195.957	1191
196.026	-173
196.094	44
196.163	250
196.232	-246
196.301	-138
196.369	690
196.438	642
196.507	-242
196.576	6
196.644	-166
196.713	59
196.782	-658
196.850	88
196.919	-767
196.988	807
197.056	-674
197.125	-71
197.194	412
197.262	96
197.331	-155
197.400	-122
197.468	-410
197.537	-99
197.606	481
197.674	482
197.743	258
197.812	99
197.880	-37
197.949	607
198.017	-257
198.086	339
198.155	57
198.223	142
198.292	-917
198.360	-353
198.429	571
198.497	144
198.566	-205
198.635	-235
198.703	-262
198.772	41
198.840	357
198.909	-509
198.977	91
199.046	-481
199.114	536
199.183	539
199.251	366
199.320	-327
199.388	-148
199.457	6
199.525	547
199.594	-247
199.662	95
199.731	-322
199.799	-283
199.867	-5
199.936	156
200.004	-360
200.073	301
200.141	57
200.210	-473
200.278	37
200.346	325
200.415	72
200.483	-101
200.552	-223
200.620	150
200.688	-407
200.757	198
200.825	-542
200.893	196
200.962	333
201.030	-973
201.098	-300
201.167	-364
201.235	178
201.303	-283
201.372	-147
201.440	115
201.508	-88
201.577	-221
201.645	-356
201.713	306
201.781	269
201.850	259
201.918	-1326
201.986	111
202.055	607
202.123	117
202.191	-81
202.259	194
202.327	323
202.396	-124
202.464	82
202.532	-220
202.600	-111
202.669	-752
202.737	-204
202.805	-668
202.873	178
202.941	702
203.009	-90
203.078	-477
203.146	14
203.214	653
203.282	-645
203.350	-500
203.418	-279
203.487	-555
203.555	9
203.623	-80
203.691	-21
203.759	-576
203.827	-211
203.895	2
203.963	99
204.031	-698
204.099	-576
204.168	-151
204.236	-133
204.304	-258
204.372	-381
204.440	59
204.508	-487
204.576	-580
204.644	411
204.712	810
204.780	-263
204.848	507
204.916	-203
204.984	99
205.052	-98
205.120	72
205.188	-607
205.256	92
205.324	278
205.392	-294
205.460	-442
205.528	-136
205.596	-965
205.664	-7
205.732	-246
205.799	677
205.867	269
205.935	-615
206.003	-186
206.071	-914
206.139	-765
206.207	-544
206.275	-56
206.343	-35
206.411	326
206.478	-627
206.546	-1020
206.614	100
206.682	-61
206.750	-345
206.818	333
206.885	-222
206.953	-495
207.021	467
207.089	626
207.157	-80
207.225	-589
207.292	325
207.360	-385
207.428	-32
207.496	-202
207.563	2
207.631	-351
207.699	-1007
207.767	-357
207.834	-289
207.902	-79
207.970	-48
208.038	-542
208.105	449
208.173	421
208.241	-404
208.309	486
208.376	164
208.444	277
208.512	-811
208.579	-693
208.647	-186
208.715	515
208.782	-378
208.850	-154
208.918	-728
208.985	-186
209.053	-324
209.120	210
209.188	-176
209.256	-852
209.323	-49
209.391	-445
209.459	836
209.526	-88
209.594	35
209.661	288
209.729	-93
209.796	-232
209.864	-216
209.932	-370
209.999	-46
210.067	92
210.134	222
210.202	179
210.269	-366
210.337	225
210.404	-118
210.472	385
210.539	235
210.607	277
210.674	291
210.742	-261
210.809	362
210.877	536
210.944	83
211.012	-560
211.079	621
211.146	-87
211.214	-324
211.281	380
211.349	-381
211.416	-46
211.484	-531
211.551	25
211.618	509
211.686	262
211.753	-581
211.821	410
211.888	988
211.955	132
212.023	-161
212.090	-220
212.157	-125
212.225	-43
212.292	256
212.359	276
212.427	961
212.494	603
212.561	-70
212.629	-93
212.696	-255
212.763	444
212.831	-119
212.898	269
212.965	274
213.032	-501
213.100	102
213.167	-32
213.234	-197
213.301	-226
213.369	329
213.436	98
213.503	-186
213.570	373
213.638	518
213.705	-85
213.772	-657
213.839	-170
213.906	183
213.973	16
214.041	-193
214.108	605
214.175	401
214.242	-333
214.309	277
214.376	-87
214.444	67
214.511	193
214.578	460
214.645	585
214.712	287
214.779	129
214.846	44
214.913	-6
214.980	-167
215.048	265
215.115	-431
215.182	34
215.249	-73
215.316	-321
215.383	359
215.450	370
215.517	84
215.584	495
215.651	-114
215.718	-503
215.785	35
215.852	-361
215.919	-275
215.986	-123
216.053	-128
216.120	-195
216.187	43
216.254	-186
216.321	-234
216.388	710
216.455	225
216.522	306
216.589	640
216.656	104
216.722	27
216.789	919
216.856	-238
216.923	26
216.990	-254
217.057	687
217.124	-201
217.191	356
217.258	493
217.324	306
217.391	919
217.458	-69
217.525	98
217.592	257
217.659	-293
217.725	243
217.792	34
217.859	-52
217.926	-750
217.993	207
218.059	-57
218.126	190
218.193	-182
218.260	-388
218.327	881
218.393	-376
218.460	-654
218.527	-48
218.594	270
218.660	453
218.727	789
218.794	-92
218.860	696
218.927	-295
218.994	-335
219.061	-17
219.127	125
219.194	-344
219.261	-260
219.327	-416
219.394	110
219.461	-698
219.527	566
219.594	293
219.661	-170
219.727	-498
219.794	416
219.860	-813
219.927	785
219.994	260
220.060	769
220.127	-46
220.193	250
220.260	-225
220.326	378
220.393	1059
220.460	2174
220.526	218
220.593	495
220.659	1048
220.726	1022
220.792	968
220.859	1027
220.925	1963
220.992	2423
221.058	2370
221.125	1765
221.191	701
221.258	534
221.324	-88
221.391	320
221.457	-231
221.524	-205
221.590	-76
221.657	805
221.723	571
221.789	-435
221.856	200
221.922	228
221.989	339
222.055	-359
222.121	-363
222.188	813
222.254	-102
222.321	-72
222.387	-330
222.453	-32
222.520	-330
222.586	55
222.652	-477
222.719	-147
222.785	-224
222.851	146
222.918	-582
222.984	-8
223.050	-7
223.116	-583
223.183	193
223.249	-370
223.315	-866
223.382	-134
223.448	-273
223.514	-394
223.580	-660
223.647	-687
223.713	-122
223.779	-324
223.845	-310
223.911	-355
223.978	29
224.044	-524
224.110	186
224.176	924
224.242	294
224.309	-142
224.375	48
224.441	-345
224.507	-462
224.573	-1114
224.639	-490
224.705	-440
224.772	-344
224.838	-42
224.904	220
224.970	-99
225.036	89
225.102	-137
225.168	237
225.234	695
225.300	-50
225.366	-90
225.432	-48
225.499	-63
225.565	-126
225.631	-462
225.697	-49
225.763	-15
225.829	281
225.895	56
225.961	247
226.027	467
226.093	182
226.159	529
226.225	1337
226.291	2757
226.357	3383
226.423	1670
226.489	872
226.554	464
226.620	-123
226.686	991
226.752	1074
226.818	2794
226.884	4888
226.950	4116
227.016	1769
227.082	619
227.148	381
227.214	476
227.279	-584
227.345	258
227.411	111
227.477	-115
227.543	1255
227.609	733
227.674	519
227.740	188
227.806	-523
227.872	-144
227.938	-340
228.003	-392
228.069	-162
228.135	-926
228.201	363
228.267	70
228.332	-490
228.398	-603
228.464	-72
228.530	-816
228.595	360
228.661	122
228.727	124
228.792	68
228.858	-724
228.924	-642
228.990	364
229.055	-585
229.121	-111
229.187	-74
229.252	-89
229.318	-1096
229.384	-315
229.449	480
229.515	-353
229.581	-1463
229.646	886
229.712	-243
229.777	353
229.843	233
229.909	321
229.974	157
230.040	196
230.105	-87
230.171	513
230.236	119
230.302	591
230.368	233
230.433	-47
230.499	-282
230.564	528
230.630	-143
230.695	151
230.761	646
230.826	-580
230.892	298
230.957	-558
231.023	-137
231.088	-557
231.154	-165
231.219	-89
231.284	-590
231.350	427
231.415	-225
231.481	-154
231.546	539
231.612	221
231.677	-262
231.742	-905
231.808	569
231.873	-141
231.939	-1512
232.004	806
232.069	-163
232.135	-294
232.200	107
232.265	654
232.331	-176
232.396	59
232.461	-512
232.527	116
232.592	-488
232.657	-149
232.723	344
232.788	-245
232.853	-49
232.918	-443
232.984	359
233.049	-733
233.114	-527
233.179	-51
233.245	-243
233.310	-324
233.375	-662
233.440	234
233.506	-415
233.571	-779
233.636	752
233.701	342
233.766	-59
233.832	-345
233.897	73
233.962	-495
234.027	350
234.092	-40
234.157	-483
234.222	354
234.288	301
234.353	604
234.418	501
234.483	477
234.548	-9
234.613	-229
234.678	5
234.743	202
234.808	1024
234.873	-852
234.938	834
235.004	-350
235.069	-509
235.134	-244
235.199	477
235.264	54
235.329	-738
235.394	-477
235.459	-200
235.524	-782
235.589	189
235.654	-567
235.719	-1470
235.784	370
235.849	-62
235.913	-297
235.978	-90
236.043	239
236.108	-401
236.173	-938
236.238	1208
236.303	-746
236.368	-205
236.433	957
236.498	256
236.563	311
236.627	1686
236.692	6604
236.757	4391
236.822	1267
236.887	659
236.952	829
237.017	-391
237.081	1004
237.146	311
237.211	3080
237.276	6610
237.341	8582
237.405	3459
237.470	1342
237.535	477
237.600	555
237.664	936
237.729	-198
237.794	438
237.859	2046
237.923	183
237.988	515
238.053	860
238.118	177
238.182	829
238.247	1226
238.312	-300
238.376	83
238.441	-1035
238.506	898
238.570	-509
238.635	580
238.700	-163
238.764	-796
238.829	64
238.893	-149
238.958	562
239.023	-375
239.087	349
239.152	346
239.216	42
239.281	123
239.346	-464
239.410	-304
239.475	-9
239.539	979
239.604	-21
239.668	615
239.733	-492
239.797	481
239.862	1828
239.926	833
239.991	363
240.055	-410
240.120	-416
240.184	-228
240.249	-493
240.313	1
240.378	-551
240.442	202
240.507	683
240.571	279
240.635	-448
240.700	561
240.764	-741
240.829	173
240.893	-1087
240.957	254
241.022	752
241.086	523
241.151	-766
241.215	-1029
241.279	574
241.344	-226
241.408	3
241.472	-457
241.537	472
241.601	666
241.665	-260
241.730	352
241.794	350
241.858	-954
241.922	133
241.987	-311
242.051	-31
242.115	-797
242.179	267
242.244	-1070
242.308	737
242.372	-48
242.436	136
242.501	-389
242.565	-475
242.629	-524
242.693	54
242.757	-171
242.822	-11
242.886	132
242.950	345
243.014	54
243.078	-14
243.142	-707
243.206	-357
243.271	-283
243.335	-610
243.399	148
243.463	1902
243.527	5497
243.591	1085
243.655	832
243.719	-1123
243.783	556
243.847	73
243.911	921
243.975	708
244.040	113
244.104	438
244.168	-389
244.232	80
244.296	425
244.360	-385
244.424	-584
244.488	387
244.552	669
244.615	-1276
244.679	-602
244.743	-350
244.807	-678
244.871	-256
244.935	-338
244.999	-1144
245.063	-91
245.127	487
245.191	232
245.255	174
245.319	243
245.383	-783
245.446	-19
245.510	-182
245.574	456
245.638	-440
245.702	-596
245.766	1263
245.829	667
245.893	-681
245.957	-257
246.021	9
246.085	-1010
246.149	-226
246.212	1339
246.276	1227
246.340	183
246.404	681
246.467	-112
246.531	-276
246.595	541
246.659	-164
246.722	-1147
246.786	806
246.850	708
246.913	308
246.977	-436
247.041	360
247.104	285
247.168	382
247.232	1026
247.295	1888
247.359	397
247.423	275
247.486	768
247.550	720
247.614	-895
247.677	468
247.741	126
247.804	-55
247.868	282
247.932	-508
247.995	2195
248.059	369
248.122	-1302
248.186	1032
248.249	429
248.313	4194
248.376	3447
248.440	2897
248.503	-836
248.567	2007
248.630	23
248.694	744
248.757	2166
248.821	4090
248.884	3193
248.948	1184
249.011	3755
249.075	4727
249.138	3857
249.202	615
249.265	-739
249.328	1289
249.392	-883
249.455	300
249.519	-677
249.582	220
249.645	735
249.709	213
249.772	-50
249.835	-189
249.899	-327
249.962	489
250.025	-1257
250.089	1077
250.152	1182
250.215	466
250.279	-570
250.342	-75
250.405	144
250.468	327
250.532	-310
250.595	1823
250.658	5127
250.721	8827
250.785	1679
250.848	1986
250.911	499
250.974	872
251.038	1198
251.101	1723
251.164	133
251.227	1467
251.290	-75
251.354	2050
251.417	8127
251.480	6877
251.543	6130
251.606	16402
251.669	10406
251.732	3758
251.795	4175
251.859	4774
251.922	9656
251.985	4698
252.048	2155
252.111	898
252.174	747
252.237	2286
252.300	5187
252.363	5774
252.426	12707
252.489	2645
252.552	1668
252.615	-122
252.678	1465
252.741	4106
252.804	4903
252.867	12043
252.930	6479
252.993	3030
253.056	1630
253.119	851
253.182	388
253.245	-65
253.308	2003
253.371	-8
253.434	-42
253.497	1369
253.559	2628
253.622	692
253.685	656
253.748	1188
253.811	-114
253.874	759
253.937	359
254.000	778
254.062	593
254.125	1893
254.188	2338
254.251	859
254.314	86
254.376	778
254.439	1500
254.502	471
254.565	2093
254.628	2344
254.690	605
254.753	297
254.816	-1058
254.878	-123
254.941	809
255.004	1759
255.067	-396
255.129	-821
255.192	-57
255.255	-998
255.317	164
255.380	-135
255.443	-565
255.505	-1
255.568	-677
255.631	-749
255.693	-328
255.756	-1219
255.819	-124
255.881	-856
255.944	-2
256.006	-803
256.069	-647
256.132	-827
256.194	215
256.257	339
256.319	-73
256.382	-988
256.444	544
256.507	-469
256.569	-189
256.632	-159
256.694	2
256.757	4501
256.819	10514
256.882	2386
256.944	1665
257.007	905
257.069	-34
257.132	103
257.194	264
257.257	-495
257.319	-1182
257.381	144
257.444	3426
257.506	12756
257.569	12127
257.631	3495
257.693	2039
257.756	970
257.818	80
257.880	-155
257.943	456
258.005	-386
258.067	-126
258.130	-119
258.192	690
258.254	397
258.317	155
258.379	-344
258.441	231
258.503	1445
258.566	328
258.628	288
258.690	-196
258.753	-153
258.815	654
258.877	-1239
258.939	-402
259.001	-446
259.064	-980
259.126	-604
259.188	-520
259.250	161
259.312	-125
259.375	-65
259.437	-242
259.499	8
259.561	-541
259.623	-514
259.685	-833
259.747	-373
259.809	543
259.872	1185
259.934	3021
259.996	3184
260.058	384
260.120	-732
260.182	-267
260.244	-538
260.306	-760
260.368	-237
260.430	-456
260.492	309
260.554	1303
260.616	-124
260.678	1088
260.740	1676
260.802	-1028
260.864	-1044
260.926	-1273
260.988	-349
261.050	12
261.112	905
261.174	3104
261.236	475
261.298	-745
261.359	-112
261.421	1224
261.483	-900
261.545	132
261.607	-935
261.669	109
261.731	-315
261.793	813
261.854	-962
261.916	761
261.978	-837
262.040	348
262.102	-288
262.164	-747
262.225	-813
262.287	-518
262.349	-598
262.411	-131
262.472	131
262.534	-776
262.596	-962
262.658	-161
262.719	-849
262.781	-406
262.843	-180
262.904	199
262.966	10
263.028	-734
263.090	2080
263.151	6609
263.213	1550
263.275	657
263.336	-185
263.398	-127
263.459	-670
263.521	-415
263.583	1062
263.644	347
263.706	-884
263.767	-833
263.829	-912
263.891	-1497
263.952	-756
264.014	-993
264.075	-202
264.137	1719
264.198	-466
264.260	-503
264.321	-381
264.383	349
264.444	3556
264.506	-86
264.567	-199
264.629	1428
264.690	2631
264.752	-138
264.813	-490
264.875	-1505
264.936	336
264.998	-826
265.059	-928
265.120	-1680
265.182	652
265.243	6570
265.305	4458
265.366	776
265.427	288
265.489	904
265.550	-1346
265.611	-1172
265.673	-847
265.734	-462
265.795	-986
265.857	-626
265.918	-695
265.979	1891
266.040	10704
266.102	5778
266.163	1755
266.224	899
266.286	-259
266.347	-569
266.408	-516
266.469	-67
266.530	-565
266.592	-1499
266.653	113
266.714	-397
266.775	-859
266.836	-773
266.898	-725
266.959	-903
267.020	-448
267.081	-375
267.142	-317
267.203	-1332
267.264	-1404
267.326	184
267.387	-1187
267.448	-1456
267.509	497
267.570	-930
267.631	-1278
267.692	-935
267.753	-282
267.814	-1357
267.875	469
267.936	1098
267.997	673
268.058	129
268.119	-133
268.180	-411
268.241	-763
268.302	-447
268.363	-280
268.424	371
268.485	-919
268.546	-1151
268.607	-672
268.668	-952
268.729	-1238
268.790	-1301
268.851	-574
268.912	-282
268.972	143
269.033	-899
269.094	-1653
269.155	-78
269.216	-845
269.277	-861
269.338	-453
269.398	-517
269.459	-1654
269.520	-381
269.581	-211
269.642	-53
269.702	-424
269.763	181
269.824	-765
269.885	-1330
269.945	664
270.006	-780
270.067	-1604
270.128	-960
270.188	-997
270.249	-1109
270.310	-847
270.370	-258
270.431	-68
270.492	-1326
270.553	-623
270.613	-939
270.674	762
270.734	-149
270.795	-1002
270.856	-263
270.916	-725
270.977	-518
271.038	-74
271.098	-511
271.159	-379
271.219	-497
271.280	-152
271.340	-494
271.401	53
271.462	-643
271.522	-166
271.583	-500
271.643	-446
271.704	-832
271.764	-128
271.825	554
271.885	4078
271.946	4260
272.006	763
272.066	2229
272.127	3454
272.187	456
272.248	213
272.308	-247
272.369	2356
272.429	713
272.489	516
272.550	60
272.610	824
272.671	-372
272.731	105
272.791	-520
272.852	-545
272.912	-538
272.972	-542
273.033	-885
273.093	-533
273.153	459
273.214	205
273.274	-567
273.334	1390
273.394	3452
273.455	693
273.515	1174
273.575	2909
273.635	668
273.696	1323
273.756	3159
273.816	354
273.876	719
273.936	356
273.997	1207
274.057	-368
274.117	-595
274.177	746
274.237	5512
274.297	2905
274.358	1329
274.418	2886
274.478	724
274.538	-97
274.598	-565
274.658	1066
274.718	972
274.778	67
274.838	101
274.898	150
274.958	1308
275.018	3790
275.078	1203
275.138	-3
275.198	-1037
275.258	-1286
275.318	-378
275.378	6
275.438	600
275.498	-366
275.558	829
275.618	2455
275.678	1704
275.738	1773
275.798	544
275.858	-591
275.918	-1338
275.978	-537
276.038	52
276.098	-329
276.157	96
276.217	2041
276.277	446
276.337	-756
276.397	-1066
276.457	-42
276.517	-704
276.576	-310
276.636	-1248
276.696	-808
276.756	1219
276.815	491
276.875	-694
276.935	-562
276.995	-809
277.055	-1195
277.114	-378
277.174	144
277.234	1240
277.293	-278
277.353	-424
277.413	-592
277.472	-224
277.532	-710
277.592	18
277.651	1819
277.711	3490
277.771	-93
277.830	5647
277.890	2981
277.950	2325
278.009	7785
278.069	2404
278.128	2956
278.188	3781
278.248	1130
278.307	4091
278.367	2146
278.426	-565
278.486	-798
278.545	-582
278.605	-365
278.664	1
278.724	-1109
278.783	451
278.843	3587
278.902	251
278.962	-874
279.021	329
279.081	284
279.140	-299
279.199	-182
279.259	-675
279.318	-555
279.378	110
279.437	1296
279.496	6945
279.556	19099
279.615	11072
279.675	1932
279.734	1672
279.793	1610
279.853	4115
279.912	1367
279.971	-340
280.031	152
280.090	2119
280.149	2789
280.208	1775
280.268	14032
280.327	10163
280.386	2024
280.445	1360
280.505	222
280.564	556
280.623	-137
280.682	617
280.742	822
280.801	-705
280.860	-348
280.919	-471
280.978	-1096
281.037	-820
281.097	-943
281.156	-466
281.215	-672
281.274	119
281.333	2436
281.392	683
281.451	-422
281.510	-200
281.569	-392
281.628	-649
281.688	-746
281.747	-65
281.806	-18
281.865	-1223
281.924	-952
281.983	-694
282.042	-887
282.101	-399
282.160	-396
282.219	-1198
282.278	-290
282.337	205
282.396	521
282.454	-427
282.513	-569
282.572	1847
282.631	171
282.690	-540
282.749	-1106
282.808	-563
282.867	-472
282.926	-712
282.985	-393
283.043	-584
283.102	-826
283.161	-1280
283.220	750
283.279	2637
283.338	1289
283.396	-516
283.455	-361
283.514	-294
283.573	2
283.631	212
283.690	-670
283.749	-992
283.808	-109
283.866	81
283.925	-1009
283.984	444
284.043	-434
284.101	91
284.160	-685
284.219	-23
284.277	-471
284.336	-133
284.395	2737
284.453	1312
284.512	-19
284.570	-388
284.629	-32
284.688	-571
284.746	445
284.805	1040
284.863	207
284.922	1508
284.981	2007
285.039	3891
285.098	8002
285.156	20008
285.215	28658
285.273	28290
285.332	18440
285.390	9633
285.449	5006
285.507	3578
285.566	1971
285.624	905
285.683	255
285.741	-20
285.799	303
285.858	156
285.916	281
285.975	771
286.033	-1052
286.091	-361
286.150	-1081
286.208	-462
286.267	-328
286.325	-43
286.383	-221
286.442	-472
286.500	-98
286.558	-337
286.616	-695
286.675	-1022
286.733	-717
286.791	-1353
286.850	-575
286.908	-140
286.966	92
287.024	-966
287.083	-961
287.141	-420
287.199	-628
287.257	-205
287.315	-1119
287.374	135
287.432	313
287.490	31
287.548	-522
287.606	-533
287.664	-1158
287.723	-57
287.781	374
287.839	-319
287.897	-594
287.955	-1179
288.013	-133
288.071	2927
288.129	13072
288.187	31498
288.245	11882
288.303	2986
288.361	556
288.419	61
288.477	-259
288.535	-411
288.593	-494
288.651	-392
288.709	-781
288.767	-737
288.825	-698
288.883	-13
288.941	-1060
288.999	-750
289.057	-968
289.115	-894
289.173	-746
289.231	-552
289.289	-1141
289.346	-1102
289.404	-1358
289.462	-24
289.520	-398
289.578	-693
289.636	-1017
289.694	-744
289.751	-816
289.809	-832
289.867	-894
289.925	-336
289.983	-1221
290.040	-758
290.098	-301
290.156	-1009
290.214	-400
290.271	-1465
290.329	-1062
290.387	-975
290.444	-695
290.502	-909
290.560	-546
290.617	-833
290.675	-1503
290.733	-422
290.790	-781
290.848	-1304
290.906	-302
290.963	-1035
291.021	-1382
291.078	-646
291.136	-715
291.194	525
291.251	1852
291.309	-597
291.366	-288
291.424	-775
291.481	-283
291.539	-687
291.596	-1002
291.654	-1126
291.711	-1021
291.769	-1228
291.826	-434
291.884	-127
291.941	-981
291.999	-1093
292.056	-855
292.114	-442
292.171	-1157
292.228	-873
292.286	-1251
292.343	-515
292.401	183
292.458	-1454
292.515	-1171
292.573	-567
292.630	-840
292.687	-980
292.745	-1113
292.802	-334
292.859	866
292.917	1904
292.974	325
293.031	-861
293.089	-913
293.146	-651
293.203	-874
293.260	-368
293.318	-685
293.375	-284
293.432	-1031
293.489	-331
293.546	-1340
293.604	-793
293.661	1233
293.718	3800
293.775	711
293.832	25
293.889	-483
293.947	-30
294.004	-937
294.061	-743
294.118	389
294.175	2484
294.232	3834
294.289	1594
294.346	-232
294.403	137
294.460	-830
294.517	-1476
294.574	-953
294.631	-1109
294.688	-160
294.745	547
294.802	5459
294.859	5745
294.916	1047
294.973	-341
295.030	5
295.087	109
295.144	-742
295.201	-670
295.258	-659
295.315	-551
295.372	376
295.429	2592
295.486	580
295.542	218
295.599	3243
295.656	4960
295.713	1655
295.770	2753
295.827	265
295.883	-630
295.940	-999
295.997	-57
296.054	-303
296.111	-8
296.167	-747
296.224	-1233
296.281	-1235
296.338	-1063
296.394	-716
296.451	-892
296.508	705
296.564	1918
296.621	1845
296.678	2900
296.734	4346
296.791	507
296.848	294
296.904	-405
296.961	2092
297.018	4191
297.074	1616
297.131	34
297.187	-145
297.244	385
297.301	3802
297.357	6298
297.414	317
297.470	-277
297.527	-740
297.583	-451
297.640	-698
297.696	-970
297.753	-949
297.809	-1415
297.866	-544
297.922	-532
297.979	-1431
298.035	-881
298.092	-627
298.148	1418
298.204	962
298.261	-126
298.317	918
298.374	3929
298.430	1427
298.486	-228
298.543	-585
298.599	96
298.656	-135
298.712	218
298.768	3187
298.824	2003
298.881	-274
298.937	-371
298.993	-853
299.050	-316
299.106	-405
299.162	-672
299.218	-443
299.275	-874
299.331	-770
299.387	362
299.443	3306
299.500	3210
299.556	873
299.612	-908
299.668	320
299.724	-235
299.780	595
299.837	-540
299.893	300
299.949	2902
300.005	3678
300.061	2793
300.117	4759
300.173	1741
300.229	237
300.285	57
300.341	257
300.397	-708
300.453	-1016
300.510	-590
300.566	-663
300.622	-556
300.678	2681
300.734	3891
300.790	2920
300.845	3265
300.901	1691
300.957	3463
301.013	2276
301.069	-207
301.125	-586
301.181	-280
301.237	-327
301.293	-1264
301.349	-788
301.405	-1172
301.461	-479
301.516	-73
301.572	-691
301.628	-182
301.684	-300
301.740	750
301.796	1624
301.851	-43
301.907	1930
301.963	1487
302.019	3805
302.074	12001
302.130	10029
302.186	4040
302.242	146
302.297	375
302.353	1148
302.409	2005
302.464	1383
302.520	1509
302.576	3823
302.631	4102
302.687	806
302.743	-782
302.798	-424
302.854	-626
302.910	-752
302.965	-264
303.021	-165
303.076	354
303.132	-475
303.187	744
303.243	99
303.299	-466
303.354	-775
303.410	-640
303.465	-436
303.521	-725
303.576	-853
303.632	-1416
303.687	541
303.743	2302
303.798	2453
303.853	-150
303.909	-296
303.964	-600
304.020	-61
304.075	291
304.130	-31
304.186	1311
304.241	2016
304.297	1213
304.352	-282
304.358	-271
304.407	-187
304.449	-506
304.463	-612
304.518	-1080
304.539	-1037
304.573	-986
304.629	-682
304.630	-661
304.684	352
304.720	1456
304.739	1988
304.794	3635
304.811	2839
304.850	872
304.902	-151
304.905	-210
304.960	-389
304.992	-822
305.015	-1142
305.071	-244
305.083	-162
305.126	90
305.173	-428
305.181	-499
305.236	-931
305.264	-658
305.292	-437
305.347	-695
305.354	-685
305.402	-507
305.445	-66
305.457	24
305.512	-26
305.535	-52
305.567	-4
305.622	312
305.626	355
305.678	1528
305.716	3702
305.733	4409
305.788	4959
305.807	4037
305.843	2407
305.897	3816
305.898	3834
305.953	3696
305.988	2467
306.008	1725
306.063	272
306.078	142
306.118	-4
306.168	-322
306.173	-343
306.228	-315
306.259	-554
306.283	-682
306.338	13
306.349	-139
306.393	-854
306.440	-40
306.448	128
306.503	182
306.530	-60
306.558	-130
306.613	2119
306.620	2144
306.668	2774
306.711	4637
306.723	4757
306.778	3944
306.801	2831
306.833	1606
306.888	870
306.892	792
306.943	71
306.982	-156
306.997	-68
307.052	473
307.072	544
307.107	298
307.162	362
307.163	358
307.217	759
307.253	1020
307.272	1012
307.327	1251
307.343	1146
307.381	846
307.434	520
307.436	584
307.491	2588
307.524	4359
307.546	4867
307.600	4522
307.614	4155
307.655	2254
307.704	930
307.710	968
307.765	779
307.795	1335
307.819	1960
307.874	3604
307.885	3706
307.929	3178
307.975	2938
307.984	3143
308.038	4265
308.065	5801
308.093	11081
308.148	23796
308.156	26345
308.202	41856
308.246	51613
308.257	49267
308.312	26960
308.336	18089
308.366	13479
308.421	7320
308.426	6809
308.475	4714
308.517	3129
308.530	2846
308.585	2472
308.607	2047
308.639	1985
308.694	2738
308.697	2778
308.748	4232
308.787	5624
308.803	5607
308.857	4431
308.877	3845
308.912	3244
308.967	3254
308.967	3247
309.021	5371
309.058	6903
309.076	8727
309.130	15798
309.148	18376
309.185	33873
309.238	59346
309.239	59634
309.293	65932
309.328	64438
309.348	55556
309.402	27879
309.418	20633
309.457	14208
309.508	7707
309.511	7631
309.566	6616
309.598	6500
309.620	7134
309.674	8261
309.688	8740
309.729	8990
309.778	8237
309.783	7999
309.837	5213
309.868	3825
309.892	4538
309.946	6351
309.959	6875
310.001	9319
310.049	12001
310.055	11624
310.109	6940
310.139	4243
310.163	2905
310.218	797
310.229	359
310.272	822
310.319	1135
310.326	1027
310.381	618
310.409	379
310.435	444
310.489	487
310.499	473
310.543	650
310.589	951
310.598	1003
310.652	1291
310.679	1381
310.706	1015
310.760	347
310.769	217
310.814	420
310.859	656
310.868	606
310.923	302
310.948	174
310.977	564
311.031	1189
311.038	1287
311.085	810
311.128	182
311.139	286
311.193	1003
311.218	1283
311.247	1244
311.301	1084
311.308	1061
311.356	1093
311.398	1125
311.410	990
311.464	275
311.488	-8
311.518	451
311.572	1150
311.578	1229
311.626	1159
311.668	1096
311.680	1168
311.734	1453
311.758	1550
311.788	1570
311.842	1646
311.847	1644
311.896	2112
311.937	2504
311.950	2394
312.004	1870
312.027	1640
312.058	1793
312.112	2036
312.117	2052
312.165	1269
312.207	586
312.297	2277
312.386	590
312.476	1493
312.566	2188
312.656	1898
312.745	647
312.835	959
312.925	1155
313.015	1401
313.104	1164
313.194	1074
313.284	663
313.374	1142
313.463	936
313.553	1483
313.643	706
313.732	637
313.822	578
313.912	1002
314.001	1233
314.091	1960
314.180	1804
314.270	2339
314.360	926
314.449	2115
314.539	22
314.628	1492
314.718	617
314.808	1743
314.897	576
314.987	1092
315.076	682
315.166	1377
315.255	983
315.345	1844
315.434	1137
315.524	1218
315.613	1589
315.703	2127
315.792	2536
315.881	5268
315.971	2419
316.060	2708
316.150	3231
316.239	4154
316.328	867
316.418	1323
316.507	232
316.597	1480
316.686	351
316.775	1875
316.865	4005
316.954	1383
317.043	368
317.133	999
317.222	420
317.311	670
317.400	-97
317.490	1645
317.579	1540
317.668	1510
317.757	641
317.847	3529
317.936	9279
318.025	4984
318.114	2442
318.203	2283
318.293	1776
318.382	4732
318.471	4079
318.560	6501
318.649	15837
318.738	3489
318.828	1532
318.917	1674
319.006	1532
319.095	5120
319.184	17328
319.273	9394
319.362	3195
319.451	1521
319.540	417
319.629	2861
319.718	4167
319.807	1885
319.896	5104
319.985	22425
320.074	8708
320.163	2162
320.252	1799
320.341	2672
320.430	1399
320.519	2591
320.608	1828
320.697	2220
320.786	318
320.875	1473
320.964	1204
321.053	3228
321.142	3307
321.230	5682
321.319	3418
321.408	8855
321.497	4140
321.586	3066
321.675	3413
321.764	3610
321.852	2264
321.941	4186
322.030	2862
322.119	3054
322.207	7779
322.296	6688
322.385	2882
322.474	3276
322.562	8421
322.651	5745
322.740	2278
322.829	4859
322.917	3681
323.006	2400
323.095	2285
323.183	1988
323.272	3021
323.361	4792
323.449	17459
323.538	6882
323.626	9963
323.715	7842
323.804	2121
323.892	9517
323.981	5151
324.069	1910
324.158	4714
324.246	5836
324.335	907
324.424	3393
324.512	728
324.601	2003
324.689	2893
324.778	8764
324.866	3777
324.954	310
325.043	699
325.131	1275
325.220	4158
325.308	3597
325.397	2618
325.485	2611
325.574	-78
325.662	1059
325.750	232
325.839	1478
325.927	586
326.015	605
326.104	856
326.192	2255
326.280	110
326.369	933
326.457	825
326.545	2194
326.634	771
326.722	532
326.810	-565
326.898	1513
326.987	1070
327.075	790
327.163	1887
327.251	1274
327.340	1820
327.428	4255
327.516	4
327.604	805
327.692	78
327.781	1100
327.869	946
327.957	1331
328.045	357
328.133	577
328.221	336
328.309	1059
328.397	57
328.485	850
328.574	1237
328.662	4613
328.750	2342
328.838	650
328.926	69
329.014	279
329.102	863
329.190	4352
329.278	2117
329.366	1234
329.454	179
329.542	193
329.630	184
329.718	852
329.806	60
329.893	1415
329.981	1970
330.069	3463
330.157	10468
330.245	33846
330.333	20117
330.421	3990
330.509	1487
330.597	5890
330.684	4165
330.772	1981
330.860	1303
330.948	3909
331.036	1188
331.123	259
331.211	-9
331.299	635
331.387	2036
331.475	5908
331.562	195
331.650	-117
331.738	94
331.825	1147
331.913	457
332.001	379
332.089	484
332.176	2410
332.264	3969
332.352	3744
332.439	1290
332.527	1125
332.614	266
332.702	864
332.790	734
332.877	1706
332.965	4036
333.052	1964
333.140	183
333.228	2973
333.315	492
333.403	1115
333.490	2097
333.578	2695
333.665	2771
333.753	1766
333.840	355
333.928	999
334.015	2088
334.103	5953
334.190	22055
334.278	6112
334.365	1637
334.452	2046
334.540	741
334.627	438
334.715	1466
334.802	3644
334.889	17267
334.977	22642
335.064	2926
335.151	1401
335.239	535
335.326	1824
335.413	9967
335.501	18089
335.588	1977
335.675	747
335.762	1051
335.850	2842
335.937	1889
336.024	5614
336.111	21937
336.199	11376
336.286	2031
336.373	1105
336.460	200
336.547	607
336.635	169
336.722	297
336.809	-460
336.896	1346
336.983	5181
337.070	16296
337.157	25842
337.245	12864
337.332	9917
337.419	1270
337.506	182
337.593	838
337.680	3323
337.767	17451
337.854	3729
337.941	3769
338.028	3028
338.115	1757
338.202	1382
338.289	3416
338.376	11225
338.463	3984
338.550	7941
338.637	11385
338.724	1570
338.811	3909
338.898	29
338.984	706
339.071	267
339.158	1219
339.245	2478
339.332	2536
339.419	1481
339.506	2625
339.593	-822
339.679	479
339.766	-380
339.853	434
339.940	1410
340.027	852
340.113	568
340.200	904
340.287	303
340.374	1072
340.460	1042
340.547	708
340.634	615
340.720	5434
340.807	3619
340.894	498
340.980	-337
341.067	370
341.154	833
341.240	725
341.327	2429
341.414	499
341.500	319
341.587	1388
341.674	-144
341.760	1232
341.847	1388
341.933	710
342.020	-311
342.106	-156
342.193	-578
342.279	1092
342.366	179
342.452	1145
342.539	100
342.625	2584
342.712	5558
342.798	2667
342.885	202
342.971	-637
343.058	116
343.144	350
343.230	-292
343.317	904
343.403	-917
343.490	83
343.576	26
343.662	211
343.749	113
343.835	1560
343.921	1390
344.008	11370
344.094	31573
344.180	7243
344.267	2102
344.353	7503
344.439	9489
344.525	2935
344.612	628
344.698	771
344.784	145
344.870	413
344.957	-460
345.043	1680
345.129	126
345.215	1112
345.301	634
345.387	141
345.474	-845
345.560	-112
345.646	191
345.732	826
345.818	60
345.904	217
345.990	-118
346.076	-31
346.162	225
346.249	1222
346.335	-129
346.421	859
346.507	2638
346.593	12908
346.679	2035
346.765	757
346.851	-20
346.937	-11
347.023	794
347.108	626
347.194	-851
347.280	547
347.366	350
347.452	2376
347.538	13421
347.624	11013
347.710	8347
347.796	1860
347.882	297
347.967	387
348.053	11
348.139	228
348.225	-313
348.311	-42
348.397	-3
348.482	703
348.568	31
348.654	511
348.740	435
348.825	574
348.911	1448
348.997	5104
349.083	14853
349.168	2787
349.254	77
349.340	477
349.425	-451
349.511	379
349.597	520
349.682	1773
349.768	7037
349.854	4090
349.939	96
350.025	675
350.110	323
350.196	-159
350.282	-1476
350.367	172
350.453	-534
350.538	1048
350.624	-59
350.709	1249
350.795	-394
350.880	177
350.966	478
351.051	397
351.137	360
351.222	198
351.308	477
351.393	7148
351.479	736
351.564	-56
351.649	-405
351.735	1304
351.820	-482
351.906	288
351.991	-300
352.076	3655
352.162	6748
352.247	1167
352.332	-268
352.418	870
352.503	1660
352.588	9237
352.673	7267
352.759	1030
352.844	-922
352.929	857
353.014	430
353.100	1278
353.185	161
353.270	1834
353.355	1641
353.441	881
353.526	-562
353.611	1024
353.696	1307
353.781	1469
353.866	-431
353.952	261
354.037	1259
354.122	4507
354.207	3256
354.292	1230
354.377	-434
354.462	819
354.547	-456
354.632	688
354.717	640
354.802	322
354.887	-673
354.972	478
355.057	-373
355.142	-124
355.227	38
355.312	1074
355.397	1687
355.482	6207
355.567	2561
355.652	2031
355.737	2420
355.822	8870
355.907	8195
355.991	1110
356.076	-388
356.161	451
356.246	-780
356.331	881
356.416	1003
356.501	14646
356.585	17566
356.670	1694
356.755	1568
356.840	1728
356.924	7606
357.009	36299
357.094	15351
357.179	2561
357.263	926
357.348	1819
357.433	680
357.517	886
357.602	268
357.687	623
357.771	761
357.856	6026
357.941	3931
358.025	6292
358.110	35735
358.195	18755
358.279	1249
358.364	1344
358.448	4414
358.533	16977
358.617	11463
358.702	12064
358.787	4329
358.871	2211
358.956	1044
359.040	585
359.125	-1062
359.209	128
359.294	1606
359.378	4658
359.462	1368
359.547	773
359.631	-196
359.716	-870
359.800	-825
359.885	1005
359.969	-438
360.053	6
360.138	-244
360.222	335
360.306	1636
360.391	964
360.475	2174
360.559	6750
360.644	5009
360.728	4004
360.812	6737
360.896	26636
360.981	9610
361.065	4686
361.149	812
361.233	1060
361.318	-675
361.402	423
361.486	249
361.570	474
361.654	-421
361.739	2831
361.823	12281
361.907	26375
361.991	3972
362.075	2055
362.159	2143
362.243	3166
362.327	2622
362.411	5040
362.495	1446
362.580	1510
362.664	-74
362.748	515
362.832	-19
362.916	2231
363.000	8781
363.084	21272
363.168	31200
363.252	7595
363.336	1180
363.420	2751
363.503	13357
363.587	21120
363.671	1868
363.755	634
363.839	1668
363.923	980
364.007	1447
364.091	2960
364.175	4100
364.258	27559
364.342	19799
364.426	19976
364.510	10227
364.594	4951
364.677	4210
364.761	20173
364.845	16903
364.929	4041
365.013	2064
365.096	2474
365.180	2431
365.264	5231
365.347	26579
365.431	12270
365.515	1658
365.598	-65
365.682	593
365.766	396
365.849	2326
365.933	706
366.017	1843
366.100	1244
366.184	-342
366.267	730
366.351	-585
366.435	-94
366.518	-485
366.602	-360
366.685	25
366.769	467
366.852	1092
366.936	2311
367.019	567
367.103	375
367.186	3148
367.270	1075
367.353	-1100
367.436	346
367.520	-582
367.603	488
367.687	-628
367.770	2013
367.853	606
367.937	5548
368.020	10441
368.104	1405
368.187	798
368.270	1626
368.353	1734
368.437	2433
368.520	5958
368.603	4356
368.687	5271
368.770	12674
368.853	2345
368.936	2281
369.020	2472
369.103	376
369.186	-358
369.269	560
369.352	1012
369.436	2236
369.519	293
369.602	-1181
369.685	463
369.768	-86
369.851	-207
369.934	-443
370.018	-357
370.101	1447
370.184	1780
370.267	1233
370.350	947
370.433	3374
370.516	7775
370.599	14208
370.682	2058
370.765	6262
370.848	7015
370.931	17023
371.014	6666
371.097	610
371.180	-375
371.263	88
371.346	-888
371.429	-443
371.511	-226
371.594	427
371.677	1529
371.760	3434
371.843	1756
371.926	10642
372.009	29744
372.091	11278
372.174	4039
372.257	15724
372.340	6665
372.423	3397
372.505	5367
372.588	2001
372.671	3048
372.754	14959
372.836	7873
372.919	6405
373.002	15651
373.085	4496
373.167	1687
373.250	4352
373.332	14573
373.415	18259
373.498	42357
373.580	17056
373.663	16300
373.746	26711
373.828	5119
373.911	2364
373.993	1712
374.076	13530
374.159	14176
374.241	4062
374.324	12212
374.406	9408
374.489	8344
374.571	34338
374.654	15229
374.736	5915
374.819	19153
374.901	29357
374.983	32635
375.066	5287
375.148	1602
375.231	9750
375.313	23914
375.395	7579
375.478	894
375.560	212
375.643	44
375.725	4170
375.807	25572
375.890	23013
375.972	6735
376.054	3032
376.136	5899
376.219	2438
376.301	5605
376.383	23390
376.465	8936
376.548	3945
376.630	4286
376.712	19662
376.794	9737
376.877	872
376.959	-378
377.041	217
377.123	1550
377.205	3451
377.287	-307
377.369	250
377.452	-68
377.534	-156
377.616	-389
377.698	-21
377.780	-864
377.862	-30
377.944	-43
378.026	185
378.108	-524
378.190	-683
378.272	7
378.354	6
378.436	-473
378.518	200
378.600	4113
378.682	4068
378.764	7439
378.846	7890
378.928	1133
379.010	1057
379.091	927
379.173	270
379.255	-890
379.337	633
379.419	2558
379.501	14565
379.583	5079
379.664	723
379.746	1227
379.828	7385
379.910	10733
379.991	12222
380.073	1255
380.155	462
380.237	7
380.318	349
380.400	-612
380.482	1157
380.564	1880
380.645	1721
380.727	918
380.809	1742
380.890	540
380.972	195
381.053	-222
381.135	620
381.217	1809
381.298	9037
381.380	3561
381.461	2867
381.543	16973
381.624	25844
381.706	3967
381.787	1681
381.869	1607
381.951	5707
382.032	29198
382.113	23186
382.195	2713
382.276	2400
382.358	3428
382.439	15729
382.521	17310
382.602	32920
382.684	13046
382.765	23107
382.846	25111
382.928	37148
383.009	21779
383.090	12479
383.172	49116
383.253	87624
383.334	30217
383.416	28187
383.497	16373
383.578	6778
383.659	10350
383.741	41426
383.822	124252
383.903	71353
383.984	19277
384.066	33734
384.147	21449
384.228	5234
384.309	2153
384.390	1760
384.471	362
384.553	1023
384.634	1470
384.715	1578
384.796	-151
384.877	1002
384.958	6039
385.039	10815
385.120	2649
385.201	1927
385.282	946
385.363	1691
385.444	296
385.525	2677
385.606	11781
385.687	13389
385.768	1978
385.849	2100
385.930	11299
386.011	25783
386.092	6876
386.173	1465
386.254	439
386.335	1530
386.416	115
386.496	4030
386.577	8851
386.658	3600
386.739	992
386.820	2168
386.901	44
386.981	1850
387.062	488
387.143	310
387.224	7416
387.304	9073
387.385	2515
387.466	715
387.547	1806
387.627	949
387.708	2103
387.789	14699
387.869	20997
387.950	6236
388.031	-153
388.111	-832
388.192	1953
388.273	6321
388.353	2058
388.434	1161
388.514	1915
388.595	13513
388.676	19991
388.756	9048
388.837	7117
388.917	5110
388.998	-1491
389.078	555
389.159	-260
389.239	-621
389.320	1102
389.400	-334
389.480	2561
389.561	9001
389.641	4525
389.722	757
389.802	231
389.883	3013
389.963	11090
390.043	8078
390.124	621
390.204	3080
390.284	8643
390.365	5819
390.445	7497
390.525	21197
390.605	17837
390.686	5177
390.766	786
390.846	170
390.927	-243
391.007	392
391.087	558
391.167	612
391.247	-745
391.328	1453
391.408	1232
391.488	2536
391.568	-1717
391.648	-28
391.728	1400
391.808	1349
391.888	325
391.969	2988
392.049	7706
392.129	4308
392.209	3018
392.289	11544
392.369	6869
392.449	5574
392.529	2736
392.609	2785
392.689	2629
392.769	9758
392.849	9493
392.929	6325
393.009	15998
393.089	12503
393.169	10385
393.248	29593
393.328	137825
393.408	172290
393.488	48009
393.568	12120
393.648	4532
393.728	2850
393.807	1426
393.887	3123
393.967	1259
394.047	2286
394.127	2210
394.206	6216
394.286	19391
394.366	94966
394.446	118714
394.525	33496
394.605	7239
394.685	4522
394.764	8619
394.844	14966
394.924	11291
395.003	3091
395.083	1541
395.163	1307
395.242	975
395.322	1327
395.402	-1289
395.481	2077
395.561	3715
395.640	17957
395.720	13228
395.799	20410
395.879	17426
395.958	10271
396.038	31038
396.117	125454
396.197	157085
396.276	55089
396.356	15970
396.435	9530
396.515	6230
396.594	5317
396.673	8474
396.753	33734
396.832	130968
396.912	111898
396.991	23791
397.070	5824
397.150	1813
397.229	2616
397.308	2059
397.388	5022
397.467	3308
397.546	1015
397.625	-1802
397.705	1675
397.784	701
397.863	-244
397.942	125
398.022	59
398.101	3343
398.180	16721
398.259	8062
398.338	2209
398.417	-303
398.497	-216
398.576	428
398.655	-750
398.734	-602
398.813	-644
398.892	2542
398.971	17363
399.050	9294
399.129	375
399.208	-1147
399.287	352
399.366	-1317
399.445	-189
399.524	-489
399.603	-1640
399.682	193
399.761	1366
399.840	17886
399.919	17542
399.998	1422
400.077	142
400.156	-2173
400.235	2114
400.313	-1122
400.392	-543
400.471	2977
400.550	7082
400.629	361
400.708	81
400.786	-1107
400.865	2059
400.944	1741
401.023	1844
401.102	-1123
401.180	-714
401.259	-1380
401.338	-443
401.416	-853
401.495	-1023
401.574	-643
401.652	-395
401.731	-1025
401.810	-318
401.888	-1186
401.967	-1514
402.046	-1125
402.124	26
402.203	-518
402.281	102
402.360	-683
402.438	3196
402.517	1580
402.596	286
402.674	-613
402.753	-37
402.831	89
402.910	-7
402.988	561
403.066	6390
403.145	4246
403.223	1441
403.302	4059
403.380	4572
403.459	3489
403.537	1049
403.615	-268
403.694	-1443
403.772	-334
403.850	-772
403.929	-1247
404.007	-669
404.085	210
404.164	-274
404.242	-371
404.320	2449
404.398	7906
404.477	9127
404.555	21996
404.633	25094
404.711	7601
404.789	3755
404.868	-926
404.946	-752
405.024	-1458
405.102	-348
405.180	-1757
405.258	-1244
405.336	-23
405.415	-972
405.493	-158
405.571	368
405.649	-1689
405.727	-919
405.805	941
405.883	-335
405.961	-997
406.039	729
406.117	-917
406.195	598
406.273	2126
406.351	19470
406.429	13875
406.507	1867
406.585	-601
406.663	253
406.740	-978
406.818	-570
406.896	-1300
406.974	554
407.052	-466
407.130	9283
407.208	16347
407.285	3779
407.363	-1262
407.441	-947
407.519	-1210
407.596	316
407.674	1935
407.752	12288
407.830	12623
407.907	2243
407.985	-1960
408.063	-67
408.141	-1652
408.218	463
408.296	-620
408.373	-568
408.451	-244
408.529	97
408.606	-1220
408.684	-578
408.762	-1569
408.839	-817
408.917	-1394
408.994	-909
409.072	-1716
409.149	-1198
409.227	-666
409.304	-576
409.382	-531
409.459	-216
409.537	560
409.614	864
409.692	-621
409.769	-244
409.846	-478
409.924	1729
410.001	-442
410.079	206
410.156	-260
410.233	71
410.311	-399
410.388	-1240
410.465	-693
410.543	-627
410.620	-141
410.697	-306
410.775	-960
410.852	-1422
410.929	-564
411.006	138
411.083	-854
411.161	-138
411.238	199
411.315	1
411.392	-1190
411.469	-80
411.547	-571
411.624	-1522
411.701	-1555
411.778	-160
411.855	-858
411.932	-319
412.009	-1490
412.086	362
412.163	-375
412.240	-964
412.317	-338
412.394	-591
412.471	-322
412.548	-1303
412.625	-1857
412.702	-728
412.779	-165
412.856	-42
412.933	-1820
413.010	-215
413.087	-1035
413.164	2015
413.241	5435
413.318	210
413.395	120
413.471	-255
413.548	275
413.625	244
413.702	-1251
413.779	-924
413.855	-1275
413.932	-1072
414.009	-1749
414.086	-206
414.162	-1023
414.239	-649
414.316	1773
414.393	8274
414.469	1789
414.546	-295
414.623	-833
414.699	-1816
414.776	-1466
414.853	-1385
414.929	-603
415.006	-1057
415.082	-1440
415.159	-1134
415.236	-1306
415.312	-250
415.389	-1487
415.465	-391
415.542	-1702
415.618	-1843
415.695	-862
415.771	-587
415.848	-1342
415.924	126
416.000	-1092
416.077	-47
416.153	-1771
416.230	-1582
416.306	-2316
416.383	-1207
416.459	-1486
416.535	-1490
416.612	-1800
416.688	-1733
416.764	-1282
416.841	-801
416.917	-1104
416.993	-998
417.069	-616
417.146	-37
417.222	-1111
417.298	-958
417.374	-1612
417.451	-827
417.527	-972
417.603	-444
417.679	-1560
417.755	-831
417.831	-2186
417.908	-874
417.984	-1704
418.060	-1576
418.136	-287
418.212	-184
418.288	-1208
418.364	-291
418.440	-1673
418.516	-487
418.592	-614
418.668	546
418.744	144
418.820	573
418.896	-868
418.972	-1140
419.048	-1102
419.124	-92
419.200	-1073
419.276	-1006
419.352	-1886
419.428	-775
419.504	-2147
419.579	-604
419.655	-1744
419.731	-1360
419.807	26
419.883	948
419.959	365
420.034	-568
420.110	-822
420.186	3773
420.262	3868
420.337	-243
420.413	-1084
420.489	-939
420.565	-659
420.640	-1572
420.716	-1148
420.792	-1760
420.867	-850
420.943	-1420
421.019	-365
421.094	-1414
421.170	-402
421.245	-1528
421.321	-856
421.397	-1085
421.472	1093
421.548	6280
421.623	4150
421.699	532
421.774	-781
421.850	-850
421.925	-649
422.001	459
422.076	-838
422.152	265
422.227	203
422.302	2312
422.378	3412
422.453	7261
422.529	20455
422.604	62530
422.679	110944
422.755	81888
422.830	29827
422.905	10471
422.981	3977
423.056	2433
423.131	1038
423.207	646
423.282	-464
423.357	1827
423.432	-310
423.508	1060
423.583	970
423.658	690
423.733	-609
423.808	-132
423.883	135
423.959	-116
424.034	-954
424.109	62
424.184	-1256
424.259	-344
424.334	-1588
424.409	-1335
424.484	-1264
424.559	-1133
424.634	-2214
424.709	-280
424.784	-296
424.859	-1041
424.934	-1892
425.009	1701
425.084	4895
425.159	2306
425.234	-252
425.309	-1582
425.384	-958
425.459	1282
425.534	-238
425.609	-969
425.683	-993
425.758	-1851
425.833	-663
425.908	-182
425.983	-1167
426.058	5961
426.132	1321
426.207	-895
426.282	354
426.357	-102
426.431	-1216
426.506	-815
426.581	-1365
426.655	-651
426.730	-1459
426.805	-1570
426.879	-1014
426.954	-357
427.029	-1505
427.103	4212
427.178	14907
427.253	7539
427.327	-218
427.402	-63
427.476	873
427.551	-209
427.625	-627
427.700	-392
427.774	-1470
427.849	-230
427.923	-1518
427.998	-1265
428.072	-1680
428.147	771
428.221	4234
428.296	21143
428.370	12761
428.444	277
428.519	-270
428.593	1230
428.667	1474
428.742	1872
428.816	2473
428.890	11798
428.965	23149
429.039	6312
429.113	2033
429.188	93
429.262	-1459
429.336	-85
429.410	1660
429.485	1597
429.559	1097
429.633	1679
429.707	-903
429.781	1025
429.855	10640
429.930	23191
430.004	9109
430.078	15343
430.152	13918
430.226	27007
430.300	34566
430.374	4696
430.448	198
430.522	2826
430.596	14062
430.670	9805
430.744	17234
430.818	34096
430.892	6192
430.966	-164
431.040	-1678
431.114	-1118
431.188	-2005
431.262	-907
431.336	-1703
431.410	438
431.484	1466
431.557	2136
431.631	-1625
431.705	-977
431.779	1328
431.853	17812
431.927	14906
432.000	1022
432.074	-1238
432.148	-284
432.222	-1921
432.295	-1045
432.369	-1395
432.443	-568
432.516	3910
432.590	16290
432.664	6143
432.737	-472
432.811	-1784
432.885	-1133
432.958	-1494
433.032	-1713
433.106	-1842
433.179	-817
433.253	-1314
433.326	-1839
433.400	-1969
433.473	-813
433.547	-1608
433.620	-982
433.694	-1973
433.767	-190
433.841	-2434
433.914	-1321
433.988	-880
434.061	-1129
434.134	-1550
434.208	-729
434.281	-1976
434.355	-1750
434.428	-1241
434.501	-1486
434.575	-1623
434.648	-869
434.721	-1458
434.795	-1293
434.868	-2294
434.941	-1345
435.014	-1959
435.088	-953
435.161	-770
435.234	-1071
435.307	-1293
435.381	-1038
435.454	-1791
435.527	-266
435.600	-849
435.673	-755
435.746	-1156
435.819	-545
435.892	-1052
435.966	-562
436.039	-2241
436.112	126
436.185	-2328
436.258	-966
436.331	-2269
436.404	-1196
436.477	-2070
436.550	-975
436.623	-1321
436.696	-1447
436.769	-1842
436.842	-1062
436.915	-893
436.987	-1134
437.060	-1347
437.133	-1071
437.206	-2026
437.279	-650
437.352	-2221
437.425	-1002
437.498	-2034
437.570	-458
437.643	-1261
437.716	-1654
437.789	-1385
437.861	-1435
437.934	172
438.007	-452
438.080	-1453
438.152	-120
438.225	-774
438.298	5315
438.370	24658
438.443	10733
438.516	737
438.588	-834
438.661	-2260
438.734	-398
438.806	-1551
438.879	-475
438.951	-2173
439.024	-446
439.096	-1813
439.169	-739
439.241	-2042
439.314	-1276
439.386	-1818
439.459	648
439.531	-1117
439.604	-905
439.676	-2107
439.749	-902
439.821	-1605
439.893	-1058
439.966	-2203
440.038	-1177
440.110	-1323
440.183	-1294
440.255	-2310
440.327	-429
440.400	1072
440.472	12139
440.544	9080
440.617	199
440.689	13
440.761	-408
440.833	-715
440.905	51
440.978	-1268
441.050	-1406
441.122	-1046
441.194	-1525
441.266	-1256
441.338	-1407
441.411	-1279
441.483	2211
441.555	4758
441.627	638
441.699	-982
441.771	-171
441.843	-2128
441.915	-1222
441.987	-1557
442.059	-1437
442.131	-642
442.203	-349
442.275	-627
442.347	-94
442.419	-139
442.491	6458
442.563	20891
442.635	10059
442.706	3070
442.778	2125
442.850	-1913
442.922	-1229
442.994	-1201
443.066	-165
443.137	-1572
443.209	-667
443.281	-750
443.353	1239
443.425	7929
443.496	38128
443.568	40615
443.640	14965
443.711	1755
443.783	260
443.855	-905
443.926	-586
443.998	-989
444.070	-561
444.141	-1854
444.213	-498
444.285	-877
444.356	-528
444.428	-1137
444.499	-927
444.571	-1321
444.642	-1264
444.714	-1798
444.785	-602
444.857	-528
444.928	1289
445.000	327
445.071	738
445.143	1047
445.214	352
445.285	612
445.357	6377
445.428	20545
445.500	64315
445.571	40440
445.642	20512
445.714	5563
445.785	4447
445.856	-39
445.928	-320
445.999	-1476
446.070	-232
446.141	-1612
446.213	-487
446.284	-1630
446.355	-371
446.426	-1827
446.497	-907
446.569	-888
446.640	230
446.711	-951
446.782	-1107
446.853	-1081
446.924	-742
446.995	-1798
447.066	-539
447.138	-1312
447.209	-137
447.280	-1909
447.351	-1077
447.422	-1934
447.493	-1525
447.564	-1410
447.635	-907
447.706	-1747
447.777	-579
447.847	-707
447.918	-1491
447.989	-1307
448.060	-389
448.131	108
448.202	33
448.273	-671
448.344	-291
448.414	-1536
448.485	-845
448.556	-1358
448.627	-1326
448.698	-1303
448.768	-979
448.839	-2223
448.910	-949
448.981	-834
449.051	-700
449.122	-1552
449.193	-809
449.263	-1631
449.334	-1757
449.405	-1743
449.475	-306
449.546	-647
449.616	-418
449.687	-1170
449.758	-568
449.828	-1513
449.899	-241
449.969	-1736
450.040	-1058
450.110	-416
450.181	-424
450.251	-1533
450.322	-571
450.392	-1294
450.463	-946
450.533	-2046
450.604	-1029
450.674	-1388
450.744	-71
450.815	-1920
450.885	-399
450.955	-1453
451.026	-1439
451.096	-1495
451.166	-1517
451.237	-783
451.307	1083
451.377	-352
451.447	69
451.518	-2081
451.588	-1157
451.658	-1842
451.728	-868
451.799	896
451.869	2289
451.939	-1221
452.009	-859
452.079	-2124
452.149	-1071
452.219	-905
452.289	2473
452.360	622
452.430	-705
452.500	-1257
452.570	-721
452.640	-949
452.710	942
452.780	2559
452.850	1956
452.920	-150
452.990	-116
453.060	-1841
453.129	-487
453.199	-1332
453.269	1771
453.339	7359
453.409	12997
453.479	10556
453.549	16743
453.619	18256
453.688	7058
453.758	-817
453.828	-885
453.898	-846
453.968	-504
454.037	-1377
454.087	-617
454.107	-313
454.168	-991
454.177	-1099
454.247	-935
454.249	-948
454.316	-1478
454.330	-1383
454.386	-1045
454.411	-798
454.456	-439
454.492	505
454.525	1329
454.574	-250
454.595	-919
454.655	-1035
454.665	-1068
454.734	-1323
454.736	-1292
454.804	-242
454.817	-14
454.873	856
454.898	1200
454.943	1759
454.979	623
455.013	-355
455.060	-562
455.082	-667
455.141	-855
455.152	-904
455.221	470
455.222	501
455.291	2373
455.303	2310
455.360	1898
455.384	3469
455.430	6220
455.465	4913
455.499	3718
455.546	2129
455.569	1350
455.627	776
455.638	669
455.707	-791
455.708	-788
455.777	-1118
455.789	-1072
455.846	-854
455.869	-911
455.916	-1115
455.950	-1087
455.985	-980
456.031	-458
456.054	-222
456.112	-1245
456.124	-1468
456.193	-985
456.193	-990
456.262	-1387
456.274	-1128
456.332	-21
456.355	-314
456.401	-824
456.436	-692
456.470	-585
456.516	-960
456.540	-1168
456.597	-1379
456.609	-1392
456.678	-946
456.678	-954
456.747	-495
456.759	-658
456.817	-1334
456.840	-1298
456.886	-1350
456.920	-1628
456.955	-1806
457.001	-1002
457.024	-737
457.082	-803
457.093	-736
457.162	-588
457.163	-582
457.232	-1112
457.243	-1068
457.301	-647
457.324	-712
457.370	-944
457.405	-623
457.439	-277
457.485	-828
457.508	-1108
457.566	-551
457.577	-451
457.646	-1240
457.647	-1229
457.715	-325
457.727	-333
457.784	-62
457.808	443
457.853	1129
457.889	1589
457.922	1780
457.969	1271
457.991	1198
458.050	603
458.060	541
458.129	2802
458.130	2834
458.198	3513
458.211	3399
458.267	2293
458.292	1204
458.336	-215
458.372	-181
458.405	123
458.453	242
458.474	276
458.533	1824
458.543	2073
458.611	4252
458.614	4335
458.680	4474
458.694	3399
458.749	-5
458.775	-154
458.818	-3
458.855	182
458.887	126
458.936	-322
458.955	-426
459.016	-689
459.024	-716
459.093	-45
459.097	-73
459.162	-728
459.177	-598
459.230	-92
459.257	-136
459.299	-117
459.338	141
459.368	243
459.418	12
459.437	-144
459.499	-228
459.505	-224
459.574	-314
459.579	-288
459.643	114
459.659	24
459.711	-452
459.740	-440
459.780	-277
459.820	-470
459.849	-778
459.900	-589
459.917	-333
459.981	-67
459.986	-96
460.054	-82
460.061	-113
460.123	63
460.141	351
460.191	671
460.222	285
460.260	-39
460.302	313
460.328	608
460.382	326
460.397	169
460.462	491
460.465	520
460.534	650
460.543	678
460.602	3322
460.623	4587
460.671	7860
460.703	11615
460.739	13047
460.783	13875
460.808	12992
460.864	4069
460.876	3031
460.944	391
460.945	359
461.013	71
461.024	-16
461.081	43
461.104	299
461.150	89
461.184	-484
461.218	-397
461.264	238
461.286	243
461.345	-364
461.355	-408
461.423	308
461.425	301
461.491	-188
461.505	-163
461.559	537
461.585	779
461.628	1056
461.665	1548
461.696	1993
461.745	2885
461.764	2671
461.825	1240
461.832	1260
461.901	500
461.905	545
461.969	251
461.985	-11
462.037	-74
462.065	203
462.105	146
462.145	-356
462.173	-78
462.225	1218
462.241	1324
462.305	1082
462.310	1063
462.378	1567
462.385	1461
462.446	477
462.465	278
462.514	151
462.545	308
462.582	385
462.625	619
462.650	626
462.705	34
462.718	-18
462.785	-11
462.786	-9
462.854	263
462.865	313
462.922	831
462.945	1022
462.990	838
463.025	738
463.058	825
463.104	600
463.126	417
463.184	136
463.194	178
463.262	476
463.264	498
463.330	349
463.344	222
463.398	608
463.424	833
463.466	458
463.504	133
463.533	290
463.583	544
463.601	469
463.663	7
463.669	25
463.737	582
463.743	594
463.805	1193
463.823	1510
463.873	1651
463.903	1671
463.940	2179
463.982	2799
464.008	2389
464.062	1185
464.076	1133
464.142	911
464.144	905
464.211	549
464.221	537
464.279	376
464.301	253
464.347	972
464.381	1611
464.414	1254
464.461	705
464.482	886
464.540	1280
464.550	1199
464.617	617
464.620	604
464.685	846
464.699	813
464.753	869
464.779	1046
464.820	1576
464.859	1861
464.888	1570
464.938	1187
464.956	1234
465.018	1341
465.023	1338
465.091	1275
465.098	1257
465.158	1104
465.177	1090
465.226	1159
465.257	1173
465.293	1155
465.336	1188
465.361	1213
465.416	1110
465.428	1220
465.495	2014
465.496	2025
465.563	2963
465.575	3156
465.631	3388
465.654	3539
465.698	2803
465.734	1998
465.765	1780
465.813	1354
465.833	1439
465.893	1833
465.900	1777
465.968	1439
465.972	1402
466.035	1471
466.052	1491
466.102	1250
466.131	1126
466.170	977
466.210	738
466.237	1122
466.290	2053
466.304	1946
466.369	1270
466.372	1286
466.439	1769
466.449	1824
466.506	1469
466.528	1362
466.573	1972
466.607	2370
466.641	2741
466.687	3321
466.708	3821
466.766	5190
466.775	4893
466.842	2628
466.845	2514
466.909	1539
466.925	1325
466.977	1808
467.004	2060
467.044	2202
467.083	2395
467.111	2675
467.163	3135
467.178	3155
467.242	3255
467.245	3208
467.312	2201
467.321	2070
467.379	2487
467.400	2633
467.446	2503
467.480	2407
467.559	2721
467.638	1776
467.717	919
467.796	1915
467.875	2094
467.955	2370
468.034	2534
468.113	4093
468.192	6070
468.271	3451
468.350	2295
468.429	2309
468.508	2357
468.588	1787
468.667	2516
468.746	2338
468.825	2340
468.904	1481
468.983	1258
469.062	1531
469.141	2972
469.220	1533
469.299	1907
469.378	1007
469.456	3022
469.535	2596
469.614	2560
469.693	1769
469.772	2301
469.851	2461
469.930	1794
470.009	2091
470.088	1218
470.166	1621
470.245	1870
470.324	2248
470.403	2043
470.482	1829
470.560	1425
470.639	1893
470.718	2534
470.797	1359
470.875	1961
470.954	1767
471.033	2260
471.111	855
471.190	1809
471.269	1279
471.347	1143
471.426	1269
471.505	1869
471.583	2737
471.662	2323
471.740	906
471.819	2163
471.898	1725
471.976	2037
472.055	1678
472.133	1432
472.212	2269
472.290	1585
472.369	1490
472.447	1849
472.526	1022
472.604	1180
472.683	1843
472.761	1659
472.839	1178
472.918	1018
472.996	901
473.075	1950
473.153	1202
473.231	1102
473.310	1218
473.388	1072
473.466	1895
473.545	1174
473.623	1672
473.701	1221
473.780	1945
473.858	829
473.936	1866
474.014	1467
474.093	1476
474.171	1408
474.249	1971
474.327	2036
474.405	1256
474.484	1095
474.562	274
474.640	953
474.718	1190
474.796	1122
474.874	1604
474.952	1581
475.030	942
475.108	1768
475.187	1291
475.265	1570
475.343	1524
475.421	1810
475.499	1411
475.577	1669
475.655	1955
475.733	2860
475.811	3849
475.889	3498
475.966	3360
476.044	1084
476.122	932
476.200	1002
476.278	1168
476.356	1139
476.434	1561
476.512	1170
476.590	1203
476.667	1829
476.745	1504
476.823	1510
476.901	738
476.979	1704
477.056	820
477.134	309
477.212	1871
477.290	1369
477.367	479
477.445	1621
477.523	1398
477.601	809
477.678	738
477.756	1133
477.834	1054
477.911	602
477.989	1748
478.066	745
478.144	409
478.222	1156
478.299	492
478.377	2006
478.454	530
478.532	1317
478.609	1545
478.687	1340
478.764	-314
478.842	493
478.919	135
478.997	895
479.074	1174
479.152	520
479.229	697
479.307	234
479.384	989
479.461	865
479.539	535
479.616	1220
479.694	977
479.771	1385
479.848	967
479.926	-58
480.003	1917
480.080	1875
480.157	292
480.235	961
480.312	585
480.389	464
480.467	473
480.544	1790
480.621	1151
480.698	481
480.775	1333
480.853	831
480.930	488
481.007	1652
481.084	993
481.161	1794
481.238	1517
481.315	73
481.392	464
481.470	1022
481.547	963
481.624	923
481.701	634
481.778	890
481.855	1528
481.932	986
482.009	1674
482.086	2274
482.163	912
482.240	1337
482.317	751
482.393	1034
482.470	265
482.547	876
482.624	367
482.701	1173
482.778	918
482.855	-172
482.932	1175
483.009	998
483.085	584
483.162	1121
483.239	1086
483.316	41
483.393	736
483.469	625
483.546	573
483.623	1410
483.699	502
483.776	334
483.853	48
483.930	1817
484.006	2887
484.083	6940
484.160	5690
484.236	7491
484.313	6899
484.389	4444
484.466	4294
484.543	3579
484.619	2996
484.696	4290
484.772	3354
484.849	4258
484.925	2910
485.002	3815
485.078	3353
485.155	3721
485.231	2600
485.308	2366
485.384	3691
485.461	3823
485.537	3994
485.614	5587
485.690	3659
485.766	2342
485.843	2409
485.919	3634
485.995	3875
486.072	2680
486.148	2277
486.224	2800
486.301	2714
486.377	3196
486.453	2291
486.530	3618
486.606	4996
486.682	5019
486.758	4723
486.835	4753
486.911	3439
486.987	5777
487.063	5424
487.139	5937
487.215	4640
487.292	4090
487.368	3272
487.444	2648
487.520	4038
487.596	3699
487.672	4697
487.748	9255
487.824	14355
487.900	8829
487.976	3486
488.052	3419
488.128	3361
488.204	3070
488.280	2590
488.356	3262
488.432	4577
488.508	7097
488.584	4412
488.660	2994
488.736	2005
488.812	2048
488.888	2735
488.964	3664
489.039	4883
489.115	5688
489.191	5734
489.267	2871
489.343	2713
489.418	2461
489.494	1456
489.570	1342
489.646	3157
489.722	1694
489.797	2408
489.873	2862
489.949	4457
490.024	5103
490.100	2059
490.176	1455
490.251	2050
490.327	1887
490.403	2468
490.478	1912
490.554	2099
490.629	1915
490.705	1723
490.781	1919
490.856	1588
490.932	1724
491.007	2423
491.083	1747
491.158	2583
491.234	2587
491.309	3160
491.385	4174
491.460	1292
491.536	1493
491.611	2243
491.686	2015
491.762	2523
491.837	2678
491.913	3555
491.988	5304
492.063	7841
492.139	4050
492.214	2148
492.289	1863
492.365	1061
492.440	2080
492.515	1079
492.590	823
492.666	666
492.741	1759
492.816	2157
492.891	1560
492.967	1169
493.042	2327
493.117	1009
493.192	875
493.267	2227
493.342	6949
493.418	12078
493.493	4057
493.568	1440
493.643	1369
493.718	1045
493.793	2853
493.868	1754
493.943	2132
494.018	1793
494.093	1008
494.168	1066
494.243	1032
494.318	898
494.393	740
494.468	634
494.543	626
494.618	1212
494.693	292
494.768	1077
494.842	920
494.917	814
494.992	1458
495.067	253
495.142	1126
495.217	673
495.292	503
495.366	506
495.441	867
495.516	1261
495.591	1947
495.665	4184
495.740	10394
495.815	8096
495.890	2273
495.964	-298
496.039	1426
496.114	1044
496.188	2132
496.263	1812
496.338	682
496.412	871
496.487	2278
496.561	2114
496.636	2179
496.710	1981
496.785	2438
496.860	1893
496.934	1250
497.009	1976
497.083	1936
497.158	1562
497.232	2311
497.307	2413
497.381	2285
497.455	2887
497.530	3047
497.604	3364
497.679	2306
497.753	4047
497.827	4882
497.902	5558
497.976	5552
498.050	9117
498.125	30998
498.199	51218
498.273	11314
498.348	5681
498.422	4642
498.496	4420
498.570	3937
498.645	3480
498.719	2311
498.793	2640
498.867	4593
498.941	5311
499.016	10013
499.090	35964
499.164	27108
499.238	1905
499.312	1333
499.386	2082
499.460	2190
499.534	1170
499.609	2521
499.683	3195
499.757	3378
499.831	4284
499.905	20923
499.979	32263
500.053	5490
500.127	2908
500.201	1180
500.275	1684
500.349	1499
500.422	1703
500.496	2369
500.570	3046
500.644	9815
500.718	24927
500.792	12173
500.866	1736
500.940	1925
501.013	1928
501.087	1599
501.161	1439
501.235	3065
501.309	6761
501.382	19248
501.456	26585
501.530	4926
501.603	6035
501.677	4098
501.751	413
501.825	1329
501.898	2004
501.972	7597
502.046	7499
502.119	2089
502.193	2613
502.266	8352
502.340	7166
502.413	3383
502.487	8289
502.561	5546
502.634	1501
502.708	1219
502.781	78
502.855	1157
502.928	-232
503.002	623
503.075	8
503.149	813
503.222	749
503.295	693
503.369	1745
503.442	2022
503.516	4508
503.589	14020
503.662	14426
503.736	3787
503.809	6370
503.882	7363
503.956	7063
504.029	10822
504.102	5117
504.175	8616
504.249	3108
504.322	1964
504.395	1140
504.468	1370
504.542	331
504.615	461
504.688	557
504.761	391
504.834	1028
504.907	683
504.980	464
505.053	263
505.127	-269
505.200	2533
505.273	22
505.346	731
505.419	424
505.492	1359
505.565	-308
505.638	152
505.711	98
505.784	-525
505.857	-550
505.930	1575
506.003	-204
506.076	2312
506.149	417
506.221	101
506.294	1837
506.367	1084
506.440	10323
506.513	10914
506.586	1141
506.659	787
506.731	148
506.804	793
506.877	141
506.950	748
507.022	581
507.095	453
507.168	869
507.241	630
507.313	-725
507.386	-249
507.459	380
507.531	89
507.604	-569
507.677	540
507.749	686
507.822	349
507.894	1143
507.967	3091
508.040	1212
508.112	1549
508.185	1397
508.257	532
508.330	1742
508.402	1132
508.475	804
508.547	1234
508.620	1282
508.692	1656
508.765	803
508.837	257
508.909	608
508.982	758
509.054	718
509.127	-508
509.199	898
509.271	854
509.344	-161
509.416	922
509.488	283
509.560	731
509.633	845
509.705	860
509.777	250
509.849	1608
509.922	-181
509.994	977
510.066	1904
510.138	88
510.210	2652
510.283	2368
510.355	2397
510.427	1689
510.499	888
510.571	2149
510.643	505
510.715	2214
510.787	244
510.859	1850
510.931	1111
511.003	2230
511.076	1979
511.148	1084
511.219	-49
511.291	1825
511.363	1915
511.435	2277
511.507	1251
511.579	1231
511.651	1686
511.723	1547
511.795	1103
511.867	940
511.939	1429
512.010	1497
512.082	2304
512.154	1370
512.226	610
512.298	1302
512.369	2455
512.441	2401
512.513	1793
512.585	744
512.656	2023
512.728	943
512.800	1447
512.871	1902
512.943	967
513.015	664
513.086	842
513.158	1498
513.230	413
513.301	446
513.373	1746
513.444	1374
513.516	1008
513.588	962
513.659	842
513.731	1453
513.802	777
513.874	2194
513.945	2237
514.016	893
514.088	599
514.159	-101
514.231	1102
514.302	2586
514.374	2407
514.445	739
514.516	3316
514.588	1969
514.659	998
514.730	2055
514.802	2097
514.873	292
514.944	4538
515.016	1197
515.087	1234
515.158	1578
515.229	2776
515.301	2045
515.372	3863
515.443	1142
515.514	814
515.585	684
515.656	1587
515.728	1512
515.799	1657
515.870	979
515.941	1488
516.012	663
516.083	1710
516.154	226
516.225	2405
516.296	2489
516.367	1900
516.438	1486
516.509	1157
516.580	2500
516.651	5136
516.722	23004
516.793	22363
516.864	3073
516.935	3099
517.006	3244
517.077	3545
517.148	7365
517.219	21955
517.289	60836
517.360	23697
517.431	10180
517.502	1214
517.573	1722
517.643	2079
517.714	1676
517.785	2464
517.856	1029
517.926	2544
517.997	2979
518.068	3110
518.138	4722
518.209	5330
518.280	15071
518.350	68985
518.421	58005
518.492	6539
518.562	2639
518.633	2256
518.703	726
518.774	4273
518.845	8481
518.915	11216
518.986	4117
519.056	2074
519.127	2503
519.197	4897
519.268	11168
519.338	15302
519.408	2820
519.479	2050
519.549	1315
519.620	2639
519.690	680
519.760	1275
519.831	311
519.901	1703
519.971	1477
520.042	776
520.112	-266
520.182	1177
520.253	1983
520.323	884
520.393	445
520.463	3372
520.534	-762
520.604	4075
520.674	1981
520.744	522
520.814	2532
520.885	3645
520.955	3451
521.025	13900
521.095	12275
521.165	1301
521.235	574
521.305	638
521.375	1408
521.445	641
521.515	328
521.585	1189
521.655	-417
521.725	1296
521.795	1369
521.865	-1404
521.935	2754
522.005	951
522.075	1002
522.145	1610
522.215	701
522.285	946
522.355	1163
522.424	2814
522.494	2623
522.564	1442
522.634	978
522.704	6056
522.774	4022
522.843	585
522.913	857
522.983	671
523.053	152
523.122	673
523.192	236
523.262	1366
523.331	3354
523.401	1595
523.471	468
523.540	608
523.610	100
523.680	1628
523.749	-172
523.819	1070
523.888	947
523.958	525
524.027	855
524.097	-111
524.166	-122
524.236	-439
524.305	1604
524.375	311
524.444	-93
524.514	1695
524.583	227
524.653	428
524.722	1303
524.791	-122
524.861	1829
524.930	-309
524.999	572
525.069	1056
525.138	673
525.207	-644
525.277	1228
525.346	-90
525.415	903
525.484	475
525.554	639
525.623	714
525.692	975
525.761	582
525.830	1175
525.900	401
525.969	2266
526.038	3157
526.107	4050
526.176	17263
526.245	20328
526.314	7305
526.383	8599
526.452	14462
526.522	20030
526.591	32227
526.660	7812
526.729	3160
526.797	4374
526.867	4399
526.935	22131
527.004	51661
527.073	47897
527.142	4817
527.211	2204
527.280	1103
527.349	1237
527.418	-264
527.487	856
527.555	-258
527.624	-223
527.693	-1301
527.762	735
527.831	-651
527.899	504
527.968	1018
528.037	-1021
528.106	894
528.174	1404
528.243	402
528.312	1199
528.380	1143
528.449	149
528.518	973
528.586	-1710
528.655	1118
528.723	483
528.792	-646
528.861	-38
528.929	-874
528.998	533
529.066	-669
529.135	471
529.203	-341
529.272	-585
529.340	1284
529.409	1977
529.477	-65
529.545	124
529.614	2718
529.682	578
529.751	889
529.819	3575
529.887	1299
529.956	1303
530.024	1314
530.092	67
530.161	2135
530.229	434
530.297	930
530.365	2148
530.434	1983
530.502	709
530.570	505
530.638	347
530.707	1240
530.775	1988
530.843	-63
530.911	238
530.979	332
531.047	888
531.115	1441
531.183	1679
531.252	1573
531.320	1109
531.388	591
531.456	1858
531.524	-1073
531.592	1660
531.660	2534
531.728	502
531.796	1637
531.864	1095
531.932	1209
532.000	603
532.067	885
532.135	1864
532.203	2601
532.271	1009
532.339	2170
532.407	3226
532.475	2962
532.542	1983
532.610	2181
532.678	605
532.746	4505
532.814	15872
532.881	7340
532.949	2467
533.017	1794
533.084	1519
533.152	1274
533.220	1081
533.287	189
533.355	773
533.423	1127
533.490	60
533.558	1010
533.625	1317
533.693	1438
533.761	1854
533.828	1722
533.896	137
533.963	2117
534.031	2773
534.098	3499
534.166	1717
534.233	864
534.300	1991
534.368	1391
534.435	1328
534.503	2566
534.570	1327
534.637	291
534.705	1351
534.772	1490
534.840	1369
534.907	7612
534.974	16337
535.041	2519
535.109	1162
535.176	296
535.243	1952
535.310	1085
535.378	327
535.445	591
535.512	-35
535.579	1656
535.646	-200
535.714	889
535.781	1192
535.848	1220
535.915	1924
535.982	1423
536.049	1174
536.116	2209
536.183	387
536.250	561
536.317	488
536.384	1369
536.451	2083
536.518	1810
536.585	86
536.652	2003
536.719	1943
536.786	281
536.853	795
536.920	1807
536.987	1764
537.053	849
537.120	6157
537.187	10404
537.254	1310
537.321	-114
537.388	2177
537.454	91
537.521	-206
537.588	55
537.654	1436
537.721	155
537.788	1245
537.855	304
537.921	68
537.988	-10
538.055	1277
538.121	-124
538.188	825
538.254	1077
538.321	1924
538.388	1946
538.454	443
538.521	910
538.587	760
538.654	104
538.720	171
538.787	101
538.853	929
538.920	811
538.986	178
539.053	662
539.119	115
539.185	-339
539.252	1410
539.318	640
539.385	1477
539.451	101
539.517	1135
539.583	734
539.650	1435
539.716	5032
539.782	2892
539.849	-319
539.915	1172
539.981	-32
540.047	478
540.114	63
540.180	1407
540.246	-381
540.312	265
540.378	978
540.444	3087
540.510	1829
540.576	5832
540.643	3445
540.709	-376
540.775	463
540.841	124
540.907	1019
540.973	1911
541.039	703
541.105	1498
541.171	219
541.237	-330
541.303	1248
541.369	1890
541.435	584
541.500	2001
541.566	-217
541.632	787
541.698	497
541.764	1102
541.830	729
541.896	-592
541.961	1150
542.027	860
542.093	82
542.159	381
542.224	611
542.290	1385
542.356	1897
542.421	2036
542.487	1569
542.553	713
542.618	-36
542.684	533
542.750	280
542.815	827
542.881	1032
542.947	3969
543.012	6577
543.078	235
543.143	1686
543.209	1083
543.274	-282
543.340	645
543.405	1248
543.471	3595
543.536	868
543.602	873
543.667	-1165
543.732	1491
543.798	-148
543.863	255
543.928	-42
543.994	296
544.059	668
544.124	452
544.190	-217
544.255	1669
544.320	197
544.386	-133
544.451	1324
544.516	907
544.581	181
544.646	2238
544.712	6693
544.777	2767
544.842	-13
544.907	167
544.972	995
545.037	1099
545.102	726
545.168	1095
545.233	1131
545.298	1258
545.363	461
545.428	1392
545.493	1977
545.558	3298
545.623	2527
545.688	1223
545.753	527
545.818	1048
545.883	569
545.947	1050
546.012	1856
546.077	426
546.142	1266
546.207	-298
546.272	1417
546.337	916
546.401	1544
546.466	1346
546.531	-1
546.596	1788
546.661	1114
546.725	2092
546.790	1064
546.855	1801
546.919	741
546.984	1697
547.049	1059
547.113	2814
547.178	927
547.243	2327
547.307	2670
547.372	2905
547.436	3896
547.501	3519
547.565	3510
547.630	3514
547.695	2681
547.759	4024
547.823	2980
547.888	3185
547.952	4141
548.017	2708
548.081	3546
548.146	3895
548.210	4364
548.274	3573
548.339	2859
548.403	3179
548.468	2712
548.532	1687
548.596	2934
548.660	3014
548.725	3852
548.789	3644
548.853	4931
548.917	3137
548.982	3447
549.046	4944
549.110	2320
549.174	3444
549.238	3150
549.303	2394
549.367	4087
549.431	2816
549.495	3413
549.559	2476
549.623	3988
549.687	3961
549.751	3678
549.815	4149
549.879	5907
549.943	3782
550.007	5631
550.071	5018
550.135	4659
550.199	3312
550.263	3777
550.327	4635
550.391	3795
550.455	5187
550.519	4095
550.582	5513
550.646	5346
550.710	5610
550.774	5641
550.838	5118
550.901	6557
550.965	6277
551.029	5906
551.093	8034
551.156	7710
551.220	10751
551.284	13346
551.347	9150
551.411	10406
551.475	12247
551.538	7241
551.602	5397
551.666	5287
551.729	4578
551.793	5561
551.856	5918
551.920	4958
551.983	4254
552.047	4475
552.110	4787
552.174	4622
552.237	4578
552.301	5149
552.364	4676
552.428	3704
552.491	4647
552.554	5169
552.618	4875
552.681	5324
552.745	3872
552.808	5477
552.871	7463
552.934	5997
552.998	4521
553.061	4640
553.124	5063
553.187	5100
553.251	5007
553.314	5516
553.377	4003
553.440	5967
553.503	10305
553.567	24380
553.630	10059
553.693	5766
553.756	5118
553.819	5022
553.882	4286
553.945	4473
554.008	4011
554.071	4589
554.134	5255
554.197	3682
554.260	4847
554.323	5153
554.386	4326
554.449	3985
554.512	5458
554.575	3751
554.638	3951
554.701	4655
554.764	4149
554.827	3830
554.889	3977
554.952	3345
555.015	3734
555.078	3199
555.141	4354
555.203	3371
555.266	3818
555.329	3173
555.391	3407
555.454	2819
555.517	3494
555.580	2779
555.642	2836
555.705	2204
555.768	3246
555.830	2954
555.893	2443
555.955	2323
556.018	2722
556.080	3043
556.143	3056
556.206	1783
556.268	2222
556.330	2734
556.393	3552
556.455	2694
556.518	3207
556.580	3065
556.643	3021
556.705	2687
556.767	1084
556.830	2755
556.892	2667
556.955	2256
557.017	3495
557.079	2664
557.142	2517
557.204	1786
557.266	4073
557.328	3425
557.391	1576
557.453	1988
557.515	2311
557.577	1925
557.639	1675
557.701	2184
557.764	2293
557.826	1592
557.888	3193
557.950	1623
558.012	2875
558.074	3422
558.136	5571
558.198	18326
558.260	12376
558.322	2364
558.384	1714
558.446	3719
558.508	3705
558.570	4747
558.632	6683
558.694	8680
558.756	12182
558.818	25865
558.880	96356
558.942	51389
559.003	20651
559.065	15773
559.127	5300
559.189	4725
559.251	5695
559.312	7100
559.374	12971
559.436	51827
559.498	48934
559.559	5867
559.621	5328
559.683	4023
559.744	7730
559.806	19373
559.868	49659
559.929	13635
559.991	5826
560.052	5093
560.114	16795
560.176	16876
560.237	8924
560.299	18871
560.360	6932
560.422	2713
560.483	2295
560.545	2138
560.606	1614
560.667	1314
560.729	1720
560.790	1200
560.852	1614
560.913	1130
560.974	1701
561.036	1459
561.097	1059
561.158	983
561.220	2426
561.281	1311
561.342	1677
561.403	1602
561.465	956
561.526	2704
561.587	5909
561.648	1604
561.709	960
561.771	1323
561.832	1452
561.893	1248
561.954	1271
562.015	1033
562.076	1850
562.137	682
562.198	738
562.259	1500
562.320	727
562.381	1027
562.442	811
562.503	2418
562.564	697
562.625	624
562.686	674
562.747	434
562.808	1543
562.869	1521
562.930	2213
562.991	1304
563.051	1504
563.112	1428
563.173	1158
563.234	814
563.294	2024
563.355	1137
563.416	2224
563.477	1039
563.537	1209
563.598	1716
563.659	1585
563.720	1263
563.780	501
563.841	1259
563.901	1688
563.962	1421
564.023	1530
564.083	1267
564.144	1487
564.204	1305
564.265	2041
564.325	1521
564.386	2353
564.446	2863
564.507	618
564.567	818
564.628	1534
564.688	1029
564.749	974
564.809	1661
564.869	1542
564.930	924
564.990	1800
565.050	1390
565.111	2091
565.171	792
565.231	1093
565.292	1342
565.352	671
565.412	1765
565.472	1668
565.532	1221
565.593	1956
565.653	1268
565.713	1948
565.773	2046
565.833	1543
565.893	2411
565.953	2097
566.013	2487
566.074	2060
566.134	2521
566.194	2877
566.254	4330
566.314	3297
566.374	1686
566.434	2407
566.494	2264
566.554	2989
566.614	2391
566.673	2667
566.733	2250
566.793	2870
566.853	3132
566.913	3409
566.973	3892
567.033	3511
567.092	2486
567.152	3481
567.212	3439
567.272	3681
567.331	4014
567.391	4545
567.451	3360
567.511	5210
567.570	5174
567.630	4188
567.690	3591
567.749	4219
567.809	5167
567.868	4849
567.928	5014
567.988	6463
568.047	8463
568.107	9623
568.166	13329
568.226	19155
568.285	27882
568.345	27029
568.404	22057
568.464	20051
568.523	18342
568.582	17905
568.642	19185
568.701	22174
568.761	29815
568.820	45180
568.879	50393
568.939	41448
568.998	31447
569.057	24929
569.116	19245
569.176	15682
569.235	12837
569.294	10072
569.353	9238
569.413	8831
569.472	6968
569.531	6446
569.590	5421
569.649	4926
569.708	4368
569.767	4595
569.827	3659
569.886	3706
569.945	3966
570.004	3278
570.063	3388
570.122	2353
570.181	2303
570.240	2811
570.299	2793
570.358	3096
570.417	2443
570.475	2033
570.534	2646
570.593	2483
570.652	2066
570.711	2254
570.770	1720
570.829	2958
570.887	1836
570.946	2924
571.005	1682
571.064	2222
571.122	2407
571.181	1896
571.240	1705
571.299	1799
571.357	2314
571.416	2573
571.475	1807
571.533	2495
571.592	1362
571.650	1871
571.709	1156
571.768	2772
571.826	2094
571.885	1688
571.943	1721
572.002	1960
572.060	1657
572.119	1598
572.177	2338
572.236	2468
572.294	1232
572.352	1238
572.411	1365
572.469	1344
572.528	893
572.586	1970
572.644	2152
572.703	2594
572.761	1282
572.819	1303
572.877	1845
572.936	1510
572.994	1681
573.052	1352
573.110	1407
573.169	1576
573.227	1769
573.285	2012
573.343	1717
573.401	2291
573.459	1754
573.517	1219
573.576	1152
573.634	1180
573.692	1595
573.750	1148
573.808	1137
573.866	1727
573.924	2044
573.982	1265
574.040	2100
574.098	1639
574.155	1049
574.213	1510
574.271	1482
574.329	1721
574.387	1699
574.445	1615
574.503	989
574.560	1201
574.618	1421
574.676	754
574.734	984
574.792	1384
574.849	1331
574.907	656
574.965	1630
575.022	1096
575.080	1943
575.138	1810
575.195	1678
575.253	1660
575.311	775
575.368	2027
575.426	1656
575.483	1952
575.541	1603
575.598	802
575.656	1605
575.713	1557
575.771	1656
575.828	2202
575.886	1360
575.943	1291
576.001	1601
576.058	1509
576.115	1783
576.173	1870
576.230	2328
576.287	2057
576.345	2011
576.402	1898
576.459	1284
576.517	1363
576.574	1953
576.631	2879
576.688	1474
576.746	1873
576.803	1014
576.860	1256
576.917	2111
576.974	2238
577.031	2244
577.089	1887
577.146	1753
577.203	1757
577.260	1561
577.317	2495
577.374	2756
577.431	2043
577.488	2125
577.545	2282
577.602	2537
577.659	2240
577.716	2149
577.773	1668
577.830	2315
577.886	2143
577.943	2289
578.000	2916
578.057	2161
578.114	2300
578.171	2882
578.227	4086
578.284	4340
578.341	3434
578.398	3209
578.454	3341
578.511	2378
578.568	1982
578.625	2783
578.681	1874
578.738	1864
578.794	2952
578.851	2302
578.908	1915
578.964	2735
579.021	3321
579.077	1789
579.134	2622
579.190	1479
579.247	2723
579.303	1300
579.360	2381
579.416	1762
579.473	2141
579.529	1990
579.586	2396
579.642	2061
579.698	2165
579.755	2858
579.811	3129
579.867	2304
579.924	3208
579.980	2784
580.036	3573
580.093	4196
580.149	5645
580.205	6835
580.261	5171
580.317	5028
580.374	3637
580.430	4160
580.486	3844
580.542	2894
580.598	3334
580.619	3440
580.654	3627
580.692	3253
580.710	3070
580.765	2940
580.767	2937
580.823	3223
580.838	3278
580.879	3442
580.911	3316
580.935	3232
580.984	3158
580.991	3147
581.047	3631
581.057	3694
581.103	4004
581.130	3815
581.159	3589
581.203	3917
581.215	4024
581.270	4699
581.276	4642
581.326	4018
581.349	4138
581.382	4339
581.422	4102
581.438	3998
581.494	3351
581.494	3354
581.550	3785
581.567	3849
581.606	3983
581.640	3812
581.661	3713
581.713	4217
581.717	4250
581.773	3980
581.786	4078
581.829	4545
581.859	4253
581.885	3992
581.932	4362
581.940	4411
581.996	4265
582.004	4312
582.052	4670
582.077	4681
582.107	4665
582.150	4356
582.163	4268
582.219	4371
582.223	4399
582.274	4821
582.296	4601
582.330	4177
582.368	4467
582.386	4637
582.441	4609
582.441	4608
582.497	5386
582.514	5080
582.552	4376
582.587	4867
582.608	5226
582.659	5518
582.663	5533
582.719	5954
582.732	5918
582.774	5786
582.805	5357
582.830	5049
582.877	5096
582.885	5088
582.941	5622
582.950	5678
582.996	6185
583.023	6649
583.052	7063
583.095	7017
583.107	7035
583.162	7867
583.168	7910
583.218	8010
583.240	7558
583.273	7048
583.313	7098
583.328	7067
583.384	7352
583.385	7325
583.439	6544
583.458	6483
583.494	6437
583.531	6262
583.549	6193
583.603	6395
583.605	6393
583.660	6213
583.676	6181
583.715	6390
583.748	6682
583.770	6836
583.820	7010
583.825	7014
583.881	6752
583.893	6844
583.936	7266
583.965	6975
583.991	6626
584.038	6790
584.046	6870
584.101	6851
584.110	6960
584.156	7252
584.183	6838
584.211	6414
584.255	7128
584.266	7340
584.321	7279
584.328	7231
584.376	6919
584.400	7278
584.431	7716
584.472	7680
584.486	7624
584.541	7357
584.545	7414
584.596	8571
584.617	8400
584.651	7960
584.689	8557
584.706	8925
584.761	8534
584.762	8539
584.816	9187
584.834	9156
584.871	8872
584.906	8861
584.926	9011
584.978	9156
584.980	9164
585.035	9858
585.051	9882
585.090	9850
585.123	10310
585.145	10496
585.195	10175
585.200	10194
585.254	10176
585.267	10432
585.309	11442
585.340	12398
585.364	13162
585.412	14293
585.419	14390
585.473	14567
585.484	14648
585.528	15870
585.556	17368
585.583	20429
585.628	26540
585.637	29820
585.692	53941
585.700	58701
585.747	84250
585.772	88006
585.801	68112
585.845	33061
585.856	28450
585.910	17559
585.917	16305
585.965	14191
585.989	13959
586.019	14308
586.061	14548
586.074	14571
586.128	14416
586.133	14375
586.183	14487
586.205	14735
586.237	14851
586.277	14688
586.292	14783
586.346	15398
586.349	15435
586.401	15702
586.421	15732
586.455	15964
586.493	16593
586.509	17066
586.564	17630
586.565	17678
586.618	21887
586.637	23019
586.672	22518
586.709	20660
586.727	19948
586.781	19655
586.781	19664
586.835	19713
586.853	19834
586.889	19991
586.925	20088
586.944	20316
586.996	20970
586.998	20989
587.052	21706
587.068	21936
587.106	22593
587.140	23038
587.161	23473
587.212	24411
587.215	24437
587.269	25520
587.284	25693
587.323	26830
587.356	27886
587.377	28270
587.427	29820
587.431	30002
587.485	31828
587.499	32413
587.539	33714
587.571	34600
587.593	35487
587.643	38353
587.648	38603
587.702	40182
587.715	40815
587.755	43203
587.786	44978
587.810	46465
587.858	49902
587.864	50308
587.917	54496
587.930	55370
587.971	59209
588.001	62594
588.025	65514
588.073	70880
588.079	71632
588.133	79857
588.145	81508
588.187	88739
588.217	94490
588.241	99800
588.288	110491
588.295	112229
588.348	127380
588.360	130607
588.402	145751
588.431	157053
588.456	168412
588.503	190507
588.510	194529
588.564	227317
588.575	234275
588.617	272805
588.646	299320
588.671	331728
588.718	393582
588.725	408127
588.778	517619
588.789	538492
588.832	635826
588.861	695913
588.886	689725
588.932	660868
588.939	646463
588.993	514783
589.004	494743
589.047	633401
589.075	723835
589.100	717164
589.147	678969
589.154	664872
589.207	536854
589.218	509284
589.261	461002
589.290	429268
589.314	432570
589.361	439347
589.368	448773
589.421	525655
589.433	540680
589.475	626609
589.504	680881
589.528	662826
589.576	609452
589.582	611970
589.635	642505
589.647	647935
589.689	621965
589.718	590149
589.742	521116
589.790	374667
589.795	365871
589.849	279642
589.861	259374
589.902	222105
589.932	195304
589.955	180414
590.004	150035
590.009	148140
590.062	127083
590.075	122097
590.115	110703
590.146	102130
590.168	97706
590.218	87910
590.222	87247
590.275	78306
590.289	76138
590.328	71975
590.360	68459
590.381	66061
590.431	60424
590.435	60169
590.488	55858
590.503	54606
590.541	52420
590.574	50544
590.594	49516
590.645	47058
590.647	46959
590.700	43715
590.716	42696
590.753	41491
590.787	40499
590.806	39636
590.859	37242
590.859	37235
590.912	35607
590.930	35144
590.965	34566
591.001	33971
591.018	33513
591.071	31851
591.072	31813
591.124	30663
591.143	30239
591.177	29317
591.214	28288
591.230	28294
591.283	28324
591.285	28298
591.336	26912
591.356	26393
591.389	26249
591.427	25968
591.442	25790
591.495	25067
591.498	24994
591.547	24044
591.569	23614
591.600	23820
591.640	23935
591.653	23620
591.706	22302
591.711	22147
591.759	22333
591.782	22294
591.811	22560
591.853	23076
591.864	22960
591.917	22123
591.924	21968
591.969	21171
591.995	20735
592.022	20604
592.066	20265
592.075	20409
592.127	21168
592.137	21280
592.180	22117
592.208	22632
592.233	22019
592.279	20708
592.285	20695
592.338	20375
592.350	20260
592.390	19061
592.421	18151
592.443	18357
592.491	18727
592.495	18724
592.548	18386
592.562	18274
592.600	18278
592.633	18243
592.653	17876
592.704	16777
592.705	16881
592.775	17308
592.846	17014
592.916	17147
592.987	17664
593.058	17368
593.128	16236
593.199	16009
593.270	16589
593.341	15990
593.411	16069
593.482	15760
593.553	16113
593.623	15150
593.694	16106
593.764	15989
593.835	15950
593.906	15471
593.976	15056
594.047	15130
594.117	17596
594.188	17854
594.258	15550
594.329	16139
594.399	15092
594.470	15922
594.540	14831
594.611	15152
594.681	14792
594.751	15965
594.822	15970
594.892	16202
594.963	17447
595.033	16737
595.103	16376
595.174	16665
595.244	18767
595.314	23982
595.384	17701
595.455	16447
595.525	16048
595.595	17196
595.665	17602
595.736	17068
595.806	17169
595.876	18135
595.946	17587
596.016	18094
596.087	17913
596.157	18330
596.227	18355
596.297	18420
596.367	19255
596.437	21392
596.507	22743
596.577	25249
596.647	21135
596.717	20610
596.787	20593
596.857	20796
596.927	21377
596.997	21092
597.067	22597
597.137	23047
597.207	21868
597.277	21732
597.347	20790
597.417	21039
597.487	20734
597.557	20871
597.626	21531
597.696	22231
597.766	22876
597.836	25693
597.906	22574
597.975	19571
598.045	20468
598.115	20380
598.185	21650
598.254	23313
598.324	24797
598.394	24739
598.464	25366
598.533	24929
598.603	23810
598.672	23082
598.742	23147
598.812	23639
598.881	23626
598.951	24521
599.020	23131
599.090	24919
599.159	24689
599.229	24629
599.299	24300
599.368	24712
599.437	24280
599.507	23849
599.576	23450
599.646	23876
599.715	24250
599.785	22561
599.854	23808
599.924	24649
599.993	24208
600.062	23086
600.132	23900
600.201	25498
600.270	27463
600.340	28245
600.409	27661
600.478	27876
600.547	27521
600.617	29029
600.686	25045
600.755	23468
600.824	23648
600.894	22839
600.963	24076
601.032	23719
601.101	23449
601.170	22740
601.239	21946
601.308	22973
601.378	23885
601.447	23083
601.516	24304
601.585	25278
601.654	24638
601.723	25780
601.792	26160
601.861	27639
601.930	29972
601.999	29963
602.068	28237
602.137	29076
602.206	29756
602.275	28481
602.343	29720
602.412	29800
602.481	29737
602.550	29929
602.619	30487
602.688	30742
602.756	31396
602.825	30772
602.894	31236
602.963	30993
603.032	32070
603.100	32125
603.169	31102
603.238	31626
603.307	31187
603.375	30727
603.444	32345
603.513	31727
603.581	30033
603.650	33646
603.719	30004
603.787	28256
603.856	29069
603.924	29042
603.993	30151
604.061	30423
604.130	31060
604.198	33545
604.267	32842
604.335	33347
604.404	33225
604.472	32993
604.541	34799
604.609	34803
604.678	37372
604.746	36630
604.815	38181
604.883	38671
604.951	36418
605.020	36878
605.088	36255
605.156	35991
605.225	34732
605.293	33705
605.361	34718
605.429	34208
605.498	34750
605.566	35546
605.634	36367
605.702	37506
605.771	38636
605.839	39927
605.907	36725
605.975	37347
606.043	36619
606.111	35160
606.180	37772
606.248	36849
606.316	35297
606.384	35877
606.452	35119
606.520	29293
606.588	30431
606.656	28807
606.724	29121
606.792	27594
606.860	25782
606.928	22628
606.996	22210
607.064	21332
607.132	22008
607.200	22978
607.267	24675
607.335	23906
607.403	24550
607.471	24343
607.539	23161
607.607	24103
607.674	21932
607.742	20684
607.810	21600
607.878	21053
607.946	21057
608.013	22374
608.081	21839
608.149	23322
608.216	22617
608.284	24417
608.352	23094
608.419	24091
608.487	25985
608.555	23690
608.622	23377
608.690	23682
608.757	25386
608.825	26328
608.893	26129
608.960	26944
609.028	25680
609.095	26927
609.163	25812
609.230	23081
609.298	21082
609.365	21201
609.432	22490
609.500	23952
609.567	26481
609.635	30977
609.702	32644
609.769	32598
609.837	28587
609.904	23284
609.971	23631
610.039	28870
610.106	36329
610.173	74717
610.241	185485
610.308	205535
610.375	101238
610.442	40146
610.509	26905
610.577	24600
610.644	23757
610.711	23905
610.778	24284
610.845	25521
610.912	26012
610.980	28486
611.047	30691
611.114	29997
611.181	26165
611.248	26033
611.315	26763
611.382	27118
611.449	28316
611.516	29017
611.583	28462
611.650	27852
611.717	29326
611.784	29828
611.851	31764
611.918	34531
611.984	41729
612.051	61302
612.118	130546
612.185	347146
612.252	355163
612.319	74026
612.386	43576
612.452	37066
612.519	34113
612.586	36199
612.653	35644
612.719	34008
612.786	33731
612.853	30141
612.919	28908
612.986	30304
613.053	29079
613.120	26390
613.186	25104
613.253	26472
613.319	25313
613.386	25449
613.453	25768
613.519	26630
613.586	27450
613.652	30201
613.719	28666
613.785	28558
613.852	27787
613.918	26483
613.985	26642
614.051	30065
614.118	37291
614.184	42329
614.250	29173
614.317	27559
614.383	26121
614.449	26943
614.516	28013
614.582	27066
614.648	25711
614.715	25009
614.781	25812
614.847	25345
614.914	25727
614.980	25585
615.046	25662
615.112	25391
615.179	26009
615.245	27002
615.311	30073
615.377	39213
615.443	49295
615.509	36294
615.575	31691
615.642	29647
615.708	29993
615.774	31866
615.840	35523
615.906	41364
615.972	57295
616.038	101013
616.104	200957
616.170	432886
616.236	564677
616.302	129384
616.368	62565
616.434	46061
616.500	37512
616.565	39006
616.631	49653
616.697	45050
616.763	39991
616.829	56894
616.895	106340
616.961	128497
617.026	62465
617.092	33898
617.158	28918
617.224	27713
617.289	26449
617.355	24649
617.421	23288
617.487	24788
617.552	22424
617.618	22269
617.684	21743
617.749	23801
617.815	21474
617.880	20730
617.946	21505
618.012	21147
618.077	21905
618.143	20870
618.208	19806
618.274	21105
618.339	23023
618.405	19732
618.470	19202
618.536	18894
618.601	19824
618.667	19248
618.732	17484
618.798	16969
618.863	17066
618.928	16531
618.994	17440
619.059	17657
619.124	19682
619.190	18043
619.255	16576
619.320	16819
619.386	16765
619.451	16861
619.516	16306
619.581	16223
619.647	17008
619.712	17340
619.777	16732
619.842	16476
619.907	16382
619.972	16439
620.038	17221
620.103	15408
620.168	15137
620.233	16805
620.298	17487
620.363	16605
620.428	16574
620.493	17533
620.558	17054
620.623	17507
620.688	17770
620.753	16521
620.818	17523
620.883	17183
620.948	17982
621.013	17162
621.078	17104
621.143	16984
621.207	19410
621.272	18560
621.337	17915
621.402	18303
621.467	18896
621.532	20360
621.596	18701
621.661	18206
621.726	16884
621.791	16606
621.855	17034
621.920	17648
621.985	18432
622.049	20009
622.114	18766
622.179	18861
622.243	18333
622.308	19257
622.373	19938
622.437	20093
622.502	19022
622.566	17476
622.631	17705
622.695	19010
622.760	18992
622.824	17759
622.889	18821
622.953	19621
623.018	21287
623.082	23774
623.147	19417
623.211	18769
623.276	19743
623.340	18238
623.404	17801
623.469	17095
623.533	17315
623.597	16917
623.662	16585
623.726	16521
623.790	15110
623.854	15256
623.919	15776
623.983	15314
624.047	15539
624.111	16120
624.176	15409
624.240	16350
624.304	17882
624.368	15451
624.432	16737
624.496	16599
624.560	17163
624.625	17866
624.689	16238
624.753	17783
624.817	16687
624.881	16984
624.945	16074
625.009	15102
625.073	14885
625.137	15132
625.201	17114
625.265	17643
625.329	16066
625.393	15280
625.456	15732
625.520	16134
625.584	17188
625.648	18075
625.712	21871
625.776	36070
625.839	45442
625.903	26271
625.967	14241
626.031	18905
626.095	28628
626.158	19880
626.222	12802
626.286	12116
626.349	11088
626.413	10959
626.477	11090
626.540	9860
626.604	10717
626.668	11126
626.731	9993
626.795	11454
626.858	11712
626.922	8960
626.986	9705
627.049	9509
627.113	10114
627.176	10612
627.240	10076
627.303	9546
627.366	9416
627.430	9407
627.493	9766
627.557	10031
627.620	10986
627.684	9716
627.747	10183
627.810	9449
627.874	8685
627.937	8370
628.000	9881
628.064	9036
628.127	7586
628.190	7973
628.253	8163
628.317	7807
628.380	7610
628.443	7381
628.506	6963
628.569	7341
628.632	7480
628.696	7220
628.759	7129
628.822	5817
628.885	6413
628.948	6715
629.011	6228
629.074	5988
629.137	5457
629.200	5735
629.263	6864
629.326	4979
629.389	6335
629.452	6519
629.515	6031
629.578	5532
629.641	6760
629.704	6291
629.767	6188
629.830	5484
629.892	5689
629.955	5335
630.018	5980
630.081	5977
630.144	6601
630.207	4945
630.269	6724
630.332	6314
630.395	5754
630.458	5415
630.520	4577
630.583	5383
630.646	5995
630.708	5230
630.771	4723
630.834	5633
630.896	5061
630.959	5213
631.021	4744
631.084	4482
631.146	5875
631.209	6910
631.272	5585
631.334	6249
631.397	5951
631.459	5222
631.522	6299
631.584	4981
631.646	6100
631.709	6341
631.771	7204
631.834	7627
631.896	5572
631.958	4839
632.021	5431
632.083	5333
632.145	6109
632.208	4526
632.270	6282
632.332	4360
632.395	4452
632.457	5349
632.519	4885
632.581	5796
632.643	3912
632.706	5284
632.768	4638
632.830	4957
632.892	4795
632.954	4662
633.016	5243
633.078	4590
633.141	4812
633.203	5107
633.265	4274
633.327	4735
633.389	3965
633.451	5353
633.513	5789
633.575	6273
633.637	5608
633.698	5831
633.760	5353
633.822	5315
633.884	5260
633.946	5542
634.008	5008
634.070	6557
634.132	6767
634.193	7155
634.255	6736
634.317	6930
634.379	7299
634.441	6843
634.502	6879
634.564	5456
634.626	5225
634.687	4829
634.749	4777
634.811	4885
634.873	4061
634.934	4840
634.996	4630
635.057	4208
635.119	4649
635.181	5217
635.242	4796
635.304	4025
635.365	6106
635.427	4129
635.488	4092
635.550	3933
635.611	5180
635.673	2983
635.734	5467
635.796	5585
635.857	5948
635.918	5549
635.980	6567
636.041	6394
636.102	7210
636.164	7688
636.225	7921
636.286	5359
636.348	6160
636.409	5687
636.470	5046
636.531	4497
636.593	4859
636.654	4890
636.715	4718
636.776	4087
636.838	3492
636.899	5011
636.960	3238
637.021	3601
637.082	3777
637.143	3135
637.204	2914
637.265	3298
637.326	3907
637.387	3436
637.448	3072
637.509	4431
637.570	3446
637.631	3993
637.692	3715
637.753	2852
637.814	3228
637.875	3643
637.936	4031
637.997	3582
638.058	3964
638.119	4300
638.179	2645
638.240	2803
638.301	3096
638.362	2077
638.423	3001
638.483	4273
638.544	1756
638.605	3329
638.666	2469
638.726	4046
638.787	2943
638.848	3450
638.908	3469
638.969	3601
639.030	3541
639.090	2008
639.151	3384
639.211	3216
639.272	3472
639.332	5768
639.393	4634
639.453	3287
639.514	3772
639.574	3331
639.635	3141
639.695	2934
639.756	2879
639.816	3483
639.877	2566
639.937	4196
639.997	5643
640.058	2732
640.118	2287
640.178	3475
640.239	2556
640.299	2762
640.359	1876
640.420	2695
640.480	2820
640.540	2823
640.600	3417
640.661	3782
640.721	2971
640.781	5365
640.841	4961
640.901	3865
640.961	3185
641.021	3242
641.082	2763
641.142	4052
641.202	3509
641.262	1963
641.322	2827
641.382	2360
641.442	2762
641.502	1708
641.562	3171
641.622	2239
641.682	2386
641.742	3835
641.802	2567
641.861	3835
641.921	3117
641.981	2832
642.041	3101
642.101	2648
642.161	1794
642.221	2142
642.280	2145
642.340	2233
642.400	1529
642.460	2151
642.519	2222
642.579	2310
642.639	2440
642.698	983
642.758	3836
642.818	2743
642.877	2506
642.937	3287
642.997	2801
643.056	3890
643.116	1819
643.175	3317
643.235	2845
643.294	2095
643.354	3729
643.414	3575
643.473	4175
643.532	4991
643.592	7048
643.651	12761
643.711	24398
643.770	46690
643.830	106690
643.889	308639
643.948	133930
644.008	14841
644.067	6977
644.126	5281
644.186	3936
644.245	4803
644.304	1999
644.363	3690
644.423	1733
644.482	2906
644.541	2470
644.600	1640
644.659	4325
644.719	4472
644.778	6371
644.837	11066
644.896	23998
644.955	65590
645.014	38754
645.073	6606
645.132	3286
645.191	3901
645.250	2331
645.309	3987
645.368	3475
645.427	4357
645.486	4924
645.545	14094
645.604	5379
645.663	3084
645.722	2503
645.781	3575
645.840	4221
645.898	4265
645.957	7830
646.016	10836
646.075	21780
646.134	43471
646.192	106249
646.251	246425
646.310	60405
646.369	9680
646.427	5459
646.486	4181
646.545	3740
646.603	3291
646.662	3781
646.721	3132
646.779	1250
646.838	1579
646.896	3769
646.955	4598
647.014	7156
647.072	12080
647.131	37262
647.189	32596
647.248	3962
647.306	2941
647.365	2504
647.423	1143
647.481	3802
647.540	421
647.598	1887
647.657	1941
647.715	2679
647.773	602
647.832	2483
647.890	644
647.948	1249
648.007	1500
648.065	904
648.123	1462
648.181	2658
648.240	1498
648.298	2274
648.356	1139
648.414	1347
648.472	1742
648.531	1341
648.589	1603
648.647	515
648.705	1295
648.763	826
648.821	1451
648.879	1743
648.937	2479
648.995	1905
649.053	2301
649.111	4155
649.169	9073
649.227	16786
649.285	33061
649.343	106759
649.401	97473
649.459	12815
649.516	9130
649.574	3727
649.632	7293
649.690	11752
649.748	6250
649.806	5553
649.863	13446
649.921	25106
649.979	28982
650.037	4712
650.094	894
650.152	1457
650.210	847
650.268	1063
650.325	1660
650.383	2523
650.440	1774
650.498	1630
650.556	1774
650.613	1049
650.671	921
650.728	1759
650.786	1301
650.843	1183
650.901	146
650.958	1511
651.016	1045
651.073	1345
651.131	1118
651.188	199
651.246	1191
651.303	281
651.360	1666
651.418	-18
651.475	1643
651.532	-736
651.590	921
651.647	-623
651.704	809
651.762	825
651.819	1671
651.876	344
651.933	691
651.990	1174
652.048	-172
652.105	339
652.162	1321
652.219	-287
652.276	1140
652.333	1016
652.390	-679
652.448	319
652.505	988
652.562	508
652.619	855
652.676	1824
652.733	3782
652.790	1427
652.847	-5
652.904	671
652.961	115
653.017	-843
653.074	1424
653.131	1118
653.188	142
653.245	550
653.302	560
653.359	61
653.415	967
653.472	-442
653.529	359
653.586	-74
653.642	-328
653.699	784
653.756	370
653.813	346
653.869	1454
653.926	85
653.983	-172
654.039	-119
654.096	543
654.152	1132
654.209	-392
654.266	969
654.322	-643
654.379	1250
654.435	949
654.492	895
654.548	1436
654.605	2448
654.661	1821
654.717	1119
654.774	644
654.830	432
654.887	226
654.943	852
655.000	1904
655.056	1157
655.112	550
655.168	40
655.225	426
655.281	1240
655.337	982
655.394	1491
655.450	2545
655.506	1175
655.562	1881
655.618	2951
655.675	-222
655.731	239
655.787	334
655.843	1310
655.899	124
655.955	594
656.011	336
656.067	214
656.123	589
656.179	1209
656.235	1408
656.291	-206
656.347	1454
656.403	33
656.459	159
656.515	789
656.571	1110
656.627	1316
656.683	663
656.739	572
656.795	138
656.850	671
656.906	1051
656.962	1313
657.018	99
657.074	667
657.129	1071
657.185	1093
657.241	3612
657.297	2625
657.352	871
657.408	-80
657.464	1140
657.519	600
657.575	-427
657.630	1528
657.686	267
657.742	-808
657.797	187
657.853	-150
657.908	854
657.964	165
658.019	518
658.075	175
658.130	859
658.186	-264
658.241	488
658.297	-769
658.352	96
658.407	451
658.463	117
658.518	869
658.573	628
658.629	-211
658.684	219
658.739	502
658.795	-817
658.850	717
658.905	-681
658.960	-114
659.016	-399
659.071	-138
659.126	1020
659.181	-437
659.236	1710
659.291	2398
659.346	598
659.401	799
659.457	1473
659.512	1851
659.567	1060
659.622	698
659.677	486
659.732	-1040
659.787	559
659.842	215
659.897	968
659.952	487
660.007	228
660.061	-69
660.116	289
660.171	-448
660.226	392
660.281	640
660.336	-524
660.391	621
660.445	-986
660.500	177
660.555	683
660.610	346
660.664	815
660.719	-704
660.774	67
660.828	-144
660.883	161
660.938	413
660.992	-211
661.047	510
661.101	70
661.156	-203
661.211	-449
661.265	-70
661.320	-186
661.374	-535
661.429	-287
661.483	1000
661.538	-578
661.592	-936
661.647	548
661.701	848
661.755	854
661.810	297
661.864	610
661.919	-1108
661.973	487
662.027	-724
662.081	173
662.136	-493
662.190	359
662.244	960
662.299	-13
662.353	633
662.407	-287
662.461	-629
662.515	1339
662.569	-419
662.624	1859
662.678	-113
662.732	-209
662.786	-438
662.840	450
662.894	65
662.948	-184
663.002	392
663.056	414
663.110	-439
663.164	198
663.218	-19
663.272	543
663.326	857
663.380	-423
663.434	-16
663.488	-82
663.542	65
663.595	491
663.649	203
663.703	668
663.757	-259
663.811	16
663.864	-509
663.918	416
663.972	-184
664.026	-163
664.079	-221
664.133	676
664.187	629
664.240	-561
664.294	76
664.348	472
664.401	-396
664.455	350
664.508	150
664.562	-218
664.615	634
664.669	-263
664.722	671
664.776	-353
664.829	362
664.883	-271
664.936	-257
664.990	-323
665.043	174
665.097	-37
665.150	805
665.203	-680
665.257	-458
665.310	768
665.363	-461
665.417	534
665.470	153
665.523	493
665.576	554
665.630	566
665.683	345
665.736	306
665.789	653
665.842	-441
665.895	34
665.949	513
666.002	470
666.055	238
666.108	715
666.161	615
666.214	102
666.267	858
666.320	671
666.373	102
666.426	-256
666.479	301
666.532	50
666.585	488
666.638	496
666.691	-180
666.744	27
666.796	-51
666.849	-135
666.902	480
666.955	168
667.008	-112
667.060	-935
667.113	-718
667.166	-254
667.219	80
667.271	285
667.324	31
667.377	605
667.430	-553
667.482	229
667.535	306
667.587	385
667.640	626
667.693	-139
667.745	746
667.798	948
667.850	140
667.903	-488
667.955	497
668.008	564
668.060	617
668.113	-264
668.165	23
668.218	236
668.270	670
668.322	-9
668.375	-177
668.427	564
668.479	-295
668.532	408
668.584	-304
668.636	429
668.689	479
668.741	-103
668.793	1023
668.845	250
668.898	1165
668.950	431
669.002	415
669.054	-65
669.106	455
669.158	431
669.211	341
669.263	540
669.315	959
669.367	962
669.419	274
669.471	861
669.523	1399
669.575	1461
669.627	1382
669.679	-208
669.731	540
669.783	549
669.835	1337
669.886	794
669.938	668
669.990	856
670.042	284
670.094	281
670.146	977
670.197	1211
670.249	1806
670.301	2471
670.353	3822
670.404	5506
670.456	8374
670.508	14084
670.560	23466
670.611	42675
670.663	76299
670.715	156146
670.766	282821
670.818	159972
670.869	33355
670.921	12114
670.972	7473
671.024	5125
671.075	3691
671.127	2858
671.178	1740
671.230	1802
671.281	1331
671.333	1074
671.384	335
671.436	1233
671.487	1917
671.538	2485
671.590	3133
671.641	4773
671.692	7420
671.744	14776
671.795	15905
671.846	5399
671.897	2074
671.949	988
672.000	941
672.051	172
672.102	1037
672.153	179
672.204	729
672.256	-228
672.307	55
672.358	502
672.409	539
672.460	-367
672.511	123
672.562	-459
672.613	629
672.664	-687
672.715	42
672.766	-205
672.817	-205
672.868	-12
672.919	118
672.970	-1088
673.021	-346
673.071	-826
673.122	106
673.173	521
673.224	-597
673.275	51
673.326	-367
673.376	-112
673.427	-266
673.478	-264
673.528	-185
673.579	705
673.630	-299
673.680	-113
673.731	188
673.782	-649
673.832	-147
673.883	255
673.934	-628
673.984	-143
674.035	-831
674.085	136
674.136	-76
674.186	85
674.237	514
674.287	346
674.338	859
674.388	-448
674.438	-538
674.489	-182
674.539	-189
674.589	-378
674.640	-259
674.690	-388
674.740	-189
674.791	349
674.841	57
674.891	-185
674.942	-244
674.992	-126
675.042	-511
675.092	-1011
675.142	-1340
675.193	-745
675.243	-201
675.293	-95
675.343	-578
675.393	-833
675.443	200
675.493	-353
675.543	-138
675.593	-932
675.643	-771
675.693	-205
675.743	-569
675.793	40
675.843	-817
675.893	-277
675.943	-197
675.993	-537
676.043	-191
676.093	346
676.142	-226
676.192	-102
676.242	-710
676.292	-993
676.341	-1058
676.391	-146
676.441	-1021
676.491	-525
676.540	-673
676.590	202
676.640	-169
676.689	-443
676.739	-654
676.789	-708
676.838	-533
676.888	-220
676.937	-532
676.987	-1235
677.037	-197
677.086	-657
677.136	-718
677.185	-384
677.235	-81
677.284	-170
677.333	-1276
677.383	-914
677.432	-866
677.482	-665
677.531	-786
677.580	-1218
677.630	-687
677.679	-572
677.728	-710
677.778	-807
677.827	-852
677.876	-616
677.925	-624
677.975	-1031
678.024	-776
678.073	-1437
678.122	-1389
678.171	-834
678.220	-3
678.269	-78
678.319	-920
678.368	-87
678.417	40
678.466	-796
678.515	-440
678.564	-842
678.613	158
678.662	-459
678.711	-348
678.760	-441
678.809	-454
678.857	-321
678.906	-842
678.955	-773
679.004	-469
679.053	-954
679.102	-660
679.151	-428
679.199	-980
679.248	-927
679.297	-684
679.346	-1110
679.394	-552
679.443	-1095
679.492	-472
679.540	-533
679.589	-1333
679.638	-477
679.686	-674
679.735	-440
679.784	-952
679.832	-558
679.881	-705
679.929	-198
679.978	-859
680.026	-1312
680.075	-1206
680.123	-1189
680.172	-745
680.220	-450
680.268	-830
680.317	-1274
680.365	-936
680.414	-637
680.462	-845
680.510	-522
680.559	-968
680.607	-80
680.655	-992
680.703	-674
680.752	-707
680.800	-1054
680.848	-375
680.896	-769
680.945	-283
680.993	-1595
681.041	-717
681.089	-1108
681.137	-816
681.185	-1255
681.233	-679
681.258	-1173
681.281	-1664
681.329	-803
681.377	-962
681.380	-921
681.425	-597
681.473	-604
681.502	-357
681.521	-230
681.569	-344
681.617	-388
681.624	-347
681.665	-249
681.713	-361
681.745	-483
681.761	-577
681.809	-3
681.857	-276
681.867	-172
681.904	104
681.952	-34
681.989	142
682.000	173
682.048	-621
682.096	-217
682.111	-210
682.143	-314
682.191	743
682.233	786
682.239	776
682.286	701
682.334	-18
682.354	114
682.382	240
682.430	600
682.476	-277
682.477	-317
682.525	1083
682.572	-1096
682.598	-514
682.620	-32
682.667	841
682.715	551
682.720	588
682.763	676
682.810	-20
682.841	261
682.857	399
682.905	499
682.952	996
682.963	972
683.000	773
683.047	586
683.085	1484
683.095	1714
683.142	868
683.190	768
683.206	797
683.237	795
683.284	1112
683.328	1001
683.332	971
683.379	1037
683.426	1513
683.449	1217
683.473	894
683.521	1003
683.568	1479
683.571	1475
683.615	1240
683.662	1271
683.693	1590
683.709	1721
683.757	879
683.804	2214
683.814	2018
683.851	1264
683.898	1569
683.936	1566
683.945	1551
683.992	1659
684.039	1247
684.057	1494
684.086	1880
684.133	1556
684.179	1776
684.180	1766
684.227	1939
684.274	2312
684.300	1985
684.321	1702
684.368	2112
684.415	2634
684.422	2466
684.462	1459
684.509	1656
684.543	2140
684.556	2282
684.603	1972
684.649	2466
684.665	2325
684.696	2053
684.743	2718
684.786	2609
684.790	2593
684.837	2572
684.883	3198
684.908	3267
684.930	3247
684.977	3181
685.023	2987
685.029	2951
685.070	2653
685.117	2762
685.150	2562
685.164	2451
685.210	3653
685.257	3657
685.272	3520
685.303	3152
685.350	2579
685.393	2899
685.396	2930
685.443	3579
685.490	3402
685.514	3509
685.536	3551
685.583	3994
685.629	3951
685.636	3834
685.675	3020
685.722	3635
685.757	3323
685.768	3248
685.815	3371
685.861	4004
685.878	3924
685.908	3775
685.954	3935
686.000	4243
686.000	4242
686.047	4310
686.093	4420
686.121	4628
686.139	4694
686.185	4111
686.232	4132
686.242	4093
686.278	4113
686.324	4812
686.363	4614
686.370	4529
686.416	4217
686.463	4148
686.484	4147
686.509	4291
686.555	3667
686.601	4439
686.606	4477
686.647	4562
686.693	4238
686.727	4137
686.739	4161
686.785	4524
686.831	4127
686.848	4500
686.877	4987
686.923	3801
686.969	3868
686.969	3868
687.015	4353
687.061	4585
687.090	4709
687.107	4757
687.153	4492
687.199	4920
687.211	4758
687.245	4260
687.291	4530
687.332	4535
687.336	4550
687.382	4817
687.428	5291
687.453	5277
687.474	5156
687.520	5382
687.565	4934
687.574	4937
687.611	5109
687.657	4918
687.695	5231
687.702	5369
687.748	6035
687.794	6974
687.816	7252
687.839	7181
687.885	7057
687.931	6493
687.937	6526
687.976	6332
688.022	5510
688.058	5179
688.067	5242
688.113	5489
688.158	5767
688.179	5625
688.204	5353
688.249	5331
688.295	5329
688.300	5304
688.340	5365
688.386	5872
688.421	5920
688.431	5895
688.477	5290
688.522	5902
688.542	5915
688.567	6022
688.613	5793
688.658	6133
688.663	6148
688.703	6124
688.749	5383
688.784	5441
688.794	5513
688.839	5517
688.884	6206
688.905	6108
688.930	6007
688.975	6414
689.020	6159
689.026	6162
689.065	6114
689.110	6064
689.146	5945
689.155	5976
689.201	6265
689.246	7035
689.267	7017
689.291	6788
689.336	6463
689.381	6109
689.388	6111
689.426	6514
689.471	6599
689.509	6663
689.516	6635
689.561	6512
689.606	6763
689.630	6687
689.651	6692
689.696	6269
689.741	6419
689.750	6337
689.785	6178
689.830	6228
689.871	6627
689.875	6663
689.920	6543
689.965	6368
689.992	6430
690.010	6540
690.054	6373
690.099	6860
690.112	6849
690.144	6930
690.189	6964
690.233	7053
690.233	7064
690.278	7151
690.323	7383
690.354	7032
690.367	6976
690.412	7718
690.457	7679
690.474	7848
690.501	7957
690.546	8182
690.590	7744
690.595	7721
690.635	7965
690.680	8229
690.716	8384
690.724	8565
690.769	9702
690.813	10963
690.836	11345
690.857	12348
690.902	14505
690.946	17103
690.957	17720
690.991	23971
691.035	32007
691.077	40167
691.080	40474
691.124	43955
691.168	47269
691.198	49493
691.213	46261
691.257	36913
691.301	26871
691.318	23088
691.346	20865
691.390	16953
691.434	13094
691.439	12656
691.478	11739
691.522	10590
691.559	9456
691.567	9393
691.611	9483
691.655	9199
691.680	8731
691.699	8501
691.743	9131
691.787	8513
691.800	8442
691.831	8372
691.875	8359
691.919	8490
691.921	8474
691.964	8674
692.008	8589
692.041	8923
692.052	9034
692.096	9041
692.139	8780
692.162	8836
692.183	8825
692.227	8595
692.271	8346
692.282	8288
692.315	8456
692.359	8991
692.402	9091
692.403	9108
692.447	8675
692.490	8649
692.523	8504
692.534	8565
692.578	8800
692.622	8708
692.643	8915
692.666	9140
692.709	8931
692.753	8886
692.763	8931
692.797	9090
692.840	8861
692.884	8985
692.884	9008
692.928	9041
692.971	9166
693.004	9204
693.015	9261
693.059	9568
693.102	9772
693.124	9846
693.146	9869
693.189	9924
693.233	9919
693.245	9873
693.276	10206
693.320	10992
693.363	11418
693.365	11407
693.407	12190
693.450	12877
693.485	13841
693.493	14412
693.537	16919
693.580	19020
693.605	20454
693.624	22856
693.667	28510
693.710	33978
693.725	35869
693.753	48001
693.797	67050
693.840	86546
693.845	88668
693.883	96114
693.926	103985
693.966	111459
693.970	109449
694.013	85803
694.056	62203
694.086	45915
694.099	43336
694.142	34875
694.185	26159
694.206	22001
694.229	20796
694.272	18533
694.315	15946
694.326	15331
694.358	14744
694.401	13521
694.444	12562
694.446	12487
694.487	12302
694.530	11918
694.566	11753
694.573	11741
694.616	10915
694.659	10731
694.686	10438
694.702	10350
694.745	10006
694.787	9570
694.806	9433
694.830	9660
694.873	9922
694.916	9991
694.926	10061
694.959	10116
695.002	9879
695.044	9938
695.046	9897
695.087	9467
695.130	9411
695.166	9218
695.172	9285
695.215	9464
695.258	9824
695.286	9920
695.301	9924
695.343	9983
695.386	9850
695.406	9898
695.428	9918
695.471	9735
695.514	9584
695.526	9455
695.556	9527
695.599	9900
695.641	10212
695.646	10190
695.684	9910
695.726	9817
695.766	9780
695.769	9795
695.811	9368
695.854	9042
695.886	8844
695.896	8934
695.938	9081
695.981	9229
696.005	9331
696.023	9458
696.065	9702
696.108	9832
696.125	9894
696.150	10002
696.192	10049
696.235	10282
696.245	10269
696.277	10148
696.319	9937
696.361	9908
696.365	9870
696.404	10467
696.446	11000
696.485	11620
696.488	11653
696.530	11479
696.572	11438
696.604	11353
696.614	11340
696.656	11076
696.698	10851
696.724	10686
696.740	10686
696.783	10613
696.825	10642
696.844	10546
696.867	10543
696.909	10574
696.951	10509
696.964	10497
696.992	10275
697.034	9784
697.076	9377
697.083	9286
697.118	9866
697.160	10431
697.202	10935
697.203	10923
697.244	10855
697.286	10477
697.323	10038
697.327	10069
697.369	10255
697.411	10369
697.442	10380
697.453	10419
697.494	10620
697.536	10660
697.562	10692
697.578	10650
697.620	10434
697.661	10168
697.682	10028
697.703	10219
697.744	10615
697.786	10983
697.801	11060
697.828	11329
697.869	11690
697.911	12110
697.921	12157
697.952	11820
697.994	11434
698.035	10974
698.040	10898
698.077	10964
698.118	10888
698.160	10854
698.160	10822
698.201	10585
698.243	10350
698.279	10117
698.284	10156
698.325	10221
698.367	10278
698.399	10288
698.408	10351
698.449	10510
698.491	10658
698.518	10725
698.532	10851
698.573	11169
698.614	11454
698.638	11597
698.656	11526
698.697	11251
698.738	11011
698.757	10853
698.779	10912
698.820	10991
698.862	11044
698.877	11033
698.903	11036
698.944	10998
698.985	10952
698.996	10911
699.026	11054
699.067	11208
699.116	11362
699.235	10474
699.354	10754
699.474	10766
699.593	11653
699.713	12109
699.832	11131
699.951	11349
700.070	11129
700.190	9612
700.309	11090
700.428	11711
700.547	9787
700.667	10160
700.786	10884
700.905	10273
701.024	11132
701.143	9999
701.262	9553
701.381	9115
701.500	10317
701.619	9786
701.738	9982
701.857	9871
701.976	10255
702.095	9883
702.214	9993
702.333	9944
702.452	9561
702.571	9525
702.690	9862
702.809	9658
702.928	9983
703.047	9303
703.165	9299
703.284	8641
703.403	8877
703.522	9189
703.640	10556
703.759	9540
703.878	11212
703.997	8858
704.115	9660
704.234	9346
704.353	9935
704.471	7939
704.590	8885
704.708	8414
704.827	9342
704.946	9102
705.064	9416
705.183	8273
705.301	9470
705.420	12408
705.538	12974
705.656	10920
705.775	11647
705.893	17391
706.012	29792
706.130	12589
706.249	11117
706.367	10446
706.485	10983
706.604	9545
706.722	10974
706.840	11649
706.958	16677
707.077	15628
707.195	9415
707.313	10340
707.431	10537
707.549	9634
707.668	9172
707.786	10080
707.904	9796
708.022	9001
708.140	9917
708.258	9481
708.376	10425
708.494	9218
708.612	10138
708.730	11807
708.848	13558
708.966	11059
709.084	11382
709.202	10721
709.320	11070
709.438	11945
709.556	11328
709.674	10979
709.791	10870
709.909	10936
710.027	10725
710.145	10556
710.263	11166
710.380	10582
710.498	10876
710.616	10556
710.733	10043
710.851	9720
710.969	10870
711.086	10512
711.204	11025
711.322	9787
711.439	9904
711.557	10174
711.674	9885
711.792	9746
711.909	10545
712.027	12246
712.144	10385
712.262	9348
712.379	9947
712.497	12739
712.614	13986
712.732	13047
712.849	11156
712.966	11164
713.084	12806
713.201	11525
713.318	11243
713.436	11359
713.553	11956
713.670	12012
713.787	12055
713.905	12864
714.022	11796
714.139	11076
714.256	12300
714.373	15101
714.490	21441
714.608	39196
714.725	154833
714.842	294784
714.959	32605
715.076	13703
715.193	12482
715.310	11623
715.427	10741
715.544	10527
715.661	10053
715.778	10028
715.895	11519
716.011	10490
716.128	10487
716.245	9448
716.362	9968
716.479	10819
716.596	10282
716.713	9364
716.829	9692
716.946	9586
717.063	9519
717.180	9597
717.296	8868
717.413	8778
717.530	8857
717.646	8771
717.763	9190
717.880	8231
717.996	8798
718.113	8350
718.229	8604
718.346	8168
718.462	7870
718.579	9218
718.695	9983
718.812	9162
718.928	9890
719.045	8543
719.161	8142
719.277	7521
719.394	8243
719.510	9345
719.626	8473
719.743	10098
719.859	12016
719.975	15554
720.092	45710
720.208	148336
720.324	37500
720.440	10261
720.557	8669
720.673	10197
720.789	12433
720.905	19651
721.021	13808
721.137	8205
721.253	8025
721.369	7635
721.486	7970
721.602	9925
721.718	8008
721.834	6624
721.950	7572
722.066	7534
722.181	7412
722.297	6982
722.413	6787
722.529	6576
722.645	6890
722.761	6299
722.877	7576
722.993	6982
723.108	7451
723.224	7574
723.340	6822
723.456	6645
723.571	6687
723.687	6243
723.803	6496
723.918	6166
724.034	6517
724.150	6495
724.265	6887
724.381	9357
724.497	12705
724.612	6143
724.728	5486
724.843	5619
724.959	6887
725.074	7599
725.190	12028
725.305	6581
725.421	6818
725.536	5661
725.651	5896
725.767	5771
725.882	5464
725.997	5115
726.113	5973
726.228	6354
726.343	5497
726.459	4924
726.574	5506
726.689	5656
726.804	5465
726.920	5151
727.035	5486
727.150	5407
727.265	5077
727.380	5263
727.495	5064
727.610	4848
727.725	5383
727.841	5321
727.956	9703
728.071	12332
728.186	5789
728.301	4212
728.416	5487
728.531	5198
728.645	5172
728.760	4733
728.875	5596
728.990	4420
729.105	4068
729.220	5130
729.335	5481
729.449	5072
729.564	4120
729.679	4371
729.794	4788
729.908	4502
730.023	5597
730.138	4432
730.253	5178
730.367	4492
730.482	4927
730.596	4462
730.711	4952
730.826	4838
730.940	6455
731.055	4774
731.169	4980
731.284	4797
731.398	4420
731.513	4429
731.627	5357
731.742	5651
731.856	5335
731.970	5307
732.085	6490
732.199	6873
732.313	10514
732.428	20979
732.542	58328
732.656	57479
732.771	12552
732.885	6880
732.999	6891
733.113	5831
733.227	5658
733.342	5966
733.456	4525
733.570	5447
733.684	5040
733.798	5209
733.912	5154
734.026	4306
734.140	4868
734.254	4278
734.368	6488
734.482	7973
734.596	4791
734.710	4155
734.824	5113
734.938	4942
735.052	4131
735.166	5088
735.280	5737
735.393	4229
735.507	4438
735.621	4854
735.735	7340
735.849	5412
735.962	4136
736.076	4330
736.190	4816
736.303	4149
736.417	6509
736.531	3915
736.644	4627
736.758	3243
736.872	4126
736.985	3658
737.099	4613
737.212	3184
737.326	4290
737.439	3634
737.553	3578
737.666	3748
737.780	4227
737.893	3359
738.007	3844
738.120	4134
738.233	3381
738.347	4325
738.460	4170
738.573	3469
738.687	4620
738.800	4282
738.913	3645
739.026	3796
739.140	3742
739.253	4181
739.366	4395
739.479	3366
739.592	3528
739.705	3103
739.818	3812
739.932	3208
740.045	3938
740.158	4325
740.271	3993
740.384	3924
740.497	3944
740.610	3874
740.723	3768
740.836	3734
740.949	4156
741.062	3799
741.174	4951
741.287	3775
741.400	3752
741.513	4209
741.626	4104
741.739	3277
741.851	3989
741.964	3213
742.077	2663
742.189	3053
742.302	3804
742.415	3105
742.527	3341
742.640	3114
742.753	3845
742.865	3063
742.978	3629
743.090	4116
743.203	3552
743.316	2887
743.428	3876
743.541	3486
743.653	3063
743.766	3264
743.878	3969
743.990	3353
744.103	4851
744.215	3736
744.327	3742
744.440	4000
744.552	4526
744.664	3171
744.777	3245
744.889	2821
745.001	4254
745.113	2727
745.226	3194
745.338	2993
745.450	3273
745.562	3828
745.674	3879
745.786	2785
745.898	4248
746.010	3321
746.122	2828
746.234	3567
746.347	3161
746.459	3237
746.570	3257
746.682	2904
746.794	4547
746.906	3356
747.018	3230
747.130	3074
747.242	3277
747.354	3064
747.466	4201
747.577	2351
747.689	3709
747.801	3308
747.913	2832
748.024	3451
748.136	3062
748.248	2813
748.359	3962
748.471	3619
748.583	3575
748.694	2722
748.806	4060
748.918	2390
749.029	3090
749.141	3258
749.252	4034
749.364	3058
749.475	4288
749.587	4044
749.698	3161
749.809	4179
749.921	3093
750.032	2945
750.144	3025
750.255	2840
750.366	2565
750.478	2459
750.589	3124
750.700	2870
750.811	3429
750.923	3924
751.034	3470
751.145	4903
751.256	3021
751.367	2700
751.479	3920
751.590	3183
751.701	3470
751.812	3107
751.923	3098
752.034	2605
752.145	3457
752.256	2838
752.367	3313
752.478	2927
752.589	3704
752.700	2632
752.811	3474
752.922	3131
753.032	2894
753.143	3220
753.254	2708
753.365	2665
753.476	2640
753.586	2487
753.697	3921
753.808	2147
753.919	2839
754.029	2499
754.140	3658
754.251	2626
754.361	2999
754.472	2706
754.582	3364
754.693	3697
754.804	3044
754.914	3107
755.025	2674
755.135	3244
755.246	4125
755.356	3336
755.466	4088
755.577	3471
755.687	3735
755.798	2576
755.908	3440
756.018	2866
756.129	3540
756.239	2798
756.349	4492
756.460	3641
756.570	4087
756.680	3432
756.790	3798
756.900	3701
757.011	3144
757.121	3013
757.231	3886
757.341	4136
757.451	3609
757.561	4169
757.671	3840
757.781	3655
757.891	4450
758.001	3485
758.111	4371
758.221	4201
758.331	4393
758.441	3910
758.551	4290
758.661	3657
758.771	4112
758.880	3688
758.990	3789
759.100	4179
759.210	4387
759.320	5405
759.429	4724
759.539	5550
759.649	4919
759.758	4751
759.868	5762
759.978	4824
760.087	5400
760.197	5223
760.307	5557
760.416	4992
760.526	5358
760.635	5898
760.745	6390
760.854	6046
760.964	6211
761.073	6887
761.182	7154
761.292	7083
761.401	7002
761.511	6912
761.620	7825
761.729	6999
761.839	7529
761.948	8002
762.057	7358
762.166	8364
762.276	7392
762.385	8822
762.494	9421
762.603	8588
762.712	9841
762.822	10029
762.931	10381
763.040	9954
763.149	10380
763.258	10109
763.367	11345
763.476	12838
763.585	13190
763.694	13777
763.803	15167
763.912	15441
764.021	16030
764.130	16526
764.238	18613
764.347	19778
764.456	21955
764.565	22692
764.674	25134
764.783	26013
764.891	29857
765.000	34357
765.109	37727
765.217	42531
765.326	49749
765.435	58262
765.543	70823
765.652	88091
765.761	109595
765.869	144163
765.978	192431
766.086	266191
766.195	363185
766.303	449040
766.412	384367
766.520	285988
766.629	438568
766.737	412883
766.846	306131
766.954	219798
767.062	163250
767.171	124473
767.279	97899
767.387	77778
767.496	64502
767.604	53927
767.712	47090
767.820	41494
767.928	38058
768.037	35263
768.145	33231
768.253	31131
768.361	29846
768.469	29319
768.577	30988
768.685	31480
768.793	33876
768.901	35794
769.009	41962
769.117	49409
769.225	61973
769.333	81703
769.441	116997
769.549	176231
769.657	280827
769.765	399231
769.873	331933
769.981	362845
770.088	351888
770.196	228083
770.304	150589
770.412	107152
770.519	80777
770.627	62762
770.735	50553
770.842	41683
770.950	36747
771.058	31037
771.165	28231
771.273	24243
771.380	23622
771.488	20992
771.595	19239
771.703	16832
771.810	16892
771.918	14741
772.025	13588
772.133	13391
772.240	12402
772.348	12533
772.455	12715
772.562	10819
772.670	10406
772.777	10749
772.884	9574
772.991	9960
773.099	9677
773.206	8457
773.313	8739
773.420	8075
773.528	7876
773.635	7969
773.742	8883
773.849	6996
773.956	6550
774.063	6991
774.170	6394
774.277	6627
774.384	6706
774.491	5398
774.598	6681
774.705	6512
774.812	6548
774.919	6354
775.026	6455
775.133	5983
775.239	6405
775.346	5305
775.453	5268
775.560	5578
775.667	4659
775.773	5249
775.880	5943
775.987	5031
776.093	4764
776.200	4985
776.307	4257
776.413	5087
776.520	5188
776.627	4496
776.733	4511
776.840	4573
776.946	5774
777.053	4303
777.159	4710
777.266	3536
777.372	5283
777.478	5182
777.585	4983
777.691	3617
777.798	4583
777.904	3442
778.010	3594
778.117	4062
778.223	3837
778.329	3775
778.435	4277
778.542	3739
778.648	3672
778.754	3128
778.860	3609
778.966	3234
779.072	3742
779.178	2978
779.284	3276
779.391	3751
779.497	3859
779.603	5291
779.708	6902
779.815	13987
779.920	42839
780.026	127873
780.132	45569
780.238	8408
780.344	4961
780.450	3846
780.556	3821
780.661	2296
780.767	3521
780.873	1869
780.979	3275
781.085	1536
781.190	1904
781.296	2157
781.402	2702
781.507	2340
781.613	2902
781.719	2444
781.824	3267
781.930	2942
782.035	2681
782.141	1691
782.246	2306
782.352	2832
782.457	2648
782.563	2238
782.668	2778
782.773	1736
782.879	2611
782.984	2704
783.090	2991
783.195	2613
783.300	2619
783.405	1608
783.511	2759
783.616	2309
783.721	2214
783.826	1767
783.932	2323
784.037	2429
784.142	2677
784.247	1557
784.352	2325
784.457	1893
784.562	1422
784.667	1944
784.772	2517
784.877	2293
784.982	1982
785.087	1755
785.192	1643
785.297	1393
785.402	1697
785.507	1617
785.611	1737
785.716	1682
785.821	2358
785.926	1339
786.031	2130
786.135	1025
786.240	1592
786.345	2156
786.450	2074
786.554	2245
786.659	1182
786.763	887
786.868	1793
786.973	2258
787.077	1086
787.182	992
787.286	2358
787.391	1667
787.495	1352
787.600	1402
787.704	1580
787.809	893
787.913	1604
788.017	1066
788.122	1385
788.226	1319
788.330	972
788.435	1422
788.539	1993
788.643	1347
788.747	1337
788.852	884
788.956	766
789.060	1316
789.164	1338
789.268	509
789.372	1467
789.476	1024
789.580	1632
789.684	1144
789.788	1778
789.892	263
789.996	2345
790.100	298
790.204	1334
790.308	1519
790.412	2152
790.516	1840
790.620	1846
790.724	960
790.828	1988
790.931	690
791.035	2193
791.139	1854
791.242	987
791.346	958
791.450	660
791.554	672
791.657	511
791.761	1991
791.864	1107
791.968	2316
792.072	1824
792.175	1212
792.279	1185
792.382	1585
792.486	1855
792.589	1245
792.693	1286
792.796	457
792.899	1333
793.003	1401
793.106	486
793.209	939
793.313	1765
793.416	89
793.519	1449
793.623	1222
793.726	1542
793.829	1446
793.932	1133
794.035	412
794.138	1967
794.242	1034
794.345	2559
794.448	3514
794.551	6597
794.654	24770
794.757	77943
794.860	29127
794.963	4857
795.066	941
795.169	2132
795.272	1040
795.375	1695
795.477	1277
795.580	1518
795.683	-268
795.786	1232
795.889	86
795.991	2035
796.094	1572
796.197	477
796.300	1223
796.402	963
796.505	-228
796.608	765
796.710	252
796.813	831
796.915	608
797.018	1569
797.120	817
797.223	-5
797.326	633
797.428	1477
797.530	222
797.633	932
797.735	1088
797.838	884
797.940	992
798.042	-41
798.145	303
798.247	1237
798.349	293
798.452	477
798.554	575
798.656	323
798.758	1074
798.860	1012
798.962	438
799.065	329
799.167	-44
799.269	1179
799.371	985
799.473	757
799.575	-7
799.677	1480
799.779	2058
799.881	-7
799.983	1064
800.085	666
800.187	571
800.289	269
800.390	770
800.492	1523
800.594	1255
800.696	1014
800.798	457
800.899	224
801.001	4
801.103	1259
801.205	328
801.306	381
801.408	-207
801.509	941
801.611	407
801.713	255
801.814	-21
801.916	385
802.017	84
802.119	592
802.220	1011
802.322	-542
802.423	1531
802.525	-617
802.626	923
802.727	384
802.829	521
802.930	-382
803.031	1325
803.133	491
803.234	451
803.335	272
803.436	-45
803.538	1169
803.639	27
803.740	915
803.841	-253
803.942	524
804.043	213
804.144	4
804.245	290
804.346	217
804.447	93
804.548	592
804.649	2188
804.750	500
804.851	30
804.952	1099
805.053	617
805.154	-55
805.255	714
805.355	148
805.456	168
805.557	795
805.658	-175
805.758	1068
805.859	1040
805.960	256
806.061	-17
806.161	239
806.262	-239
806.362	177
806.463	307
806.564	-106
806.664	58
806.765	504
806.865	574
806.966	823
807.066	219
807.166	701
807.267	-32
807.367	295
807.468	696
807.568	-149
807.668	-156
807.769	1203
807.869	144
807.969	-134
808.069	524
808.170	389
808.270	-62
808.370	803
808.470	502
808.570	186
808.670	903
808.770	45
808.870	442
808.970	547
809.070	489
809.170	281
809.271	566
809.370	521
809.470	642
809.570	-112
809.670	222
809.770	767
809.870	800
809.970	683
810.070	394
810.169	386
810.269	-1152
810.369	1441
810.469	-23
810.568	-23
810.668	-200
810.768	246
810.867	521
810.967	-469
811.066	1033
811.166	228
811.265	349
811.365	163
811.464	-590
811.564	842
811.663	4
811.763	-448
811.862	90
811.962	775
812.061	-399
812.160	535
812.260	146
812.359	1270
812.458	1376
812.557	5511
812.657	10288
812.756	6123
812.855	1276
812.954	549
813.053	639
813.153	1057
813.252	-168
813.351	907
813.450	-275
813.549	1164
813.648	531
813.747	659
813.846	1352
813.945	246
814.044	521
814.143	509
814.242	312
814.341	943
814.439	884
814.538	-11
814.637	-34
814.736	699
814.835	1203
814.933	503
815.032	1480
815.131	939
815.229	1129
815.328	2495
815.427	1228
815.525	2188
815.624	1677
815.722	1666
815.821	2463
815.919	1458
816.018	1095
816.116	2491
816.215	2065
816.313	2275
816.412	2303
816.510	2536
816.609	2446
816.707	2781
816.805	2602
816.904	3143
817.002	3557
817.100	4575
817.198	5214
817.296	4758
817.395	6357
817.493	8123
817.591	8600
817.689	11521
817.787	15653
817.885	22936
817.983	36712
818.081	67093
818.179	129756
818.277	249604
818.375	298596
818.473	177058
818.571	83013
818.669	49821
818.767	38136
818.865	34478
818.963	37347
819.061	48671
819.158	70543
819.256	118887
819.354	205700
819.452	324863
819.549	313889
819.647	210327
819.745	113687
819.842	66456
819.940	42651
820.038	30154
820.135	22670
820.233	18382
820.330	14515
820.428	11486
820.525	10640
820.623	8632
820.720	7032
820.818	6315
820.915	6037
821.012	5769
821.110	4521
821.207	5265
821.304	3370
821.402	3894
821.499	3490
821.596	4126
821.693	2329
821.791	3209
821.888	2733
821.985	2393
822.082	2011
822.179	1923
822.276	1939
822.373	2269
822.470	1422
822.567	1490
822.664	1509
822.761	1859
822.858	1041
822.955	1269
823.052	-2
823.149	933
823.246	919
823.343	622
823.440	1356
823.536	1047
823.633	424
823.730	1240
823.827	700
823.923	1171
824.020	1366
824.117	398
824.213	247
824.310	1000
824.407	393
824.503	902
824.600	1214
824.696	413
824.793	1009
824.889	697
824.986	872
825.082	20
825.179	390
825.275	1100
825.371	175
825.468	960
825.564	-670
825.660	1226
825.757	493
825.853	620
825.949	366
826.045	-101
826.142	-705
826.238	0
826.334	511
826.430	272
826.526	608
826.622	299
826.718	1151
826.814	-16
826.910	400
827.006	199
827.102	-1066
827.198	203
827.294	-508
827.390	854
827.486	436
827.582	140
827.678	-877
827.774	703
827.869	-596
827.965	892
828.061	-521
828.157	54
828.252	234
828.348	-590
828.444	419
828.539	-271
828.635	-681
828.731	1118
828.826	-1364
828.922	458
829.017	-346
829.113	-86
829.208	-241
829.304	467
829.399	1032
829.495	46
829.590	358
829.685	122
829.781	-816
829.876	411
829.971	-137
830.066	65
830.162	-273
830.257	260
830.352	-747
830.447	399
830.543	32
830.638	-759
830.733	-26
830.828	187
830.923	72
831.018	-689
831.113	57
831.208	-814
831.303	-180
831.398	33
831.493	-15
831.588	469
831.683	-246
831.778	84
831.873	-231
831.967	1061
832.062	-90
832.157	-281
832.252	685
832.346	-223
832.441	-31
832.536	132
832.631	623
832.725	1304
832.820	-460
832.914	-343
833.009	-452
833.104	-385
833.198	419
833.293	-146
833.387	-402
833.482	-130
833.576	-720
833.670	163
833.765	-770
833.859	-139
833.954	9
834.048	-199
834.142	-859
834.237	-690
834.331	-261
834.425	-771
834.519	-763
834.613	409
834.708	-497
834.802	-39
834.896	-767
834.990	-28
835.084	383
835.178	-481
835.272	-91
835.366	-88
835.460	518
835.554	-349
835.648	-849
835.742	-387
835.836	-683
835.930	-501
836.024	-35
836.117	89
836.211	-585
836.305	245
836.399	333
836.493	-762
836.586	126
836.680	34
836.774	-1037
836.867	514
836.961	-677
837.055	-195
837.148	-335
837.242	-252
837.335	-816
837.429	-623
837.522	-672
837.616	-556
837.709	418
837.803	397
837.896	-49
837.989	-652
838.083	141
838.176	648
838.269	433
838.363	272
838.456	-571
838.549	399
838.642	-244
838.735	1565
838.829	356
838.922	-1190
839.015	-1102
839.108	-914
839.201	-380
839.294	-65
839.387	398
839.480	-2
839.573	-139
839.666	416
839.759	-184
839.852	-1027
839.945	68
840.038	-62
840.131	-747
840.223	-509
840.316	-26
840.409	-1337
840.502	-1398
840.594	1032
840.687	-1551
840.780	426
840.873	-1104
840.965	-362
841.058	90
841.150	186
841.243	5
841.336	73
841.428	-415
841.521	-480
841.613	-513
841.706	-106
841.798	-47
841.890	-344
841.983	-605
842.075	-12
842.167	-783
842.260	-467
842.352	557
842.444	294
842.537	244
842.629	1582
842.721	225
842.813	-620
842.905	-1199
842.997	111
843.090	-1231
843.182	-138
843.274	-344
843.366	2447
843.458	4304
843.550	5683
843.642	-79
843.734	-525
843.826	-1114
843.918	303
844.009	38
844.101	-701
844.193	-626
844.285	-744
844.377	-348
844.469	-545
844.560	-758
844.652	-499
844.744	-172
844.835	-284
844.927	-1020
845.019	-620
845.110	-530
845.202	-315
845.293	-312
845.385	-1100
845.476	-247
845.568	-75
845.659	-591
845.751	-171
845.842	-24
845.934	-396
846.025	-530
846.116	75
846.208	-536
846.299	-174
846.390	-932
846.482	-383
846.573	-619
846.664	-471
846.755	-424
846.846	-296
846.937	-1066
847.029	-602
847.120	-785
847.211	-1735
847.302	87
847.393	-1046
847.484	-101
847.575	-419
847.666	-932
847.757	-590
847.847	-690
847.938	87
848.029	-844
848.120	-1099
848.211	-977
848.302	-2
848.392	-800
848.483	281
848.574	-1756
848.664	-911
848.755	-1268
848.846	-625
848.936	-1804
849.027	-390
849.118	-768
849.208	-789
849.299	-1360
849.389	241
849.480	-239
849.570	532
849.661	2041
849.751	5161
849.841	2276
849.932	-731
850.022	-219
850.112	-555
850.203	-1087
850.293	-332
850.383	-662
850.474	-1074
850.564	-1185
850.654	-1211
850.744	-1260
850.834	-911
850.924	-504
851.014	34
851.104	-1046
851.194	-309
851.284	-731
851.374	-413
851.464	-1053
851.554	-1190
851.644	-779
851.734	80
851.824	-23
851.914	804
852.004	3189
852.094	4407
852.183	675
852.273	281
852.363	-1556
852.452	-591
852.542	-1256
852.632	-645
852.721	-1135
852.811	-1682
852.901	-1024
852.990	694
853.080	-882
853.169	-743
853.259	-1140
853.348	-353
853.438	-971
853.527	-173
853.617	13
853.706	1237
853.795	514
853.885	4463
853.974	9796
854.063	19708
854.152	37488
854.242	23230
854.331	2804
854.420	-54
854.509	-118
854.598	85
854.687	-357
854.777	-560
854.866	-680
854.955	199
855.044	-1157
855.133	-1141
855.222	-973
855.311	-417
855.400	-139
855.488	-791
855.577	-1265
855.666	-818
855.755	244
855.844	-924
855.933	-868
856.021	116
856.110	-1348
856.199	-948
856.288	-1375
856.376	-494
856.465	-1293
856.554	-679
856.642	-1670
856.731	-138
856.819	-422
856.908	-572
856.996	-1758
857.085	-241
857.173	-917
857.262	-614
857.350	-1125
857.438	-1004
857.527	-1457
857.615	27
857.703	-452
857.792	-1169
857.880	-1297
857.968	-492
858.056	-1289
858.145	-708
858.233	-548
858.321	-1196
858.409	-880
858.497	-398
858.585	-461
858.673	-179
858.761	-1204
858.849	-1036
858.937	-987
859.025	-553
859.113	-1042
859.201	-1250
859.289	-541
859.377	-777
859.465	-1210
859.552	-864
859.640	-735
859.728	-196
859.816	-1115
859.903	-588
859.991	-1273
860.079	-1295
860.166	-1213
860.254	-437
860.342	-855
860.429	-896
860.517	-676
860.604	-1247
860.692	-1687
860.779	-423
860.867	-2011
860.954	-815
861.042	-1653
861.129	-785
861.216	-719
861.304	-687
861.391	-1063
861.478	-737
861.565	-409
861.653	26
861.740	-1370
861.827	-1159
861.914	-1234
862.001	-1282
862.089	-770
862.176	-1108
862.263	-1019
862.350	-809
862.437	-1004
862.524	-744
862.611	-1458
862.698	-1071
862.785	-911
862.871	-680
862.958	-1553
863.045	-1074
863.132	-1093
863.219	-662
863.306	-1961
863.392	-254
863.479	-715
863.566	-1
863.652	-986
863.739	-1176
863.826	-477
863.912	-728
863.999	-1322
864.086	-1500
864.172	-1334
864.259	-685
864.345	-861
864.432	-855
864.518	-628
864.604	-883
864.691	-1046
864.777	-66
864.863	11
864.950	-347
865.036	-162
865.122	-245
865.209	-460
865.295	-57
865.381	72
865.467	-212
865.553	-957
865.639	305
865.726	193
865.812	1894
865.898	4905
865.984	7599
866.070	12133
866.156	21043
866.242	7560
866.328	1365
866.414	-680
866.499	-584
866.585	-1092
866.671	-502
866.757	-437
866.843	255
866.928	-1055
867.014	-730
867.100	-914
867.186	-591
867.271	-722
867.357	-366
867.442	-805
867.528	-549
867.614	-566
867.699	-199
867.785	-805
867.870	-566
867.956	-754
868.041	132
868.127	-456
868.212	-632
868.297	-758
868.383	-744
868.468	-1338
868.553	448
868.639	614
868.724	617
868.809	642
868.894	-113
868.979	-1494
869.065	-332
869.150	-1427
869.235	-306
869.320	-269
869.405	-121
869.490	-1397
869.575	-540
869.660	-1117
869.745	-634
869.830	-662
869.915	-1397
870.000	-31
870.085	-778
870.169	-549
870.254	-16
870.339	-717
870.424	-322
870.509	-747
870.593	-843
870.678	-721
870.763	-723
870.847	-362
870.932	-1308
871.016	-431
871.101	-682
871.186	-1078
871.270	242
871.355	-1226
871.439	-11
871.523	-597
871.608	-1343
871.692	-457
871.777	-332
871.861	-1814
871.945	-1200
872.030	-431
872.114	-321
872.198	-1238
872.282	-1049
872.367	-1390
872.451	-334
872.535	-1364
872.619	-434
872.703	-1704
872.787	-765
872.871	-1161
872.955	-758
873.039	-1537
873.123	-661
873.207	-491
873.291	-1219
873.375	-1014
873.459	-901
873.543	-1851
873.627	-427
873.711	-1102
873.794	-511
873.878	-812
873.962	-1213
874.045	-1541
874.129	-1040
874.137	-1039
874.213	-1026
874.245	-861
874.296	-595
874.352	-1081
874.380	-1318
874.460	-779
874.464	-758
874.547	-1562
874.568	-1350
874.631	-718
874.676	-976
874.714	-1196
874.784	-944
874.798	-896
874.881	-496
874.892	-538
874.965	-822
874.999	-979
875.048	-1182
875.107	-1197
875.131	-1210
875.215	-455
875.215	-456
875.298	-1404
875.323	-1360
875.381	-1173
875.430	-763
875.465	-524
875.538	-920
875.548	-968
875.631	-463
875.646	-566
875.714	-1051
875.753	-888
875.798	-770
875.861	-650
875.881	-555
875.964	-1412
875.968	-1411
876.047	-1591
876.076	-1208
876.130	-453
876.183	-1142
876.213	-1505
876.291	-540
876.296	-478
876.379	-1623
876.398	-1352
876.462	-492
876.506	-804
876.545	-1014
876.613	-290
876.628	-161
876.711	-1325
876.721	-1212
876.794	-134
876.828	-483
876.877	-1151
876.935	-1030
876.960	-905
877.043	-588
877.043	-589
877.125	-1028
877.150	-1042
877.208	-996
877.258	-657
877.291	-438
877.365	-1324
877.374	-1418
877.456	-968
877.472	-933
877.539	-941
877.579	-717
877.622	-395
877.687	-704
877.704	-810
877.787	-106
877.794	-173
877.869	-859
877.901	-601
877.952	-183
878.008	-432
878.034	-472
878.115	-662
878.117	-670
878.199	-516
878.222	-539
878.282	-559
878.329	-353
878.364	-222
878.437	-373
878.447	-384
878.529	-1256
878.544	-1104
878.611	-639
878.651	-1055
878.694	-1267
878.758	-865
878.776	-823
878.858	-922
878.865	-952
878.941	-1014
878.972	-1002
879.023	-1108
879.078	-1105
879.105	-1056
879.185	16
879.187	32
879.269	-610
879.292	-636
879.351	-248
879.399	-121
879.433	-305
879.506	-882
879.516	-915
879.598	-935
879.613	-867
879.680	-728
879.720	-847
879.762	-832
879.827	-886
879.844	-923
879.926	-594
879.933	-580
880.007	-397
880.040	-460
880.089	-624
880.147	-1012
880.171	-1075
880.253	-242
880.254	-243
880.335	-455
880.360	-304
880.417	100
880.467	142
880.499	223
880.574	960
880.580	1018
880.662	405
880.680	233
880.744	-528
880.787	-564
880.825	-475
880.893	-224
880.907	-196
880.989	-813
881.000	-792
881.070	-445
881.106	-390
881.152	-497
881.213	-390
881.233	-243
881.315	-561
881.319	-522
881.396	-113
881.426	-179
881.478	-367
881.532	-294
881.559	-111
881.639	-433
881.641	-450
881.722	35
881.745	-164
881.803	-416
881.852	-333
881.885	-311
881.958	-531
881.966	-574
882.047	-455
882.064	-560
882.129	-579
882.171	-445
882.210	-400
882.277	-270
882.291	-202
882.372	243
882.383	202
882.454	-739
882.489	-800
882.535	-514
882.596	-747
882.616	-822
882.697	-411
882.702	-412
882.778	-186
882.808	-64
882.859	-123
882.914	-244
882.940	-352
883.020	-533
883.021	-531
883.102	-710
883.127	-640
883.183	-336
883.233	-448
883.264	-465
883.339	-33
883.345	-34
883.426	-424
883.445	-465
883.507	-230
883.551	-210
883.587	-457
883.657	-661
883.668	-588
883.749	62
883.763	81
883.830	-115
883.869	-141
883.910	-93
883.975	1
883.991	4
884.072	-27
884.081	-42
884.152	-231
884.187	-372
884.233	-615
884.292	-426
884.314	-265
884.394	-545
884.398	-531
884.475	-94
884.504	33
884.555	106
884.610	4
884.636	-90
884.716	-130
884.716	-128
884.797	-690
884.821	-750
884.877	-635
884.927	-771
884.958	-797
885.033	-426
885.038	-384
885.118	-127
885.139	-41
885.199	-57
885.244	109
885.279	281
885.350	113
885.359	32
885.439	-122
885.456	-278
885.520	-704
885.561	-713
885.600	-399
885.667	-235
885.680	-235
885.760	124
885.773	134
885.840	-353
885.878	-507
885.920	-427
885.984	-699
886.000	-729
886.080	-351
886.089	-340
886.160	-332
886.195	-211
886.240	-158
886.300	-508
886.320	-463
886.400	18
886.406	55
886.480	21
886.511	-107
886.560	-359
886.616	-603
886.640	-483
886.720	-34
886.722	-28
886.800	-19
886.827	18
886.879	-51
886.932	-221
886.959	-5
887.038	509
887.039	509
887.119	100
887.143	-34
887.198	288
887.248	549
887.278	272
887.354	-502
887.358	-466
887.437	275
887.459	497
887.517	669
887.564	686
887.596	469
887.669	57
887.676	40
887.755	-257
887.774	-316
887.835	-221
887.880	-170
887.914	-266
887.985	-556
887.994	-565
888.073	-560
888.090	-544
888.153	-307
888.195	-272
888.232	-20
888.300	568
888.311	453
888.391	-463
888.405	-627
888.470	-258
888.510	-52
888.549	-82
888.615	-87
888.628	-73
888.708	-44
888.720	-33
888.787	25
888.825	5
888.866	-24
888.930	-26
888.945	93
889.024	671
889.035	755
889.103	377
889.140	137
889.182	383
889.245	752
889.261	599
889.340	-140
889.349	-225
889.419	98
889.454	240
889.498	377
889.559	594
889.577	434
889.656	-296
889.664	-367
889.735	449
889.768	833
889.814	763
889.873	666
889.978	33
890.083	326
890.187	220
890.292	394
890.397	-99
890.501	-325
890.606	-81
890.710	624
890.815	183
890.919	43
891.024	91
891.128	-167
891.233	702
891.337	42
891.442	-142
891.546	-805
891.650	-166
891.755	129
891.859	1138
891.963	-412
892.068	1309
892.172	-161
892.276	-232
892.380	-72
892.484	200
892.589	-533
892.693	-439
892.797	-151
892.901	-217
893.005	-745
893.109	264
893.213	16
893.317	1409
893.421	-182
893.525	777
893.629	-559
893.733	-139
893.837	-395
893.941	112
894.045	-373
894.148	405
894.252	42
894.356	244
894.460	-153
894.564	-932
894.667	-511
894.771	-287
894.875	261
894.978	19
895.082	-1061
895.186	-12
895.289	-150
895.393	159
895.496	-67
895.600	-334
895.703	74
895.807	-597
895.910	-838
896.014	-553
896.117	-584
896.221	725
896.324	-882
896.427	206
896.531	-256
896.634	-89
896.737	-208
896.840	-374
896.944	-889
897.047	-234
897.150	-523
897.253	-576
897.356	-118
897.460	-641
897.563	-11
897.666	-386
897.769	-59
897.872	230
897.975	-841
898.078	208
898.181	122
898.284	-37
898.387	-381
898.490	-685
898.593	-473
898.695	-814
898.798	127
898.901	-101
899.004	44
899.107	-166
899.209	-366
899.312	198
899.415	-293
899.518	-501
899.620	-140
899.723	-294
899.826	-155
899.928	220
900.031	82
900.133	-119
900.236	-481
900.338	35
900.441	-714
900.543	-582
900.646	-575
900.748	-403
900.851	-300
900.953	-43
901.055	-916
901.158	-692
901.260	-184
901.362	179
901.465	-1571
901.567	-146
901.669	-699
901.771	-639
901.873	-1658
901.976	-301
902.078	-334
902.180	-1084
902.282	-446
902.384	-1366
902.486	3
902.588	-401
902.690	63
902.792	-509
902.894	-684
902.996	-201
903.098	-734
903.200	336
903.302	-1423
903.404	-224
903.505	-849
903.607	321
903.709	-383
903.811	-364
903.913	-668
904.014	-528
904.116	24
904.218	-1370
904.319	-725
904.421	-622
904.523	-27
904.624	172
904.726	-181
904.827	-791
904.929	-53
905.030	-714
905.132	-645
905.233	-408
905.335	-73
905.436	-406
905.537	-84
905.639	-686
905.740	-787
905.841	420
905.943	-1151
906.044	-477
906.145	-639
906.247	-953
906.348	-526
906.449	368
906.550	-1157
906.651	-624
906.752	-1067
906.854	-1049
906.955	-307
907.056	-638
907.157	-799
907.258	-353
907.359	-254
907.460	-1035
907.561	-1057
907.662	-847
907.762	-688
907.863	-367
907.964	-793
908.065	-208
908.166	-1079
908.267	-814
908.367	-1047
908.468	-1230
908.569	-1045
908.670	-657
908.770	-650
908.871	-170
908.971	-693
909.072	-530
909.173	-395
909.273	-647
909.374	-1014
909.474	-296
909.575	-378
909.675	-82
909.776	-970
909.876	-545
909.977	-251
910.077	138
910.177	-756
910.278	-648
910.378	-684
910.478	-1601
910.579	-725
910.679	-439
910.779	-533
910.879	4
910.980	-508
911.080	29
911.180	-974
911.280	-598
911.380	-1101
911.480	-116
911.580	-598
911.680	-389
911.780	-753
911.880	-770
911.980	-1292
912.080	-1353
912.180	-347
912.280	-554
912.380	-1111
912.480	-987
912.580	-588
912.679	-657
912.779	-1563
912.879	-501
912.979	-1386
913.078	-553
913.178	-51
913.278	-720
913.377	-336
913.477	-658
913.577	-882
913.676	-456
913.776	-506
913.875	-1114
913.975	-699
914.074	-1362
914.174	-1115
914.273	-618
914.373	-251
914.472	-1180
914.572	-1218
914.671	-970
914.770	-1400
914.870	-674
914.969	-686
915.068	-275
915.167	-1293
915.267	-654
915.366	-640
915.465	-516
915.564	-163
915.663	-829
915.763	-952
915.862	-412
915.961	-1150
916.060	-680
916.159	-341
916.258	-900
916.357	-351
916.456	591
916.555	-427
916.654	-595
916.752	-772
916.851	-529
916.950	-1180
917.049	-1330
917.148	-894
917.247	-451
917.345	-705
917.444	-670
917.543	-839
917.642	-1091
917.740	-1413
917.839	-619
917.937	-390
918.036	461
918.135	-735
918.233	-1046
918.332	-1053
918.430	-1146
918.529	-785
918.627	-1074
918.726	-1197
918.824	-126
918.923	-511
919.021	-888
919.119	-683
919.218	-1008
919.316	-497
919.414	-471
919.512	-367
919.611	-1062
919.709	-1280
919.807	-362
919.905	-821
920.003	-430
920.102	-947
920.200	-782
920.298	-962
920.396	-314
920.494	12
920.592	-1349
920.690	-737
920.788	-263
920.886	-435
920.984	-1011
921.082	-1251
921.180	-235
921.277	-493
921.375	-1115
921.473	-899
921.571	-4
921.669	-1349
921.766	-1061
921.864	-437
921.962	-385
922.060	-1115
922.157	-460
922.255	-33
922.352	-1131
922.450	-432
922.548	-367
922.645	-550
922.743	-175
922.840	-1035
922.938	-33
923.035	-778
923.133	-690
923.230	-698
923.327	-6
923.425	-444
923.522	-1124
923.619	-604
923.717	-529
923.814	-434
923.911	-270
924.008	-771
924.106	-126
924.203	-388
924.300	21
924.397	-920
924.494	-288
924.591	-586
924.688	-534
924.786	-713
924.883	-665
924.979	-1576
925.077	-867
925.173	-803
925.270	-37
925.367	-459
925.464	-702
925.561	-752
925.658	-38
925.755	-176
925.852	-59
925.948	-352
926.045	-1196
926.142	-1352
926.239	244
926.335	-344
926.432	-348
926.529	-296
926.625	-82
926.722	-621
926.818	-560
926.915	121
927.011	-1229
927.108	-276
927.204	-458
927.301	-194
927.397	-355
927.494	-432
927.590	109
927.687	-619
927.783	-107
927.879	-720
927.976	-487
928.072	-824
928.168	134
928.264	-929
928.361	-950
928.457	-936
928.553	-730
928.649	-624
928.745	38
928.841	-117
928.937	-58
929.033	-911
929.129	-496
929.225	-1078
929.321	-33
929.417	-455
929.513	-311
929.609	-1340
929.705	-415
929.801	6
929.897	-57
929.993	-559
930.089	-384
930.184	-1027
930.280	-626
930.376	-616
930.471	-886
930.567	-286
930.663	-785
930.758	-890
930.854	-630
930.950	-617
931.045	-864
931.141	-875
931.236	-11
931.332	-646
931.427	-196
931.523	-539
931.618	-857
931.714	-1111
931.809	-796
931.905	-671
932.000	-721
932.095	-436
932.191	-434
932.286	-1214
932.381	-729
932.476	-484
932.572	-985
932.667	-1200
932.762	-231
932.857	-70
932.952	-78
933.047	142
933.142	-1016
933.237	-939
933.332	-816
933.427	-616
933.522	-183
933.617	-882
933.712	59
933.807	169
933.902	35
933.997	-536
934.092	-362
934.187	-846
934.282	-563
934.376	-1703
934.471	21
934.566	-1196
934.661	-229
934.755	-341
934.850	-763
934.945	-735
935.039	308
935.134	-607
935.228	-720
935.323	-627
935.417	-810
935.512	-442
935.606	-1354
935.701	-732
935.795	-701
935.890	-466
935.984	-145
936.079	-755
936.173	-801
936.267	-1325
936.362	-1319
936.456	-37
936.550	623
936.644	-1353
936.738	-730
936.833	-678
936.927	-977
937.021	-534
937.115	-1189
937.209	-1040
937.303	-89
937.397	-245
937.491	-245
937.585	-438
937.679	-751
937.773	-974
937.867	-737
937.961	-746
938.055	-85
938.149	44
938.243	-319
938.337	-334
938.430	-732
938.524	-690
938.618	58
938.712	-772
938.805	-299
938.899	-715
938.993	-902
939.086	-686
939.180	-1053
939.274	-959
939.367	-259
939.461	-1272
939.554	-319
939.648	-743
939.741	-286
939.835	-1313
939.928	-1439
940.022	-299
940.115	-535
940.208	-117
940.302	-381
940.395	-1053
940.488	-1348
940.582	-317
940.675	-614
940.768	-1198
940.861	-935
940.954	-497
941.048	-858
941.141	-417
941.234	-750
941.327	-685
941.420	-471
941.513	-707
941.606	-522
941.699	186
941.792	610
941.885	-1132
941.978	-928
942.071	-491
942.164	-1542
942.257	-1060
942.349	-884
942.442	-1556
942.535	-1519
942.628	-716
942.721	-807
942.813	-922
942.906	-512
942.999	-335
943.091	-1040
943.184	-880
943.277	-1127
943.369	-1021
943.462	-822
943.554	-851
943.647	-225
943.739	-393
943.832	313
943.924	-1374
944.017	-930
944.109	-1681
944.201	-752
944.294	-140
944.386	-521
944.478	-1126
944.571	-501
944.663	-806
944.755	-405
944.847	-105
944.940	-198
945.032	-1258
945.124	-1016
945.216	-418
945.308	-536
945.400	-519
945.492	-930
945.584	-998
945.676	-974
945.768	-493
945.860	-854
945.952	-1543
946.044	-559
946.136	-984
946.228	-306
946.320	-486
946.412	-628
946.503	-594
946.595	-687
946.687	-1107
946.779	-1005
946.870	-280
946.962	-820
947.054	31
947.145	-393
947.237	-1228
947.329	-688
947.420	-753
947.512	-952
947.603	-808
947.695	-67
947.786	-1269
947.878	-1258
947.969	-829
948.061	-1386
948.152	-1626
948.243	-983
948.335	-1263
948.426	-1038
948.517	-1158
948.609	-867
948.700	-1135
948.791	-471
948.882	-759
948.973	-435
949.065	-808
949.156	-345
949.247	-964
949.338	-527
949.429	-798
949.520	-1198
949.611	-1334
949.702	-868
949.793	-761
949.884	-612
949.975	-442
950.066	-791
950.157	-1100
950.247	-1736
950.338	-843
950.429	-338
950.520	-685
950.611	-1242
950.701	-923
950.792	-845
950.883	-270
950.973	-350
951.064	-1819
951.155	-816
951.245	-1073
951.336	-1201
951.427	-571
951.517	-724
951.608	-1543
951.698	-976
951.788	-1353
951.879	-506
951.969	-946
952.060	-618
952.150	-1714
952.240	-492
952.331	-1776
952.421	62
952.511	-1231
952.602	-1191
952.692	-1489
952.782	-518
952.872	-2636
952.962	-1055
953.052	-1270
953.143	-566
953.233	-391
953.323	-56
953.413	-1141
953.503	-951
953.593	-690
953.683	-1163
953.773	-1613
953.863	-1351
953.953	-1784
954.042	-1007
954.132	-736
954.222	-974
954.312	-1048
954.402	-880
954.492	-973
954.581	-1539
954.671	-1067
954.761	-355
954.850	-401
954.940	-1334
955.030	-632
955.119	-896
955.209	-836
955.298	-1420
955.388	-705
955.477	-144
955.567	-1954
955.656	-1356
955.746	-998
955.835	-1233
955.925	-1187
956.014	-1426
956.103	-1139
956.193	-728
956.282	-1265
956.371	-572
956.461	-1477
956.550	-1197
956.639	-1103
956.728	-1242
956.817	-818
956.906	-1571
956.995	-709
957.085	-827
957.174	-1096
957.263	-714
957.352	-1429
957.441	-996
957.530	-628
957.619	-851
957.708	-590
957.796	-1321
957.885	-1473
957.974	-764
958.063	-188
958.152	-1327
958.241	-587
958.329	-1199
958.418	-921
958.507	-962
958.596	-1067
958.684	-553
958.773	-1009
958.861	328
958.950	-715
959.039	-545
959.127	-1091
959.216	-197
959.304	-1660
959.393	-580
959.481	-472
959.570	-1012
959.658	-1962
959.746	-1203
959.835	-908
959.923	-846
960.011	-1241
960.100	-358
960.188	-1469
960.276	-1427
960.365	-1590
960.453	-791
960.541	-1202
960.629	-1120
960.717	-1735
960.805	-987
960.893	-1394
960.981	-1638
961.069	-303
961.158	-1312
961.245	-1301
961.333	-911
961.421	-1681
961.509	-1342
961.597	-378
961.685	-1457
961.773	-870
961.861	-938
961.949	-422
962.036	-1174
962.124	-1241
962.212	-1442
962.299	-1598
962.387	-782
962.475	-1805
962.562	-1122
962.650	-1340
962.738	-1431
962.825	-1370
962.913	-2011
963.000	-1380
963.088	-878
963.175	-635
963.263	-772
963.350	-1359
963.438	-1207
963.525	-1445
963.612	-1252
963.700	-1346
963.787	-688
963.874	-1049
963.962	-862
964.049	-2053
964.136	-642
964.223	-2030
964.310	-1463
964.398	-1227
964.485	-1410
964.572	-1930
964.659	-1464
964.746	-1268
964.833	-777
964.920	-949
965.007	-1428
965.094	-480
965.181	-1756
965.268	-1195
965.355	-958
965.441	-969
965.528	-973
965.615	-1349
965.702	-1825
965.789	-1241
965.875	-788
965.962	-1055
966.049	-925
966.136	-1506
966.222	-954
966.309	-1089
966.395	-972
966.482	-1945
966.569	-1791
966.655	-898
966.742	-1513
966.828	-399
966.915	-1368
967.001	-957
967.087	-1433
967.174	-1405
967.260	-1080
967.347	-1397
967.433	-1570
967.519	-1307
967.605	-508
967.692	-1464
967.778	-1705
967.864	-1038
967.950	-1166
968.036	-1832
968.123	-309
968.209	-1338
968.295	-1930
968.381	-547
968.467	-1182
968.553	-1720
968.639	-1142
968.725	-1934
968.811	-1232
968.897	-1560
968.983	-1858
969.069	-1103
969.154	-775
969.240	-614
969.326	-1447
969.412	-1607
969.497	-893
969.583	-1394
969.669	-672
969.755	-1396
969.840	-1246
969.926	-1223
970.012	-2077
970.097	-1588
970.183	-936
970.268	-928
970.354	-758
970.439	-1666
970.525	-263
970.610	-1506
970.696	-1116
970.781	-1866
970.866	-2688
970.952	-1297
971.037	-1777
971.122	-1386
971.208	-1198
971.293	-1398
971.378	-2025
971.463	-1621
971.549	-1249
971.634	-1697
971.719	-826
971.804	-1941
971.889	-419
971.974	-1786
972.059	-991
972.144	-1779
972.229	-1888
972.314	-1252
972.399	-1389
972.484	-2234
972.569	-1176
972.654	-1385
972.739	-654
972.824	-1481
972.908	-1783
972.993	-1490
973.078	-1347
973.163	-2129
973.247	-1147
973.332	-2701
973.417	-631
973.501	-1098
973.586	-1757
973.671	-1406
973.755	-1488
973.840	-1178
973.924	-924
974.009	-1550
974.093	-2138
974.178	-701
974.262	-1760
974.346	-1540
974.431	-1506
974.515	-1100
974.600	-1664
974.684	-1345
974.768	-1564
974.852	-326
974.937	-956
975.021	-1518
975.105	-1199
975.189	-1682
975.273	-910
975.358	-1891
975.442	-1474
975.526	-1271
975.610	-2036
975.694	-2041
975.778	-240
975.862	-1676
975.946	-2804
976.030	-491
976.114	-956
976.198	-1522
976.281	-1595
976.365	-814
976.449	-1802
976.533	-1509
976.617	-2094
976.700	-966
976.784	-1807
976.868	-1644
976.951	-1101
977.035	-1866
977.119	-1896
977.202	-1296
977.286	-1154
977.369	-1567
977.453	-1461
977.536	-2273
977.620	-1327
977.703	-1716
977.787	-1753
977.870	-1117
977.953	-1256
978.037	-2620
978.120	-996
978.203	-1202
978.287	-1618
978.370	-1162
978.453	-1568
978.536	-1252
978.620	-1466
978.703	-1672
978.786	-903
978.869	-1883
978.952	-2052
979.035	-1085
979.118	-1588
979.201	-1201
979.284	-827
979.367	-1769
979.450	-714
979.533	-2009
979.616	-1458
979.699	-1710
979.782	-1782
979.865	-1701
979.948	-1115
980.030	-1776
980.113	-1438
980.196	-2340
980.279	-1374
980.361	-1882
980.444	-1728
980.526	-1320
980.609	-1733
980.692	-1383
980.774	-1718
980.857	-2172
980.939	-823
981.022	-2119
981.104	-1574
981.187	-2743
981.269	-887
981.352	-2336
981.434	-2191
981.516	-1748
981.599	-131
981.681	-1097
981.763	-1673
981.846	-1916
981.928	-1533
982.010	-1625
982.092	-1896
982.174	-1604
982.256	-1280
982.339	-1242
982.421	-1331
982.503	-1519
982.585	-1696
982.667	-2263
982.749	-1212
982.831	-1959
982.913	-1968
982.995	-1762
983.077	-1586
983.158	-838
983.240	-1690
983.322	-2449
983.404	-1781
983.486	-2206
983.568	-1081
983.649	-1881
983.731	-258
983.813	-1882
983.894	-2050
983.976	-2739
984.058	-1383
984.139	-1570
984.221	-2275
984.302	-1413
984.384	-1388
984.465	-1482
984.547	-1559
984.628	-2033
984.710	-1195
984.791	-1396
984.872	-1737
984.954	-2072
985.035	-910
985.116	-1801
985.198	-1071
985.279	-1120
985.360	-1278
985.441	-1892
985.522	-1056
985.604	-1921
985.685	-3177
985.766	-1711
985.847	-1013
985.928	-2224
986.009	-1128
986.090	-1756
986.171	-812
986.252	-2257
986.333	-1458
986.414	-1757
986.495	-1001
986.576	-2087
986.656	-1970
986.737	-1763
986.818	-1510
986.899	-2362
986.980	-1597
987.060	-686
987.141	-1501
987.222	-1395
987.302	-1372
987.383	-1347
987.464	-1593
987.544	-1253
987.625	-1568
987.705	-1053
987.786	-899
987.866	-705
987.947	-2580
988.027	-2137
988.108	-1620
988.188	-1077
988.268	-1282
988.349	-873
988.429	-933
988.509	-1050
988.589	-1823
988.670	-2442
988.750	-612
988.830	-1740
988.910	-1441
988.990	-1864
989.070	-1232
989.151	-1656
989.231	-1436
989.311	-1617
989.391	-1547
989.471	-1698
989.551	-1780
989.631	-1415
989.711	-941
989.791	-1586
989.870	-1815
989.950	-1323
990.030	-1743
990.110	-1449
990.190	-1808
990.269	-1946
990.349	-1330
990.429	-1281
990.509	-1346
990.588	-1565
990.668	-929
990.747	-2180
990.827	-1092
990.907	-1071
990.986	-2198
991.066	-1491
991.145	-1915
991.225	-1486
991.304	-2025
991.383	-1158
991.463	-1379
991.542	-1100
991.622	-1898
991.701	-2110
991.780	-1209
991.859	-2308
991.939	-1857
992.018	-1227
992.097	-1435
992.176	-1753
992.256	-1840
992.335	-2095
992.414	-986
992.493	-1246
992.572	-1081
992.651	-1914
992.730	-1550
992.809	-1191
992.888	-1706
992.967	-2410
993.046	-1172
993.125	-1609
993.203	-1711
993.282	-1303
993.361	-1438
993.440	-2011
993.519	-2141
993.597	-1014
993.676	-1407
993.755	-772
993.834	-1771
993.912	-2182
993.991	-519
994.069	-1854
994.148	-1843
994.226	-836
994.305	-1658
994.384	-1868
994.462	-592
994.540	-2166
994.619	-2002
994.697	-1250
994.776	-2041
994.854	-1551
994.932	-1229
995.011	-931
995.089	-1871
995.167	-1352
995.245	-1324
995.324	-2470
995.402	-954
995.480	-2093
995.558	-1753
995.636	-1801
995.714	-1949
995.792	-929
995.870	-1715
995.948	-1771
996.026	-1104
996.104	-2465
996.182	-772
996.260	-2958
996.338	-1526
996.416	-2504
996.494	-1457
996.572	-1415
996.649	-1893
996.727	-1968
996.805	-1138
996.883	-1349
996.960	-2265
997.038	-1129
997.116	-1136
997.193	-1597
997.271	-1395
997.348	-1395
997.426	-1804
997.504	-1536
997.581	-1022
997.658	-1302
997.736	-1851
997.813	-2160
997.891	-943
997.968	-1784
998.046	-1063
998.123	-1782
998.200	-1439
998.277	-1677
998.355	-1709
998.432	-1773
998.509	-1515
998.586	-742
998.663	-929
998.741	-1889
998.818	-817
998.895	-1054
998.972	-1604
999.049	-1655
999.126	-1927
999.203	-1227
999.280	-1269
999.357	-2552
999.434	-1813
999.511	-796
999.587	-1077
999.664	-2277
999.741	-797
999.818	-615
999.895	-1455
999.971	-1434
1000.048	-1517
1000.125	-1126
1000.202	-1584
1000.278	-2139
1000.355	-1322
1000.431	-1942
1000.508	-1117
1000.584	-1673
1000.661	-1213
1000.738	-1844
1000.814	-1715
1000.890	-769
1000.967	-1606
1001.043	-1169
1001.120	-2248
1001.196	-1943
1001.272	-1563
1001.349	-1498
1001.425	-2261
1001.501	-2438
1001.577	-2006
1001.654	-1293
1001.730	-1456
1001.806	-1941
1001.882	-1850
1001.958	-1362
1002.034	-1192
1002.110	-1124
1002.186	-2278
1002.262	-1753
1002.338	-1413
1002.414	-873
1002.490	-976
1002.566	-1460
1002.642	-1864
1002.718	-716
1002.794	-1921
1002.870	-1911
1002.945	-1806
1003.021	-1732
1003.097	-2726
1003.173	-977
1003.248	-1504
1003.324	-2100
1003.400	-1104
1003.475	-1439
1003.551	-1359
1003.626	-1436
1003.702	-1331
1003.777	-1590
1003.853	-1526
1003.928	-1837
1004.004	-769
1004.079	-1841
1004.155	-1837
1004.230	-2383
1004.305	-629
1004.381	-1690
1004.456	-1571
1004.531	-1629
1004.607	-1116
1004.682	-2275
1004.757	-1757
1004.832	-2337
1004.907	-1302
1004.982	-1848
1005.057	-1219
1005.133	-2243
1005.208	-2033
1005.283	-1976
1005.358	-1158
1005.433	-2275
1005.508	-1492
1005.583	-2580
1005.657	-1925
1005.732	-1581
1005.807	-1508
1005.882	-2126
1005.957	-2160
1006.032	-857
1006.106	-1794
1006.181	-1140
1006.256	-1514
1006.331	-2606
1006.405	-2332
1006.480	-1561
1006.554	-1877
1006.629	-635
1006.704	-2256
1006.778	-1597
1006.853	-1379
1006.927	-1101
1007.002	-1777
1007.076	-1366
1007.150	-1654
1007.225	-1614
1007.299	-1058
1007.373	-1709
1007.448	-1998
1007.522	-1297
1007.596	-1643
1007.671	-2139
1007.745	-1394
1007.819	-1638
1007.893	-1425
1007.967	-1786
1008.041	-1438
1008.115	-991
1008.190	-2393
1008.264	-1233
1008.338	-2547
1008.412	-2202
1008.486	-1304
1008.560	-1729
1008.633	-2010
1008.707	-1913
1008.781	-1369
1008.855	-2053
1008.929	-1782
1009.003	-2269
1009.076	-1898
1009.150	-1705
1009.224	-2050
1009.298	-1633
1009.371	-2797
1009.445	-1749
1009.519	-1306
1009.592	-1456
1009.666	-2210
1009.739	-1642
1009.813	-1851
1009.886	-1357
1009.960	-1786
1010.033	-1585
1010.107	-1173
1010.180	-1848
1010.253	-1830
1010.327	-2793
1010.400	-1248
1010.473	-1729
1010.547	-247
1010.620	-1956
1010.693	-1661
1010.766	-1939
1010.840	-1475
1010.913	-1819
1010.986	-2338
1011.059	-2571
1011.132	-1745
1011.205	-1529
1011.278	-2257
1011.351	-2644
1011.424	-1197
1011.497	-2253
1011.570	-2334
1011.643	-2170
1011.716	-2120
1011.789	-2024
1011.862	-1263
1011.934	-1718
1012.007	-2484
1012.080	-1107
1012.153	-1748
1012.225	-1040
1012.298	-1682
1012.371	-2226
1012.443	-1433
1012.516	-2164
1012.588	-1937
1012.661	-2140
1012.733	-2298
1012.806	-737
1012.879	-1450
1012.951	-1293
1013.023	-1418
1013.096	-1676
1013.168	-1958
1013.241	-1845
1013.313	-1241
1013.385	-1824
1013.458	-1675
1013.530	-1130
1013.602	-2012
1013.674	-2180
1013.746	-1998
1013.819	-2794
1013.891	-1765
1013.963	-2236
1014.035	-1891
1014.107	-1574
1014.179	-1615
1014.251	-2421
1014.323	-1990
1014.395	-2174
1014.467	-1864
1014.539	-1419
1014.611	-1919
1014.683	-1776
1014.754	-2241
1014.826	-2357
1014.898	-1413
1014.970	-2250
1015.042	-1660
1015.113	-1673
1015.185	-1406
1015.257	-2391
1015.328	-1586
1015.400	-1506
1015.471	-2033
1015.543	-2330
1015.615	-1353
1015.686	-2541
1015.757	-2137
1015.829	-1816
1015.901	-2734
1015.972	-1723
1016.043	-1545
1016.115	-1785
1016.186	-1587
1016.257	-1972
1016.328	-2328
1016.400	-1058
1016.471	-2703
1016.542	-2227
1016.613	-1893
1016.685	-2150
1016.756	-1718
1016.827	-2405
1016.898	-2407
1016.969	-1412
1017.040	-1908
1017.111	-2350
1017.182	-2461
1017.253	-1794
1017.324	-2173
1017.395	-2515
1017.466	-1591
1017.537	-2694
1017.608	-2319
1017.678	-2323
1017.749	-2060
1017.820	-2399
1017.891	-2181
1017.961	-2877
1018.032	-2585
1018.103	-2395
1018.173	-1307
1018.244	-1793
1018.315	-2239
1018.385	-1620
1018.456	-2347
1018.526	-3266
1018.597	-1927
1018.667	-1835
1018.738	-2153
1018.808	-1680
1018.878	-2403
1018.949	-2368
1019.019	-1873
1019.089	-1775
1019.160	-1768
1019.230	-2318
1019.300	-1408
1019.371	-2528
1019.441	-1270
1019.511	-1979
1019.581	-1992
1019.651	-1968
1019.721	-1348
1019.791	-1942
1019.861	-1626
1019.931	-1955
1020.001	-2282
1020.071	-1749
1020.141	-1089
1020.211	-2408
1020.281	-1935
1020.351	-1967
1020.421	-1560
1020.491	-1899
1020.560	-1941
1020.630	-1314
1020.700	-2068
1020.770	-2703
1020.839	-2319
1020.909	-1942
1020.979	-2504
1021.048	-1781
1021.118	-2058
1021.187	-2556
1021.257	-2017
1021.326	-1698
1021.396	-2658
1021.465	-1491
1021.535	-2254
1021.604	-2647
1021.674	-1648
1021.743	-2678
1021.812	-2808
1021.882	-1856
1021.951	-2546
1022.020	-1584
1022.089	-3220
1022.159	-2060
1022.228	-1551
1022.297	-1204
1022.366	-2057
1022.435	-2208
1022.504	-1613
1022.573	-2692
1022.642	-1590
1022.711	-2750
1022.781	-2520
1022.849	-2082
1022.918	-2276
1022.987	-2102
1023.056	-1380
1023.125	-2527
1023.194	-2357
1023.263	-2062
1023.331	-1923
1023.400	-2096
1023.469	-2348
1023.538	-1966
1023.606	-2142
1023.675	-1944
1023.744	-1863
1023.812	-2456
1023.881	-1405
1023.949	-1461
1024.018	-1955
1024.086	-2215
1024.155	-2408
1024.223	-2431
1024.292	-1748
1024.360	-2302
1024.429	-1972
1024.497	-2750
1024.565	-2440
1024.634	-1571
1024.702	-1921
1024.770	-2344
1024.838	-2216
1024.907	-2679
1024.975	-1838
1025.043	-2053
1025.111	-2030
1025.179	-1892
1025.247	-2417
1025.315	-1650
1025.383	-2027
1025.451	-2180
1025.519	-2235
1025.587	-2142
1025.655	-2157
1025.723	-2592
1025.791	-1769
1025.859	-1644
1025.927	-1657
1025.995	-1830
1026.062	-1990
1026.130	-2207
1026.198	-2393
1026.266	-3270
1026.333	-1897
1026.401	-2398
1026.469	-2340
1026.536	-2693
1026.604	-2311
1026.671	-2292
1026.739	-2122
1026.806	-2368
1026.874	-2425
1026.941	-2099
1027.009	-1217
1027.076	-1727
1027.144	-1441
1027.211	-3125
1027.278	-1893
1027.345	-2839
1027.413	-1519
1027.480	-1815
1027.547	-2930
1027.614	-2358
1027.682	-1529
1027.749	-2728
1027.816	-2776
1027.883	-1897
1027.950	-1466
1028.017	-1760
1028.084	-2041
1028.151	-2536
1028.218	-1899
1028.285	-2681
1028.352	-2477
1028.419	-1775
1028.486	-1927
1028.553	-2290
1028.619	-2112
1028.686	-2322
1028.753	-2166
1028.820	-2102
1028.886	-2194
1028.953	-1668
1029.020	-1979
1029.086	-2551
1029.153	-2054
1029.220	-2124
1029.286	-2150
1029.353	-1546
1029.419	-2204
1029.486	-1794
1029.552	-1636
1029.619	-2440
1029.685	-2741
1029.751	-1876
1029.818	-1929
1029.884	-2862
1029.951	-1082
1030.017	-3043
1030.083	-2493
1030.149	-2101
1030.216	-1762
1030.282	-2550
1030.348	-1144
1030.414	-2448
1030.480	-1939
1030.546	-1949
1030.612	-2122
1030.678	-2025
1030.744	-2031
1030.810	-2432
1030.876	-1802
1030.942	-2272
1031.008	-2100
1031.074	-2882
1031.140	-2171
1031.206	-2054
1031.272	-2269
1031.337	-2187
1031.403	-1838
1031.469	-2458
1031.534	-1939
1031.600	-1863
1031.666	-1985
1031.731	-2853
1031.797	-1483
1031.863	-2376
1031.928	-1625
1031.994	-1991
1032.059	-2262
1032.125	-2276
1032.190	-2744
1032.256	-2090
1032.321	-1763
1032.386	-2915
1032.452	-1878
1032.517	-1994
1032.582	-1769
1032.647	-2414
1032.713	-1717
1032.778	-2486
1032.843	-1610
1032.908	-2339
1032.974	-2574
1033.039	-2741
1033.104	-1935
1033.169	-2990
1033.234	-2290
1033.299	-2105
1033.364	-1590
1033.429	-2426
1033.494	-2276
1033.559	-3097
1033.624	-1687
1033.688	-2470
1033.753	-3161
1033.818	-2049
1033.883	-1842
1033.948	-1845
1034.013	-2226
1034.077	-2432
1034.142	-1747
1034.207	-1913
1034.271	-1876
1034.336	-2180
1034.400	-916
1034.465	-2771
1034.530	-2236
1034.594	-1872
1034.658	-1943
1034.723	-1670
1034.787	-1790
1034.852	-2160
1034.916	-2057
1034.981	-2789
1035.045	-1877
1035.109	-2254
1035.173	-1278
1035.238	-3006
1035.302	-1304
1035.366	-1922
1035.430	-1945
1035.495	-2562
1035.559	-2370
1035.623	-2167
1035.687	-1400
1035.751	-2245
1035.815	-1743
1035.879	-2387
1035.943	-1800
1036.007	-2672
1036.071	-2092
1036.135	-1972
1036.198	-1756
1036.262	-1923
1036.326	-1879
1036.390	-2545
1036.454	-2597
1036.517	-1833
1036.581	-3193
1036.645	-2071
1036.709	-3032
1036.772	-2664
1036.836	-2705
1036.900	-2014
1036.963	-2038
1037.026	-2500
1037.090	-2872
1037.154	-1759
1037.217	-2340
1037.280	-2383
1037.344	-1663
1037.407	-2011
1037.471	-1635
1037.534	-2266
1037.597	-2100
1037.661	-2395
1037.724	-2183
1037.787	-2733
1037.850	-2196
1037.913	-2086
1037.977	-1622
1038.040	-2388
1038.103	-2359
1038.166	-2281
1038.229	-1972
1038.292	-2030
1038.355	-1532
1038.418	-2497
1038.481	-1254
1038.544	-2465
1038.607	-1484
1038.670	-1785
1038.732	-1940
1038.795	-2391
1038.858	-2250
1038.921	-1625
1038.984	-2257
1039.046	-1662
1039.109	-2677
1039.172	-2055
1039.234	-1865
1039.297	-2743
1039.360	-1635
1039.422	-2048
1039.485	-1271
1039.547	-2345
1039.610	-2672
1039.672	-2051
1039.734	-1335
1039.797	-2531
1039.859	-1920
1039.922	-2529
1039.984	-1993
1040.046	-2641
1040.109	-2115
1040.171	-2301
1040.233	-2699
1040.295	-2625
1040.358	-2216
1040.420	-1770
1040.482	-1740
1040.544	-2476
1040.606	-1849
1040.668	-3016
1040.730	-2072
1040.792	-3207
1040.854	-2368
1040.916	-2808
1040.978	-2294
1041.040	-2160
1041.102	-2032
1041.164	-2009
1041.225	-1769
1041.287	-1796
1041.349	-940
1041.411	-1869
1041.472	-1224
1041.534	-2164
1041.596	-1572
1041.657	-2544
1041.719	-1935
1041.781	-2013
1041.842	-1523
1041.904	-1896
1041.965	-1593
1042.027	-2568
1042.088	-1520
1042.150	-2024
1042.211	-1564
1042.272	-1828
1042.334	-2065
1042.395	-2392
1042.456	-2210
1042.518	-2245
1042.579	-1615
1042.640	-3174
1042.701	-2115
1042.763	-2918
1042.824	-1870
1042.885	-2244
1042.946	-1899
1043.007	-2576
1043.068	-2591
1043.129	-2267
1043.190	-1925
1043.251	-1379
1043.312	-2326
1043.373	-1823
1043.434	-2098
1043.495	-1943
1043.556	-1284
1043.616	-1688
1043.677	-1963
1043.738	-1662
1043.799	-1794
1043.859	-1752
1043.920	-1307
1043.981	-2096
1044.041	-1990
1044.102	-2209
1044.162	-1970
1044.223	-2061
1044.284	-1195
1044.344	-2232
1044.405	-1579
1044.465	-1474
1044.525	-1805
1044.586	-2652
1044.646	-2311
1044.707	-2284
1044.767	-2309
1044.827	-2161
1044.887	-2201
1044.948	-1916
1045.008	-1264
1045.068	-2284
1045.128	-1978
1045.188	-1909
1045.249	-1261
1045.309	-1778
1045.369	-1866
1045.429	-2230
1045.489	-2388
1045.549	-2005
1045.609	-2076
1045.669	-2542
1045.729	-1980
1045.789	-1837
1045.848	-2529
1045.908	-2011
1045.968	-867
1046.028	-1867
1046.088	-1459
1046.147	-2068
1046.207	-1675
1046.267	-1505
1046.326	-1775
1046.386	-1865
1046.446	-1456
1046.505	-1777
1046.565	-1187
1046.624	-960
1046.684	-1163
1046.743	-1483
1046.803	-322
1046.862	-919
1046.922	0
