'Start Wavelength	183.907
'End Wavelength	1046.922
'Gate Delay	5.000
'Gate Width (ms)	1.050
'Laser Output Level	0.000
'X Position	0.000
'Y Position	0.000
'Z Position	0.000
'Grid Point Number	1.000
'Shot Number	100.000
183.907	500.000
183.977	-223.000
184.047	163
184.116	201
184.186	576
184.256	338
184.325	-793
184.395	-359
184.465	954
184.534	-631
184.604	-792
184.674	-128
184.743	-392
184.813	281
184.883	431
184.952	41
185.022	80
185.092	247
185.161	-650
185.231	326
185.301	116
185.370	-254
185.440	-649
185.509	5
185.579	-680
185.649	-197
185.718	93
185.788	433
185.857	-296
185.927	145
185.996	288
186.066	-350
186.136	-605
186.205	-890
186.275	5
186.344	373
186.414	11
186.483	549
186.553	739
186.622	-294
186.692	-605
186.761	-176
186.831	-765
186.900	430
186.970	-433
187.039	273
187.109	164
187.178	554
187.248	204
187.317	141
187.387	-29
187.456	128
187.526	213
187.595	398
187.664	-484
187.734	410
187.803	-217
187.873	458
187.942	173
188.012	270
188.081	-1270
188.150	-295
188.220	-544
188.289	609
188.358	-75
188.428	667
188.497	-305
188.567	752
188.636	-118
188.705	589
188.775	-137
188.844	-217
188.913	101
188.983	-448
189.052	-1402
189.121	-241
189.191	162
189.260	81
189.329	265
189.399	-682
189.468	-187
189.537	-415
189.606	-14
189.676	-692
189.745	-898
189.814	191
189.883	212
189.953	119
190.022	-692
190.091	405
190.161	-469
190.230	446
190.299	113
190.368	-179
190.437	-860
190.507	-159
190.576	-205
190.645	-352
190.714	-1228
190.783	-3
190.853	160
190.922	234
190.991	-1114
191.060	714
191.129	-878
191.198	335
191.268	-265
191.337	-569
191.406	-362
191.475	-249
191.544	-565
191.613	-499
191.682	-614
191.752	-494
191.821	-332
191.890	-810
191.959	434
192.028	-514
192.097	-790
192.166	370
192.235	-727
192.304	1064
192.373	-398
192.442	242
192.511	37
192.580	408
192.650	-490
192.719	383
192.788	-319
192.857	101
192.926	-111
192.995	-538
193.064	-360
193.133	521
193.202	-393
193.271	431
193.340	333
193.409	142
193.478	204
193.547	148
193.615	448
193.684	16
193.753	-391
193.822	174
193.891	-534
193.960	269
194.029	-851
194.098	80
194.167	-516
194.236	-28
194.305	-711
194.374	263
194.443	-660
194.512	507
194.580	-717
194.649	1062
194.718	263
194.787	-311
194.856	-166
194.925	559
194.994	-403
195.062	481
195.131	-900
195.200	534
195.269	481
195.338	552
195.407	-114
195.475	-214
195.544	-19
195.613	474
195.682	-171
195.751	1067
195.819	-591
195.888	407
195.957	2
196.026	50
196.094	422
196.163	-764
196.232	-876
196.301	264
196.369	282
196.438	-376
196.507	-256
196.576	-99
196.644	-343
196.713	403
196.782	-672
196.850	-242
196.919	-626
196.988	-325
197.056	-383
197.125	314
197.194	81
197.262	-860
197.331	-285
197.400	226
197.468	179
197.537	-563
197.606	189
197.674	-94
197.743	76
197.812	-194
197.880	154
197.949	-666
198.017	126
198.086	-297
198.155	-207
198.223	55
198.292	397
198.360	-17
198.429	-251
198.497	-325
198.566	-215
198.635	418
198.703	-216
198.772	717
198.840	-215
198.909	411
198.977	-301
199.046	-42
199.114	-725
199.183	-379
199.251	-493
199.320	-513
199.388	26
199.457	-168
199.525	-688
199.594	33
199.662	-771
199.731	47
199.799	-964
199.867	-78
199.936	-812
200.004	224
200.073	-498
200.141	-367
200.210	-167
200.278	-486
200.346	93
200.415	-117
200.483	-952
200.552	-173
200.620	-880
200.688	-98
200.757	-339
200.825	284
200.893	-1095
200.962	393
201.030	-87
201.098	-727
201.167	345
201.235	-185
201.303	-783
201.372	571
201.440	-963
201.508	-160
201.577	-82
201.645	69
201.713	343
201.781	-968
201.850	-382
201.918	60
201.986	-850
202.055	272
202.123	-761
202.191	158
202.259	-218
202.327	318
202.396	-643
202.464	246
202.532	-741
202.600	366
202.669	180
202.737	-110
202.805	-1282
202.873	190
202.941	-222
203.009	393
203.078	-1121
203.146	510
203.214	-903
203.282	-758
203.350	-199
203.418	-79
203.487	12
203.555	-292
203.623	-479
203.691	74
203.759	-428
203.827	-659
203.895	35
203.963	574
204.031	-113
204.099	203
204.168	-344
204.236	-31
204.304	344
204.372	-156
204.440	-656
204.508	-283
204.576	-893
204.644	538
204.712	-1162
204.780	573
204.848	-139
204.916	-454
204.984	-290
205.052	179
205.120	-770
205.188	688
205.256	-408
205.324	648
205.392	37
205.460	164
205.528	-590
205.596	164
205.664	-374
205.732	-110
205.799	411
205.867	466
205.935	-451
206.003	623
206.071	-359
206.139	-294
206.207	-133
206.275	14
206.343	-369
206.411	-350
206.478	-193
206.546	-334
206.614	-222
206.682	-58
206.750	101
206.818	-308
206.885	-287
206.953	-1440
207.021	752
207.089	149
207.157	-1336
207.225	148
207.292	41
207.360	388
207.428	-11
207.496	-192
207.563	351
207.631	253
207.699	-564
207.767	-317
207.834	97
207.902	-355
207.970	-449
208.038	41
208.105	-716
208.173	-41
208.241	-43
208.309	1186
208.376	399
208.444	73
208.512	-802
208.579	-644
208.647	368
208.715	320
208.782	-602
208.850	-260
208.918	-391
208.985	-25
209.053	-499
209.120	42
209.188	-774
209.256	66
209.323	-454
209.391	-471
209.459	130
209.526	474
209.594	-691
209.661	-790
209.729	-122
209.796	12
209.864	836
209.932	-886
209.999	1144
210.067	513
210.134	-285
210.202	540
210.269	418
210.337	-18
210.404	417
210.472	87
210.539	-401
210.607	273
210.674	-461
210.742	703
210.809	-468
210.877	129
210.944	80
211.012	-1234
211.079	1222
211.146	-90
211.214	200
211.281	483
211.349	-180
211.416	436
211.484	456
211.551	-487
211.618	-15
211.686	78
211.753	-375
211.821	787
211.888	47
211.955	-59
212.023	-275
212.090	294
212.157	-146
212.225	1156
212.292	-35
212.359	1752
212.427	4843
212.494	1558
212.561	1293
212.629	164
212.696	-468
212.763	787
212.831	-512
212.898	536
212.965	-135
213.032	1101
213.100	-243
213.167	46
213.234	126
213.301	1482
213.369	7
213.436	298
213.503	-464
213.570	253
213.638	617
213.705	-195
213.772	-547
213.839	380
213.906	137
213.973	397
214.041	-347
214.108	223
214.175	-354
214.242	498
214.309	160
214.376	-318
214.444	-740
214.511	663
214.578	-575
214.645	675
214.712	-597
214.779	-127
214.846	-203
214.913	992
214.980	158
215.048	660
215.115	-509
215.182	287
215.249	-256
215.316	619
215.383	-446
215.450	1326
215.517	229
215.584	28
215.651	101
215.718	31
215.785	73
215.852	-618
215.919	250
215.986	1083
216.053	-89
216.120	-549
216.187	-164
216.254	212
216.321	518
216.388	335
216.455	461
216.522	395
216.589	-113
216.656	839
216.722	208
216.789	1272
216.856	337
216.923	588
216.990	152
217.057	158
217.124	-209
217.191	552
217.258	625
217.324	959
217.391	423
217.458	528
217.525	-37
217.592	-7
217.659	-1067
217.725	757
217.792	-533
217.859	657
217.926	191
217.993	427
218.059	262
218.126	124
218.193	-241
218.260	-159
218.327	-568
218.393	-60
218.460	-282
218.527	-7
218.594	55
218.660	-60
218.727	961
218.794	-286
218.860	483
218.927	-45
218.994	-280
219.061	-468
219.127	-119
219.194	378
219.261	120
219.327	318
219.394	556
219.461	-238
219.527	-301
219.594	419
219.661	-230
219.727	-1093
219.794	318
219.860	-39
219.927	-533
219.994	61
220.060	227
220.127	406
220.193	270
220.260	531
220.326	147
220.393	866
220.460	1678
220.526	1103
220.593	-262
220.659	980
220.726	2
220.792	2529
220.859	1712
220.925	2612
220.992	2057
221.058	3693
221.125	3196
221.191	2512
221.258	201
221.324	35
221.391	140
221.457	203
221.524	18
221.590	539
221.657	3137
221.723	1564
221.789	901
221.856	1972
221.922	549
221.989	194
222.055	56
222.121	-536
222.188	649
222.254	-119
222.321	-892
222.387	190
222.453	458
222.520	-771
222.586	-582
222.652	421
222.719	-936
222.785	405
222.851	-606
222.918	110
222.984	-385
223.050	357
223.116	-1232
223.183	1032
223.249	-430
223.315	-543
223.382	477
223.448	127
223.514	-460
223.580	73
223.647	-1343
223.713	-603
223.779	-364
223.845	-87
223.911	251
223.978	-685
224.044	142
224.110	-265
224.176	-449
224.242	339
224.309	-1673
224.375	206
224.441	-132
224.507	-969
224.573	-648
224.639	877
224.705	-1101
224.772	147
224.838	-335
224.904	281
224.970	-297
225.036	-978
225.102	-502
225.168	325
225.234	603
225.300	58
225.366	-838
225.432	-223
225.499	-7
225.565	-656
225.631	-1132
225.697	143
225.763	180
225.829	91
225.895	137
225.961	118
226.027	-40
226.093	319
226.159	360
226.225	961
226.291	2288
226.357	4996
226.423	1624
226.489	1311
226.554	713
226.620	554
226.686	-41
226.752	1490
226.818	2061
226.884	6378
226.950	4909
227.016	2012
227.082	301
227.148	812
227.214	404
227.279	435
227.345	-606
227.411	86
227.477	-351
227.543	-200
227.609	-104
227.674	569
227.740	211
227.806	668
227.872	-757
227.938	529
228.003	465
228.069	32
228.135	-510
228.201	-101
228.267	-207
228.332	-189
228.398	-1077
228.464	-343
228.530	161
228.595	-119
228.661	-1032
228.727	2
228.792	466
228.858	130
228.924	-2308
228.990	1596
229.055	-948
229.121	-84
229.187	-265
229.252	-890
229.318	-716
229.384	104
229.449	29
229.515	-957
229.581	-1377
229.646	1226
229.712	-427
229.777	671
229.843	128
229.909	368
229.974	730
230.040	324
230.105	-527
230.171	-247
230.236	-387
230.302	706
230.368	946
230.433	318
230.499	18
230.564	942
230.630	-585
230.695	-330
230.761	-120
230.826	-1637
230.892	829
230.957	-1375
231.023	-995
231.088	-201
231.154	22
231.219	-58
231.284	-774
231.350	797
231.415	-1525
231.481	852
231.546	-159
231.612	141
231.677	-709
231.742	-843
231.808	431
231.873	-875
231.939	-1904
232.004	886
232.069	147
232.135	-394
232.200	-364
232.265	530
232.331	-357
232.396	-89
232.461	-254
232.527	-286
232.592	-1237
232.657	277
232.723	135
232.788	47
232.853	77
232.918	108
232.984	-1412
233.049	-378
233.114	-81
233.179	498
233.245	1308
233.310	1616
233.375	-1077
233.440	175
233.506	-1142
233.571	-406
233.636	-574
233.701	-355
233.766	93
233.832	-219
233.897	-408
233.962	-359
234.027	770
234.092	543
234.157	77
234.222	-376
234.288	-30
234.353	3275
234.418	2051
234.483	647
234.548	-155
234.613	-642
234.678	-102
234.743	-141
234.808	3177
234.873	821
234.938	790
235.004	171
235.069	-679
235.134	-547
235.199	-105
235.264	155
235.329	-1363
235.394	-8
235.459	755
235.524	-877
235.589	318
235.654	0
235.719	-1841
235.784	404
235.849	-557
235.913	1281
235.978	1258
236.043	1047
236.108	345
236.173	26
236.238	253
236.303	-751
236.368	-1137
236.433	1506
236.498	864
236.563	1247
236.627	2122
236.692	9924
236.757	6894
236.822	2709
236.887	428
236.952	982
237.017	192
237.081	2179
237.146	-42
237.211	3492
237.276	8449
237.341	15128
237.405	6082
237.470	2458
237.535	1404
237.600	870
237.664	552
237.729	-656
237.794	-449
237.859	2709
237.923	1287
237.988	344
238.053	1720
238.118	854
238.182	4251
238.247	3897
238.312	376
238.376	778
238.441	-1271
238.506	1345
238.570	-814
238.635	778
238.700	758
238.764	-162
238.829	1242
238.893	1213
238.958	256
239.023	412
239.087	-174
239.152	344
239.216	-97
239.281	93
239.346	-135
239.410	179
239.475	-443
239.539	5515
239.604	1487
239.668	1433
239.733	-70
239.797	13
239.862	158
239.926	2509
239.991	260
240.055	-37
240.120	-479
240.184	224
240.249	-1000
240.313	-867
240.378	-912
240.442	2318
240.507	3259
240.571	310
240.635	479
240.700	1221
240.764	-621
240.829	676
240.893	-1302
240.957	588
241.022	2012
241.086	3844
241.151	-155
241.215	-1056
241.279	597
241.344	549
241.408	695
241.472	13
241.537	460
241.601	322
241.665	-817
241.730	-392
241.794	766
241.858	182
241.922	-590
241.987	-14
242.051	-561
242.115	-1304
242.179	-225
242.244	-245
242.308	731
242.372	505
242.436	-430
242.501	712
242.565	-1269
242.629	-558
242.693	-233
242.757	-662
242.822	-813
242.886	466
242.950	31
243.014	-231
243.078	-458
243.142	10
243.206	-820
243.271	505
243.335	-1004
243.399	1358
243.463	4351
243.527	13980
243.591	2653
243.655	1044
243.719	-317
243.783	386
243.847	1081
243.911	1075
243.975	-422
244.040	-606
244.104	2199
244.168	-141
244.232	-337
244.296	387
244.360	-201
244.424	282
244.488	268
244.552	485
244.615	-363
244.679	197
244.743	-524
244.807	-874
244.871	190
244.935	102
244.999	-1413
245.063	171
245.127	237
245.191	757
245.255	61
245.319	594
245.383	-1434
245.446	1551
245.510	-1404
245.574	-653
245.638	19
245.702	-892
245.766	354
245.829	1175
245.893	-1049
245.957	-578
246.021	-19
246.085	-35
246.149	417
246.212	3411
246.276	2119
246.340	-702
246.404	187
246.467	489
246.531	-669
246.595	970
246.659	1266
246.722	-655
246.786	155
246.850	822
246.913	538
246.977	-949
247.041	-74
247.104	-104
247.168	155
247.232	1482
247.295	4831
247.359	1638
247.423	-508
247.486	328
247.550	551
247.614	734
247.677	600
247.741	-301
247.804	-494
247.868	1574
247.932	687
247.995	4839
248.059	599
248.122	476
248.186	1241
248.249	2466
248.313	8145
248.376	7110
248.440	3234
248.503	-464
248.567	1626
248.630	962
248.694	1065
248.757	3605
248.821	7514
248.884	4407
248.948	3623
249.011	5582
249.075	10002
249.138	7818
249.202	2550
249.265	994
249.328	3238
249.392	-85
249.455	1183
249.519	-223
249.582	150
249.645	1935
249.709	399
249.772	733
249.835	262
249.899	1707
249.962	528
250.025	186
250.089	2717
250.152	3979
250.215	1238
250.279	558
250.342	1240
250.405	1432
250.468	573
250.532	1589
250.595	2610
250.658	15400
250.721	23036
250.785	6507
250.848	4177
250.911	997
250.974	1819
251.038	1932
251.101	5088
251.164	2659
251.227	2561
251.290	2774
251.354	3959
251.417	22982
251.480	17374
251.543	12469
251.606	43742
251.669	25195
251.732	8391
251.795	7352
251.859	8681
251.922	24337
251.985	10842
252.048	4299
252.111	2053
252.174	1429
252.237	5087
252.300	10717
252.363	12104
252.426	31205
252.489	8669
252.552	5290
252.615	2635
252.678	4506
252.741	9080
252.804	12855
252.867	31822
252.930	13766
252.993	5654
253.056	3397
253.119	1718
253.182	1442
253.245	2720
253.308	3188
253.371	1942
253.434	1924
253.497	1400
253.559	3821
253.622	1526
253.685	2986
253.748	1569
253.811	754
253.874	2380
253.937	1344
254.000	536
254.062	1863
254.125	2232
254.188	3400
254.251	1030
254.314	1472
254.376	1039
254.439	2143
254.502	1032
254.565	2314
254.628	4845
254.690	1584
254.753	-228
254.816	78
254.878	870
254.941	2489
255.004	2444
255.067	672
255.129	302
255.192	640
255.255	-1260
255.317	603
255.380	-708
255.443	-155
255.505	-652
255.568	-196
255.631	-1659
255.693	208
255.756	-1437
255.819	317
255.881	-442
255.944	195
256.006	-488
256.069	-300
256.132	-664
256.194	527
256.257	3288
256.319	2329
256.382	826
256.444	690
256.507	-339
256.569	-408
256.632	232
256.694	1307
256.757	4152
256.819	13797
256.882	3293
256.944	1038
257.007	440
257.069	920
257.132	-405
257.194	1234
257.257	-126
257.319	192
257.381	431
257.444	4670
257.506	17065
257.569	15741
257.631	6486
257.693	3009
257.756	661
257.818	1178
257.880	58
257.943	1190
258.005	-864
258.067	188
258.130	258
258.192	317
258.254	1452
258.317	170
258.379	341
258.441	2023
258.503	1485
258.566	4452
258.628	3706
258.690	155
258.753	917
258.815	1378
258.877	-385
258.939	-210
259.001	182
259.064	-278
259.126	-666
259.188	118
259.250	609
259.312	-185
259.375	3022
259.437	776
259.499	-268
259.561	-117
259.623	90
259.685	-158
259.747	-18
259.809	4225
259.872	6321
259.934	12923
259.996	7081
260.058	1164
260.120	-63
260.182	196
260.244	-234
260.306	-217
260.368	-128
260.430	75
260.492	-84
260.554	2496
260.616	757
260.678	3943
260.740	4632
260.802	439
260.864	73
260.926	-1385
260.988	358
261.050	240
261.112	741
261.174	6991
261.236	4393
261.298	963
261.359	3084
261.421	4111
261.483	-542
261.545	665
261.607	-1156
261.669	418
261.731	1210
261.793	4065
261.854	-1221
261.916	296
261.978	-382
262.040	857
262.102	624
262.164	1462
262.225	456
262.287	259
262.349	-179
262.411	531
262.472	366
262.534	1917
262.596	3483
262.658	1140
262.719	-839
262.781	1174
262.843	3373
262.904	793
262.966	667
263.028	1092
263.090	9967
263.151	20233
263.213	4623
263.275	1656
263.336	37
263.398	850
263.459	-1644
263.521	290
263.583	699
263.644	699
263.706	-1191
263.767	-201
263.829	147
263.891	-304
263.952	-574
264.014	-1168
264.075	-466
264.137	435
264.198	165
264.260	-1462
264.321	51
264.383	463
264.444	1806
264.506	-82
264.567	41
264.629	941
264.690	-378
264.752	-217
264.813	-522
264.875	-507
264.936	213
264.998	-831
265.059	-865
265.120	-2
265.182	-460
265.243	6083
265.305	5185
265.366	1101
265.427	-598
265.489	183
265.550	-1621
265.611	-722
265.673	-928
265.734	-560
265.795	-188
265.857	-385
265.918	-1050
265.979	1037
266.040	11324
266.102	8204
266.163	1763
266.224	193
266.286	-328
266.347	51
266.408	-1080
266.469	7
266.530	297
266.592	-178
266.653	551
266.714	-209
266.775	-1299
266.836	-826
266.898	-888
266.959	-536
267.020	-685
267.081	-477
267.142	-1036
267.203	-353
267.264	-1260
267.326	409
267.387	-1253
267.448	-268
267.509	-306
267.570	-331
267.631	-1390
267.692	-1014
267.753	-471
267.814	-1445
267.875	-140
267.936	874
267.997	-956
268.058	-862
268.119	-415
268.180	-595
268.241	-1819
268.302	-205
268.363	-795
268.424	-91
268.485	-316
268.546	-1194
268.607	-733
268.668	-1207
268.729	-862
268.790	-412
268.851	-923
268.912	-214
268.972	238
269.033	-1012
269.094	-1994
269.155	-667
269.216	-862
269.277	-279
269.338	-1187
269.398	-620
269.459	-967
269.520	-179
269.581	-913
269.642	-226
269.702	-1720
269.763	126
269.824	-1559
269.885	-653
269.945	-454
270.006	147
270.067	-1512
270.128	-523
270.188	-758
270.249	-762
270.310	-1294
270.370	-631
270.431	-1048
270.492	-711
270.553	-832
270.613	449
270.674	300
270.734	-1010
270.795	-910
270.856	-572
270.916	-1049
270.977	-187
271.038	-597
271.098	299
271.159	-635
271.219	-103
271.280	-418
271.340	-700
271.401	-941
271.462	2023
271.522	-255
271.583	194
271.643	-371
271.704	-351
271.764	-216
271.825	1203
271.885	5611
271.946	8481
272.006	1599
272.066	3606
272.127	5897
272.187	1754
272.248	-9
272.308	639
272.369	3943
272.429	2228
272.489	1030
272.550	734
272.610	669
272.671	-1
272.731	646
272.791	1527
272.852	-239
272.912	-355
272.972	-388
273.033	-294
273.093	-168
273.153	556
273.214	-388
273.274	-211
273.334	2318
273.394	5185
273.455	592
273.515	1981
273.575	2915
273.635	908
273.696	2699
273.756	6367
273.816	439
273.876	723
273.936	3619
273.997	5917
274.057	-482
274.117	354
274.177	494
274.237	7175
274.297	6991
274.358	4509
274.418	4137
274.478	2168
274.538	66
274.598	383
274.658	5724
274.718	6925
274.778	2015
274.838	175
274.898	3146
274.958	10546
275.018	7286
275.078	3820
275.138	411
275.198	-502
275.258	-32
275.318	368
275.378	333
275.438	481
275.498	257
275.558	5745
275.618	7457
275.678	2855
275.738	1842
275.798	327
275.858	-1013
275.918	-654
275.978	182
276.038	-481
276.098	-1088
276.157	1
276.217	2455
276.277	793
276.337	-431
276.397	-46
276.457	-795
276.517	-566
276.576	270
276.636	-619
276.696	-553
276.756	1485
276.815	-137
276.875	-26
276.935	-52
276.995	-248
277.055	-969
277.114	-534
277.174	-984
277.234	1868
277.293	-509
277.353	-378
277.413	-556
277.472	-335
277.532	-654
277.592	-239
277.651	864
277.711	2327
277.771	-166
277.830	4115
277.890	2132
277.950	2284
278.009	8001
278.069	2617
278.128	1462
278.188	2099
278.248	147
278.307	2759
278.367	1757
278.426	-48
278.486	-1140
278.545	-685
278.605	-791
278.664	-128
278.724	-934
278.783	1782
278.843	5332
278.902	893
278.962	297
279.021	-37
279.081	881
279.140	-251
279.199	-203
279.259	660
279.318	662
279.378	1385
279.437	2722
279.496	14426
279.556	46376
279.615	28159
279.675	5376
279.734	3073
279.793	4859
279.853	9866
279.912	2643
279.971	1566
280.031	1065
280.090	3423
280.149	5668
280.208	5489
280.268	29131
280.327	24509
280.386	3816
280.445	2792
280.505	1618
280.564	581
280.623	137
280.682	984
280.742	886
280.801	282
280.860	-715
280.919	7
280.978	-996
281.037	-741
281.097	-274
281.156	-78
281.215	-40
281.274	-407
281.333	2617
281.392	1704
281.451	-526
281.510	364
281.569	-996
281.628	-907
281.688	-735
281.747	-279
281.806	-1119
281.865	-727
281.924	-1165
281.983	-508
282.042	-1279
282.101	-385
282.160	-851
282.219	-423
282.278	42
282.337	386
282.396	-707
282.454	-510
282.513	-207
282.572	1613
282.631	-13
282.690	-388
282.749	-1223
282.808	47
282.867	-322
282.926	113
282.985	-1367
283.043	-481
283.102	-1678
283.161	-246
283.220	846
283.279	2219
283.338	-164
283.396	-1124
283.455	-333
283.514	-828
283.573	41
283.631	-119
283.690	-1108
283.749	-682
283.808	53
283.866	-10
283.925	-1349
283.984	389
284.043	-1028
284.101	-248
284.160	-1202
284.219	72
284.277	260
284.336	-595
284.395	2669
284.453	1639
284.512	-645
284.570	363
284.629	142
284.688	272
284.746	-1432
284.805	272
284.863	143
284.922	584
284.981	612
285.039	1809
285.098	3612
285.156	12856
285.215	48087
285.273	41564
285.332	13656
285.390	5987
285.449	3183
285.507	1782
285.566	654
285.624	1193
285.683	131
285.741	249
285.799	-178
285.858	116
285.916	-601
285.975	-179
286.033	-987
286.091	70
286.150	-1033
286.208	-46
286.267	-10
286.325	-636
286.383	-330
286.442	-730
286.500	-1248
286.558	-836
286.616	-1162
286.675	-598
286.733	-725
286.791	-830
286.850	195
286.908	-576
286.966	473
287.024	-411
287.083	-1335
287.141	-935
287.199	-244
287.257	615
287.315	-435
287.374	-437
287.432	322
287.490	143
287.548	-386
287.606	-487
287.664	262
287.723	694
287.781	536
287.839	-24
287.897	156
287.955	1748
288.013	2309
288.071	6434
288.129	32655
288.187	83115
288.245	34343
288.303	10596
288.361	4861
288.419	2860
288.477	1349
288.535	1208
288.593	278
288.651	731
288.709	-23
288.767	112
288.825	-1235
288.883	-759
288.941	-589
288.999	-712
289.057	37
289.115	-1228
289.173	-1132
289.231	-478
289.289	-697
289.346	-568
289.404	-1263
289.462	-488
289.520	-521
289.578	-991
289.636	-844
289.694	-331
289.751	-529
289.809	-1019
289.867	-790
289.925	28
289.983	-675
290.040	-652
290.098	-1178
290.156	-1432
290.214	-835
290.271	-791
290.329	-1016
290.387	-1531
290.444	-1828
290.502	-593
290.560	-1369
290.617	-922
290.675	-1599
290.733	-831
290.790	-709
290.848	-898
290.906	-512
290.963	-236
291.021	-864
291.078	-669
291.136	-1039
291.194	-81
291.251	366
291.309	170
291.366	-1196
291.424	-1363
291.481	-1519
291.539	-1105
291.596	-1122
291.654	-1256
291.711	-941
291.769	-371
291.826	-512
291.884	-1088
291.941	-1376
291.999	-240
292.056	-1313
292.114	-1293
292.171	-1337
292.228	-369
292.286	-1046
292.343	25
292.401	-121
292.458	-599
292.515	-851
292.573	-479
292.630	-895
292.687	-171
292.745	-1469
292.802	-815
292.859	851
292.917	2857
292.974	486
293.031	-1101
293.089	-938
293.146	-547
293.203	-1387
293.260	-862
293.318	-955
293.375	-269
293.432	-1065
293.489	-1026
293.546	-213
293.604	62
293.661	1606
293.718	7127
293.775	1996
293.832	876
293.889	-1016
293.947	444
294.004	-716
294.061	-152
294.118	182
294.175	1838
294.232	1955
294.289	134
294.346	-1019
294.403	-21
294.460	-482
294.517	-422
294.574	-1236
294.631	-684
294.688	-563
294.745	1379
294.802	8836
294.859	6277
294.916	1668
294.973	1450
295.030	-282
295.087	-332
295.144	-885
295.201	-182
295.258	-1524
295.315	-182
295.372	1610
295.429	4970
295.486	617
295.542	610
295.599	1933
295.656	3000
295.713	1374
295.770	3853
295.827	1029
295.883	-818
295.940	-677
295.997	-375
296.054	190
296.111	-1076
296.167	-1845
296.224	-1250
296.281	-1305
296.338	-662
296.394	-887
296.451	-878
296.508	1120
296.564	2875
296.621	2072
296.678	7364
296.734	9829
296.791	2520
296.848	125
296.904	-71
296.961	1934
297.018	5318
297.074	3013
297.131	1062
297.187	46
297.244	1588
297.301	6592
297.357	13871
297.414	3810
297.470	1244
297.527	-427
297.583	149
297.640	-665
297.696	-553
297.753	-1110
297.809	-516
297.866	-970
297.922	44
297.979	-1096
298.035	-818
298.092	-1465
298.148	2714
298.204	1834
298.261	733
298.317	2612
298.374	8118
298.430	4332
298.486	1631
298.543	798
298.599	21
298.656	-254
298.712	2372
298.768	7612
298.824	5321
298.881	1131
298.937	-140
298.993	-887
299.050	-177
299.106	-747
299.162	128
299.218	16
299.275	-912
299.331	-225
299.387	732
299.443	6994
299.500	7250
299.556	1456
299.612	-154
299.668	-491
299.724	-211
299.780	-1128
299.837	-799
299.893	253
299.949	3778
300.005	3377
300.061	4413
300.117	9607
300.173	3880
300.229	94
300.285	1594
300.341	717
300.397	427
300.453	-661
300.510	-1107
300.566	-1051
300.622	-940
300.678	-260
300.734	1711
300.790	3020
300.845	6002
300.901	2167
300.957	3415
301.013	1918
301.069	730
301.125	156
301.181	-242
301.237	-584
301.293	-936
301.349	-495
301.405	-979
301.461	-879
301.516	-901
301.572	-721
301.628	109
301.684	-553
301.740	1252
301.796	2138
301.851	1307
301.907	1581
301.963	3304
302.019	7282
302.074	24786
302.130	23014
302.186	9755
302.242	2482
302.297	1789
302.353	803
302.409	2686
302.464	1066
302.520	1158
302.576	6083
302.631	7311
302.687	2679
302.743	506
302.798	-236
302.854	-394
302.910	-256
302.965	109
303.021	899
303.076	1028
303.132	437
303.187	998
303.243	-305
303.299	-197
303.354	-928
303.410	-101
303.465	-948
303.521	-1193
303.576	-778
303.632	-56
303.687	1453
303.743	7201
303.798	5441
303.853	1263
303.909	51
303.964	-255
304.020	283
304.075	795
304.130	918
304.186	2489
304.241	2321
304.297	996
304.352	-356
304.358	-300
304.407	157
304.449	-558
304.463	-800
304.518	173
304.539	-189
304.573	-767
304.629	-670
304.630	-653
304.684	163
304.720	3500
304.739	5155
304.794	7959
304.811	6728
304.850	3753
304.902	668
304.905	475
304.960	1012
304.992	532
305.015	124
305.071	57
305.083	-13
305.126	-185
305.173	-309
305.181	-333
305.236	-485
305.264	-167
305.292	174
305.347	-788
305.354	-645
305.402	233
305.445	-636
305.457	-882
305.512	1222
305.535	961
305.567	622
305.622	368
305.626	486
305.678	2969
305.716	5549
305.733	6298
305.788	7917
305.807	6700
305.843	5025
305.897	7406
305.898	7423
305.953	7455
305.988	4352
306.008	2840
306.063	1272
306.078	1094
306.118	529
306.168	464
306.173	468
306.228	327
306.259	378
306.283	434
306.338	202
306.349	205
306.393	298
306.440	794
306.448	866
306.503	629
306.530	539
306.558	781
306.613	2691
306.620	2887
306.668	4174
306.711	6165
306.723	6346
306.778	4634
306.801	3328
306.833	2033
306.888	417
306.892	381
306.943	307
306.982	309
306.997	255
307.052	363
307.072	236
307.107	314
307.162	1260
307.163	1264
307.217	1637
307.253	2013
307.272	2140
307.327	2136
307.343	1935
307.381	1569
307.434	1173
307.436	1218
307.491	3478
307.524	5287
307.546	5672
307.600	5666
307.614	4937
307.655	2686
307.704	1447
307.710	1447
307.765	1670
307.795	2525
307.819	3313
307.874	5335
307.885	5401
307.929	4991
307.975	4178
307.984	4366
308.038	6812
308.065	8796
308.093	16397
308.148	36144
308.156	40740
308.202	61402
308.246	71618
308.257	69353
308.312	37266
308.336	24688
308.366	17507
308.421	9743
308.426	9175
308.475	5964
308.517	3969
308.530	3566
308.585	3059
308.607	2556
308.639	2091
308.694	2506
308.697	2543
308.748	4834
308.787	7287
308.803	7337
308.857	5281
308.877	4533
308.912	4480
308.967	4424
308.967	4435
309.021	6585
309.058	8257
309.076	11170
309.130	21471
309.148	25552
309.185	48081
309.238	89102
309.239	89328
309.293	93225
309.328	82161
309.348	70355
309.402	32919
309.418	23717
309.457	16100
309.508	10090
309.511	9864
309.566	7053
309.598	6026
309.620	6141
309.674	7039
309.688	7282
309.729	6616
309.778	5544
309.783	5488
309.837	4206
309.868	3806
309.892	4876
309.946	7873
309.959	8714
310.001	10516
310.049	12017
310.055	11582
310.109	6651
310.139	3799
310.163	3102
310.218	2246
310.229	2011
310.272	1557
310.319	1756
310.326	1741
310.381	1080
310.409	934
310.435	837
310.489	465
310.499	401
310.543	796
310.589	1180
310.598	1139
310.652	957
310.679	815
310.706	733
310.760	553
310.769	539
310.814	402
310.859	113
310.868	167
310.923	570
310.948	789
310.977	875
311.031	792
311.038	821
311.085	1055
311.128	956
311.139	950
311.193	1195
311.218	1202
311.247	1229
311.301	1401
311.308	1400
311.356	961
311.398	641
311.410	735
311.464	1050
311.488	1231
311.518	1224
311.572	1107
311.578	1100
311.626	1264
311.668	1326
311.680	1319
311.734	1233
311.758	1225
311.788	1320
311.842	1476
311.847	1481
311.896	1719
311.937	1984
311.950	2061
312.004	2326
312.027	2441
312.058	1938
312.112	1019
312.117	926
312.165	1283
312.207	1585
312.297	2026
312.386	1136
312.476	320
312.566	2857
312.656	958
312.745	1662
312.835	1185
312.925	1752
313.015	1388
313.104	1473
313.194	1010
313.284	1352
313.374	821
313.463	501
313.553	707
313.643	297
313.732	1395
313.822	1067
313.912	995
314.001	1866
314.091	1475
314.180	1617
314.270	1374
314.360	1969
314.449	919
314.539	802
314.628	878
314.718	1515
314.808	1368
314.897	1507
314.987	992
315.076	1335
315.166	1388
315.255	1471
315.345	2034
315.434	1546
315.524	1535
315.613	1023
315.703	1606
315.792	1411
315.881	1248
315.971	1088
316.060	1720
316.150	2893
316.239	2710
316.328	1321
316.418	1188
316.507	985
316.597	943
316.686	883
316.775	1078
316.865	3628
316.954	-5
317.043	-186
317.133	551
317.222	76
317.311	893
317.400	-577
317.490	1676
317.579	968
317.668	390
317.757	949
317.847	1555
317.936	2489
318.025	3145
318.114	1158
318.203	1248
318.293	4430
318.382	6143
318.471	4958
318.560	6598
318.649	11370
318.738	1491
318.828	1620
318.917	1354
319.006	2565
319.095	4363
319.184	15402
319.273	6345
319.362	3373
319.451	848
319.540	1144
319.629	2607
319.718	4380
319.807	1837
319.896	5868
319.985	18140
320.074	5254
320.163	973
320.252	2806
320.341	1735
320.430	729
320.519	1874
320.608	1078
320.697	1227
320.786	829
320.875	1392
320.964	1439
321.053	2313
321.142	3895
321.230	3420
321.319	3415
321.408	7140
321.497	2758
321.586	2580
321.675	3567
321.764	3691
321.852	2264
321.941	4126
322.030	2320
322.119	2135
322.207	8057
322.296	4505
322.385	2155
322.474	2878
322.562	8850
322.651	3868
322.740	3664
322.829	4832
322.917	4039
323.006	1912
323.095	2054
323.183	1285
323.272	2429
323.361	4983
323.449	14297
323.538	4033
323.626	9768
323.715	4381
323.804	2805
323.892	8261
323.981	4110
324.069	2193
324.158	4884
324.246	3137
324.335	1621
324.424	2775
324.512	636
324.601	769
324.689	2011
324.778	3408
324.866	2598
324.954	352
325.043	943
325.131	1674
325.220	4062
325.308	3325
325.397	3177
325.485	1478
325.574	430
325.662	726
325.750	695
325.839	763
325.927	980
326.015	330
326.104	1328
326.192	1277
326.280	1403
326.369	45
326.457	918
326.545	2472
326.634	639
326.722	358
326.810	622
326.898	491
326.987	936
327.075	1188
327.163	2165
327.251	242
327.340	1674
327.428	594
327.516	244
327.604	-175
327.692	686
327.781	719
327.869	1561
327.957	549
328.045	834
328.133	925
328.221	1030
328.309	583
328.397	1202
328.485	175
328.574	1271
328.662	5294
328.750	1477
328.838	1104
328.926	561
329.014	706
329.102	769
329.190	2534
329.278	1659
329.366	-31
329.454	-49
329.542	-95
329.630	459
329.718	797
329.806	487
329.893	1247
329.981	768
330.069	3100
330.157	14698
330.245	41797
330.333	18490
330.421	2083
330.509	2723
330.597	5900
330.684	3605
330.772	833
330.860	1518
330.948	2667
331.036	1434
331.123	-571
331.211	380
331.299	658
331.387	3058
331.475	3118
331.562	451
331.650	476
331.738	-151
331.825	64
331.913	834
332.001	-401
332.089	558
332.176	1487
332.264	3999
332.352	2381
332.439	1093
332.527	932
332.614	-123
332.702	534
332.790	933
332.877	1736
332.965	4414
333.052	649
333.140	1142
333.228	1328
333.315	-198
333.403	266
333.490	1660
333.578	824
333.665	2412
333.753	1149
333.840	579
333.928	806
334.015	2553
334.103	5269
334.190	16809
334.278	2259
334.365	1625
334.452	-37
334.540	-297
334.627	43
334.715	1298
334.802	2849
334.889	17113
334.977	12600
335.064	865
335.151	-672
335.239	1510
335.326	608
335.413	9825
335.501	10716
335.588	1217
335.675	-365
335.762	1658
335.850	1610
335.937	1063
336.024	3648
336.111	16534
336.199	4498
336.286	513
336.373	112
336.460	-137
336.547	530
336.635	1112
336.722	1062
336.809	263
336.896	660
336.983	4963
337.070	12835
337.157	18227
337.245	10353
337.332	5196
337.419	98
337.506	308
337.593	418
337.680	4303
337.767	11741
337.854	2733
337.941	2866
338.028	3061
338.115	-87
338.202	1924
338.289	2928
338.376	9216
338.463	2419
338.550	6693
338.637	5943
338.724	2208
338.811	2610
338.898	-62
338.984	60
339.071	260
339.158	-212
339.245	2416
339.332	1559
339.419	2018
339.506	1520
339.593	-132
339.679	261
339.766	-372
339.853	71
339.940	1679
340.027	210
340.113	305
340.200	347
340.287	-44
340.374	157
340.460	1574
340.547	-815
340.634	1660
340.720	5423
340.807	1432
340.894	594
340.980	-143
341.067	-174
341.154	1023
341.240	893
341.327	2843
341.414	592
341.500	418
341.587	703
341.674	705
341.760	1357
341.847	2197
341.933	26
342.020	-773
342.106	20
342.193	981
342.279	686
342.366	594
342.452	643
342.539	606
342.625	1523
342.712	5992
342.798	1870
342.885	679
342.971	-820
343.058	146
343.144	60
343.230	396
343.317	-283
343.403	-350
343.490	-474
343.576	284
343.662	-245
343.749	-355
343.835	383
343.921	2229
344.008	18697
344.094	38290
344.180	6169
344.267	1389
344.353	10140
344.439	7951
344.525	2547
344.612	3454
344.698	3690
344.784	1725
344.870	50
344.957	1021
345.043	1205
345.129	439
345.215	1557
345.301	711
345.387	-128
345.474	14
345.560	-753
345.646	-766
345.732	201
345.818	1141
345.904	624
345.990	144
346.076	328
346.162	723
346.249	124
346.335	-261
346.421	-128
346.507	3839
346.593	13633
346.679	1353
346.765	242
346.851	-108
346.937	-294
347.023	720
347.108	384
347.194	769
347.280	-227
347.366	156
347.452	3056
347.538	16067
347.624	12509
347.710	7775
347.796	346
347.882	88
347.967	-187
348.053	642
348.139	-64
348.225	400
348.311	-115
348.397	226
348.482	1086
348.568	-164
348.654	-699
348.740	-334
348.825	-1043
348.911	1599
348.997	8228
349.083	15840
349.168	611
349.254	-329
349.340	193
349.425	117
349.511	-177
349.597	-114
349.682	1325
349.768	9240
349.854	3798
349.939	711
350.025	-146
350.110	502
350.196	-533
350.282	-333
350.367	494
350.453	1012
350.538	149
350.624	637
350.709	105
350.795	-181
350.880	-382
350.966	850
351.051	692
351.137	654
351.222	227
351.308	1427
351.393	6328
351.479	568
351.564	-684
351.649	-124
351.735	-182
351.820	187
351.906	-524
351.991	249
352.076	4646
352.162	6600
352.247	578
352.332	28
352.418	1046
352.503	1678
352.588	11015
352.673	6811
352.759	979
352.844	536
352.929	289
353.014	581
353.100	213
353.185	1880
353.270	2068
353.355	2382
353.441	627
353.526	309
353.611	1690
353.696	398
353.781	620
353.866	10
353.952	355
354.037	1111
354.122	4181
354.207	3255
354.292	800
354.377	151
354.462	3
354.547	282
354.632	893
354.717	1668
354.802	1580
354.887	131
354.972	-179
355.057	-444
355.142	-227
355.227	602
355.312	-43
355.397	2654
355.482	6096
355.567	2044
355.652	2263
355.737	2121
355.822	10451
355.907	6492
355.991	889
356.076	-97
356.161	349
356.246	405
356.331	-54
356.416	1975
356.501	20022
356.585	16510
356.670	1066
356.755	1835
356.840	1509
356.924	14597
357.009	42920
357.094	14590
357.179	2137
357.263	858
357.348	1348
357.433	1012
357.517	817
357.602	234
357.687	481
357.771	2416
357.856	6628
357.941	3937
358.025	10987
358.110	46361
358.195	17913
358.279	1629
358.364	1253
358.448	6793
358.533	18863
358.617	11726
358.702	11771
358.787	3552
358.871	1269
358.956	1292
359.040	-876
359.125	-191
359.209	-698
359.294	2960
359.378	4979
359.462	1389
359.547	173
359.631	176
359.716	-254
359.800	-511
359.885	543
359.969	-104
360.053	1084
360.138	79
360.222	184
360.306	1453
360.391	1226
360.475	3088
360.559	6762
360.644	5530
360.728	3283
360.812	11762
360.896	27576
360.981	8859
361.065	2442
361.149	741
361.233	532
361.318	384
361.402	-97
361.486	392
361.570	489
361.654	153
361.739	2519
361.823	17961
361.907	26893
361.991	3623
362.075	304
362.159	2806
362.243	1509
362.327	553
362.411	1701
362.495	403
362.580	-167
362.664	-117
362.748	-380
362.832	-469
362.916	-554
363.000	2924
363.084	15581
363.168	29275
363.252	4916
363.336	1161
363.420	2477
363.503	12365
363.587	12521
363.671	1187
363.755	428
363.839	1523
363.923	-547
364.007	1380
364.091	1752
364.175	3414
364.258	19493
364.342	6983
364.426	2932
364.510	-109
364.594	1275
364.677	4837
364.761	23379
364.845	16345
364.929	3142
365.013	2326
365.096	1668
365.180	1617
365.264	5064
365.347	20506
365.431	7050
365.515	1221
365.598	-557
365.682	2021
365.766	288
365.849	1929
365.933	-35
366.017	1916
366.100	-225
366.184	-464
366.267	-30
366.351	-647
366.435	-472
366.518	-252
366.602	-658
366.685	223
366.769	113
366.852	1398
366.936	1773
367.019	672
367.103	32
367.186	3261
367.270	-567
367.353	-1406
367.436	-245
367.520	-230
367.603	323
367.687	-269
367.770	738
367.853	813
367.937	7436
368.020	10592
368.104	574
368.187	2073
368.270	1898
368.353	2287
368.437	1935
368.520	5314
368.603	2947
368.687	6289
368.770	12980
368.853	2258
368.936	2410
369.020	2587
369.103	281
369.186	-899
369.269	-724
369.352	1994
369.436	1065
369.519	881
369.602	-976
369.685	1319
369.768	-345
369.851	-123
369.934	-759
370.018	220
370.101	86
370.184	1880
370.267	-294
370.350	2223
370.433	3528
370.516	12781
370.599	12516
370.682	824
370.765	6101
370.848	9468
370.931	15675
371.014	6832
371.097	-805
371.180	756
371.263	-44
371.346	-672
371.429	182
371.511	-619
371.594	-94
371.677	1854
371.760	1976
371.843	2068
371.926	17655
372.009	37476
372.091	11402
372.174	6828
372.257	17928
372.340	5516
372.423	2647
372.505	4459
372.588	750
372.671	5627
372.754	15169
372.836	7340
372.919	5601
373.002	10254
373.085	1762
373.167	2418
373.250	6582
373.332	16818
373.415	26200
373.498	48221
373.580	16941
373.663	21803
373.746	29745
373.828	4465
373.911	1988
373.993	1764
374.076	9740
374.159	9523
374.241	4109
374.324	13188
374.406	9226
374.489	15577
374.571	40908
374.654	15763
374.736	7292
374.819	25382
374.901	36508
374.983	34904
375.066	5230
375.148	1453
375.231	8888
375.313	17108
375.395	4189
375.478	-238
375.560	750
375.643	497
375.725	7415
375.807	30238
375.890	22581
375.972	5430
376.054	3689
376.136	4857
376.219	1369
376.301	9741
376.383	24626
376.465	8956
376.548	2981
376.630	6677
376.712	20993
376.794	8719
376.877	140
376.959	-326
377.041	424
377.123	883
377.205	1508
377.287	-361
377.369	-130
377.452	-235
377.534	57
377.616	-179
377.698	-776
377.780	-572
377.862	-553
377.944	809
378.026	-841
378.108	-843
378.190	-381
378.272	348
378.354	-620
378.436	-224
378.518	-49
378.600	2953
378.682	2937
378.764	8424
378.846	6537
378.928	1140
379.010	576
379.091	416
379.173	153
379.255	-578
379.337	286
379.419	4394
379.501	13335
379.583	5254
379.664	900
379.746	1674
379.828	9501
379.910	11363
379.991	10140
380.073	356
380.155	393
380.237	824
380.318	-149
380.400	-458
380.482	1037
380.564	1980
380.645	1290
380.727	1982
380.809	1322
380.890	508
380.972	-1693
381.053	-391
381.135	848
381.217	2190
381.298	8867
381.380	4285
381.461	4722
381.543	20798
381.624	24437
381.706	3154
381.787	1196
381.869	1818
381.951	10626
382.032	36701
382.113	23815
382.195	1950
382.276	2819
382.358	6206
382.439	19054
382.521	24264
382.602	33140
382.684	15481
382.765	23355
382.846	20136
382.928	17544
383.009	9868
383.090	9770
383.172	29566
383.253	42626
383.334	18838
383.416	26634
383.497	13725
383.578	3186
383.659	6396
383.741	29170
383.822	67470
383.903	33865
383.984	16151
384.066	34076
384.147	18428
384.228	2840
384.309	1952
384.390	26
384.471	498
384.553	987
384.634	765
384.715	1637
384.796	-270
384.877	1010
384.958	8795
385.039	10124
385.120	2255
385.201	1740
385.282	978
385.363	1438
385.444	11
385.525	3899
385.606	16389
385.687	13077
385.768	2446
385.849	2304
385.930	19002
386.011	31939
386.092	6737
386.173	56
386.254	183
386.335	489
386.416	724
386.496	5181
386.577	8484
386.658	1639
386.739	241
386.820	1068
386.901	-136
386.981	9
387.062	-111
387.143	597
387.224	8128
387.304	8037
387.385	2370
387.466	-926
387.547	1892
387.627	161
387.708	3336
387.789	17691
387.869	21356
387.950	5742
388.031	743
388.111	-1976
388.192	2293
388.273	3910
388.353	1152
388.434	471
388.514	2787
388.595	18280
388.676	23024
388.756	9194
388.837	7202
388.917	4129
388.998	-446
389.078	112
389.159	594
389.239	-1660
389.320	2072
389.400	-809
389.480	4315
389.561	9327
389.641	5830
389.722	166
389.802	1541
389.883	4856
389.963	13048
390.043	7225
390.124	617
390.204	3248
390.284	8804
390.365	5882
390.445	10084
390.525	28369
390.605	25479
390.686	4651
390.766	1017
390.846	660
390.927	-414
391.007	-1200
391.087	327
391.167	-483
391.247	-452
391.328	1203
391.408	1194
391.488	319
391.568	-1267
391.648	240
391.728	403
391.808	1682
391.888	1416
391.969	5596
392.049	7868
392.129	3051
392.209	4469
392.289	12459
392.369	6100
392.449	2919
392.529	1565
392.609	1145
392.689	3186
392.769	11023
392.849	8644
392.929	6225
393.009	14867
393.089	9222
393.169	3644
393.248	9097
393.328	47551
393.408	47412
393.488	7931
393.568	1029
393.648	867
393.728	633
393.807	183
393.887	1081
393.967	848
394.047	1085
394.127	3358
394.206	7642
394.286	35701
394.366	129993
394.446	135788
394.525	34418
394.605	7238
394.685	5363
394.764	8251
394.844	9868
394.924	7524
395.003	1044
395.083	1396
395.163	966
395.242	813
395.322	696
395.402	-60
395.481	2680
395.561	4757
395.640	12084
395.720	9494
395.799	14484
395.879	13152
395.958	13104
396.038	54121
396.117	168523
396.197	179571
396.276	57705
396.356	16010
396.435	7805
396.515	5118
396.594	2270
396.673	4536
396.753	13489
396.832	40823
396.912	33566
396.991	8850
397.070	1510
397.150	211
397.229	1417
397.308	-416
397.388	-42
397.467	1245
397.546	-561
397.625	-2299
397.705	1566
397.784	362
397.863	-471
397.942	-416
398.022	-136
398.101	3696
398.180	10428
398.259	4836
398.338	442
398.417	-228
398.497	-529
398.576	672
398.655	-982
398.734	-606
398.813	459
398.892	4008
398.971	12523
399.050	5145
399.129	-1199
399.208	483
399.287	-137
399.366	-412
399.445	-1433
399.524	126
399.603	-1794
399.682	619
399.761	2532
399.840	14112
399.919	10394
399.998	813
400.077	-1530
400.156	-1275
400.235	1095
400.313	117
400.392	-1442
400.471	4570
400.550	6661
400.629	425
400.708	251
400.786	-287
400.865	1785
400.944	1533
401.023	1406
401.102	-532
401.180	-642
401.259	-180
401.338	-214
401.416	91
401.495	-662
401.574	567
401.652	-1569
401.731	906
401.810	-1294
401.888	-422
401.967	-1688
402.046	-454
402.124	343
402.203	-818
402.281	30
402.360	-496
402.438	2161
402.517	781
402.596	22
402.674	-387
402.753	-847
402.831	-692
402.910	397
402.988	3305
403.066	12336
403.145	8312
403.223	4852
403.302	10142
403.380	8618
403.459	7081
403.537	2247
403.615	56
403.694	-1160
403.772	183
403.850	151
403.929	-89
404.007	-620
404.085	1756
404.164	55
404.242	968
404.320	8340
404.398	25925
404.477	26010
404.555	31047
404.633	28478
404.711	19783
404.789	11656
404.868	1698
404.946	-741
405.024	23
405.102	-1162
405.180	-570
405.258	-1639
405.336	-113
405.415	-1781
405.493	823
405.571	991
405.649	-590
405.727	-1663
405.805	716
405.883	212
405.961	-535
406.039	-154
406.117	-1257
406.195	568
406.273	5214
406.351	20495
406.429	12944
406.507	625
406.585	-505
406.663	76
406.740	-412
406.818	-1236
406.896	-868
406.974	80
407.052	996
407.130	11747
407.208	16181
407.285	2632
407.363	-1302
407.441	-542
407.519	-1224
407.596	-98
407.674	1205
407.752	3362
407.830	4166
407.907	921
407.985	-1451
408.063	-422
408.141	-977
408.218	-517
408.296	-281
408.373	-716
408.451	-96
408.529	-351
408.606	-511
408.684	-1002
408.762	-617
408.839	-2019
408.917	-1034
408.994	-1106
409.072	-1102
409.149	-1439
409.227	-263
409.304	-426
409.382	-790
409.459	-1148
409.537	-445
409.614	-410
409.692	-1276
409.769	-1394
409.846	-901
409.924	-140
410.001	-1458
410.079	-829
410.156	140
410.233	-206
410.311	-920
410.388	-704
410.465	-113
410.543	-1266
410.620	-325
410.697	323
410.775	-204
410.852	-2263
410.929	672
411.006	182
411.083	-538
411.161	447
411.238	1650
411.315	-1384
411.392	-789
411.469	-63
411.547	430
411.624	-2474
411.701	-763
411.778	-610
411.855	467
411.932	-1004
412.009	-538
412.086	-724
412.163	-122
412.240	-830
412.317	-304
412.394	-686
412.471	-629
412.548	-1004
412.625	-1478
412.702	-564
412.779	672
412.856	-397
412.933	-1543
413.010	-1014
413.087	187
413.164	2377
413.241	5387
413.318	-903
413.395	613
413.471	-778
413.548	-568
413.625	123
413.702	-1733
413.779	-535
413.855	-293
413.932	-1144
414.009	-1463
414.086	-614
414.162	-578
414.239	-454
414.316	3693
414.393	8953
414.469	1361
414.546	-975
414.623	-752
414.699	-368
414.776	-805
414.853	-1054
414.929	-516
415.006	-1680
415.082	-289
415.159	-1447
415.236	-238
415.312	-860
415.389	212
415.465	-737
415.542	-963
415.618	-1245
415.695	537
415.771	-1477
415.848	-633
415.924	-797
416.000	-994
416.077	-41
416.153	-1512
416.230	-2170
416.306	-770
416.383	-1243
416.459	-53
416.535	-742
416.612	-1455
416.688	-1221
416.764	-870
416.841	-2003
416.917	-963
416.993	-1209
417.069	-906
417.146	-345
417.222	236
417.298	-63
417.374	-969
417.451	-740
417.527	-459
417.603	-1108
417.679	-1274
417.755	-656
417.831	-942
417.908	-622
417.984	-1162
418.060	-1873
418.136	156
418.212	60
418.288	111
418.364	-458
418.440	-857
418.516	-296
418.592	-321
418.668	1123
418.744	1398
418.820	470
418.896	58
418.972	-1895
419.048	-1241
419.124	1436
419.200	-1275
419.276	-611
419.352	-891
419.428	-721
419.504	-1197
419.579	-988
419.655	-777
419.731	-1271
419.807	635
419.883	1316
419.959	1611
420.034	-1054
420.110	1054
420.186	3887
420.262	4254
420.337	-366
420.413	-567
420.489	-871
420.565	-434
420.640	-1323
420.716	80
420.792	-2444
420.867	463
420.943	-1150
421.019	-284
421.094	-1418
421.170	-753
421.245	-1647
421.321	-753
421.397	-1866
421.472	548
421.548	-239
421.623	207
421.699	-199
421.774	195
421.850	-1942
421.925	-269
422.001	-526
422.076	-873
422.152	-1079
422.227	85
422.302	-74
422.378	-908
422.453	-964
422.529	3595
422.604	21438
422.679	50033
422.755	23645
422.830	2260
422.905	-397
422.981	-460
423.056	-673
423.131	-776
423.207	-1378
423.282	-962
423.357	-103
423.432	-667
423.508	-203
423.583	857
423.658	435
423.733	-900
423.808	-708
423.883	194
423.959	-703
424.034	-864
424.109	-463
424.184	-1444
424.259	-1444
424.334	-1218
424.409	-1218
424.484	-827
424.559	-1562
424.634	-1106
424.709	-1359
424.784	-388
424.859	-1094
424.934	-698
425.009	1987
425.084	5762
425.159	1281
425.234	-491
425.309	-1708
425.384	820
425.459	1225
425.534	340
425.609	-2001
425.683	-1425
425.758	-757
425.833	-722
425.908	-42
425.983	760
426.058	5244
426.132	1630
426.207	-1438
426.282	1261
426.357	-656
426.431	-723
426.506	-1222
426.581	-1046
426.655	-415
426.730	-503
426.805	-1571
426.879	-137
426.954	-922
427.029	326
427.103	6062
427.178	17153
427.253	7059
427.327	227
427.402	-927
427.476	1390
427.551	-189
427.625	-442
427.700	-608
427.774	-1241
427.849	-170
427.923	-1584
427.998	-1418
428.072	-1498
428.147	99
428.221	883
428.296	2448
428.370	276
428.444	-1325
428.519	-51
428.593	193
428.667	1040
428.742	1307
428.816	1332
428.890	2877
428.965	3864
429.039	1442
429.113	1632
429.188	-472
429.262	-544
429.336	-204
429.410	1967
429.485	1036
429.559	547
429.633	-171
429.707	-225
429.781	-3
429.855	4488
429.930	5820
430.004	5486
430.078	8410
430.152	7618
430.226	3793
430.300	3148
430.374	-1062
430.448	-792
430.522	2437
430.596	9472
430.670	5810
430.744	10008
430.818	17578
430.892	3425
430.966	-560
431.040	-826
431.114	-1654
431.188	-1214
431.262	-1394
431.336	-1016
431.410	300
431.484	1296
431.557	485
431.631	-640
431.705	-980
431.779	-673
431.853	1263
431.927	-609
432.000	-1428
432.074	-232
432.148	-1741
432.222	-993
432.295	-930
432.369	-1168
432.443	-1034
432.516	7284
432.590	18150
432.664	6659
432.737	-925
432.811	-1615
432.885	-1370
432.958	-659
433.032	-1180
433.106	-1601
433.179	-1989
433.253	-1039
433.326	-1484
433.400	-973
433.473	-1297
433.547	-1554
433.620	-1265
433.694	-1270
433.767	-592
433.841	-1156
433.914	-1748
433.988	-1234
434.061	-935
434.134	-1411
434.208	-1482
434.281	-1342
434.355	-1009
434.428	-702
434.501	-1775
434.575	-1571
434.648	-1009
434.721	-1262
434.795	-2188
434.868	-912
434.941	-1783
435.014	-1233
435.088	-1536
435.161	-771
435.234	-1458
435.307	-542
435.381	-1146
435.454	-1496
435.527	-1918
435.600	-1443
435.673	-883
435.746	-1028
435.819	-616
435.892	-1408
435.966	-1530
436.039	-1379
436.112	-935
436.185	-1143
436.258	-1607
436.331	-1428
436.404	-1289
436.477	-1462
436.550	-1783
436.623	-804
436.696	-1304
436.769	-955
436.842	-2367
436.915	-1503
436.987	-919
437.060	-609
437.133	-1342
437.206	-1252
437.279	-813
437.352	-799
437.425	-2075
437.498	-1164
437.570	-36
437.643	-702
437.716	-1555
437.789	-1498
437.861	492
437.934	1464
438.007	-142
438.080	-1218
438.152	-1375
438.225	-12
438.298	10784
438.370	29525
438.443	12535
438.516	1930
438.588	-1024
438.661	-1629
438.734	-865
438.806	-188
438.879	-798
438.951	-358
439.024	137
439.096	-1470
439.169	-1033
439.241	-1234
439.314	-2555
439.386	-221
439.459	-676
439.531	-2
439.604	-570
439.676	-917
439.749	-1947
439.821	-2073
439.893	-1256
439.966	-725
440.038	-1477
440.110	-371
440.183	-1817
440.255	-1135
440.327	-633
440.400	3281
440.472	15931
440.544	10498
440.617	-117
440.689	223
440.761	351
440.833	1436
440.905	307
440.978	-1029
441.050	-1276
441.122	-786
441.194	-2045
441.266	-1082
441.338	-2249
441.411	-488
441.483	3191
441.555	5933
441.627	364
441.699	104
441.771	-1164
441.843	-749
441.915	-1742
441.987	-1041
442.059	-2088
442.131	-1040
442.203	-916
442.275	-867
442.347	-937
442.419	-1112
442.491	-520
442.563	-15
442.635	274
442.706	1182
442.778	1030
442.850	-325
442.922	-1683
442.994	-1194
443.066	-1169
443.137	-1001
443.209	-1798
443.281	-846
443.353	-561
443.425	792
443.496	1428
443.568	1226
443.640	-439
443.711	-993
443.783	-1687
443.855	-1346
443.926	-1199
443.998	-967
444.070	-655
444.141	-817
444.213	-368
444.285	263
444.356	-1047
444.428	-596
444.499	-853
444.571	-1303
444.642	-1376
444.714	-1389
444.785	-1444
444.857	-474
444.928	-84
445.000	-597
445.071	-378
445.143	376
445.214	-961
445.285	-12
445.357	1141
445.428	3130
445.500	5034
445.571	3201
445.642	467
445.714	635
445.785	2353
445.856	193
445.928	-464
445.999	-665
446.070	-1108
446.141	-163
446.213	-286
446.284	-837
446.355	-799
446.426	-721
446.497	-705
446.569	-1208
446.640	-958
446.711	-581
446.782	-1074
446.853	-279
446.924	-1189
446.995	-972
447.066	-1166
447.138	-331
447.209	-749
447.280	-1514
447.351	-1348
447.422	-1169
447.493	-1733
447.564	-101
447.635	-921
447.706	-808
447.777	-1011
447.847	-1354
447.918	-1814
447.989	34
448.060	-592
448.131	480
448.202	269
448.273	-685
448.344	-1616
448.414	-228
448.485	-1656
448.556	-739
448.627	-1825
448.698	-651
448.768	-1853
448.839	-815
448.910	-997
448.981	923
449.051	-1411
449.122	-1428
449.193	-1142
449.263	-1196
449.334	-1326
449.405	-176
449.475	-128
449.546	-136
449.616	-508
449.687	-9
449.758	-811
449.828	-432
449.899	-1204
449.969	-1508
450.040	-1057
450.110	-910
450.181	-925
450.251	-964
450.322	-1328
450.392	-601
450.463	-668
450.533	-1153
450.604	-1222
450.674	-696
450.744	-937
450.815	-1096
450.885	-1234
450.955	-743
451.026	-1760
451.096	-1809
451.166	-1146
451.237	92
451.307	1679
451.377	-87
451.447	-969
451.518	-790
451.588	-1303
451.658	-181
451.728	-871
451.799	1638
451.869	1300
451.939	-325
452.009	-1758
452.079	-1058
452.149	-909
452.219	-955
452.289	1600
452.360	925
452.430	-136
452.500	-609
452.570	-1158
452.640	844
452.710	909
452.780	1995
452.850	1050
452.920	376
452.990	-573
453.060	-904
453.129	-500
453.199	375
453.269	4033
453.339	7417
453.409	10823
453.479	10899
453.549	16660
453.619	16525
453.688	4454
453.758	256
453.828	-578
453.898	-751
453.968	-957
454.037	108
454.087	-554
454.107	-834
454.168	-1004
454.177	-1035
454.247	-1225
454.249	-1190
454.316	-586
454.330	-636
454.386	-888
454.411	-380
454.456	403
454.492	674
454.525	927
454.574	430
454.595	213
454.655	-312
454.665	-399
454.734	-997
454.736	-966
454.804	-361
454.817	125
454.873	1932
454.898	1980
454.943	2103
454.979	818
455.013	-358
455.060	-140
455.082	-14
455.141	-91
455.152	-35
455.221	1876
455.222	1978
455.291	6029
455.303	6577
455.360	8327
455.384	11904
455.430	16825
455.465	11801
455.499	7770
455.546	4338
455.569	2740
455.627	828
455.638	469
455.707	-101
455.708	-99
455.777	-1017
455.789	-961
455.846	-619
455.869	-532
455.916	-453
455.950	-453
455.985	-467
456.031	-303
456.054	-203
456.112	-163
456.124	-181
456.193	-892
456.193	-902
456.262	73
456.274	2
456.332	-309
456.355	-355
456.401	-538
456.436	-481
456.470	-468
456.516	-514
456.540	-516
456.597	-1280
456.609	-1439
456.678	-453
456.678	-455
456.747	-1189
456.759	-1078
456.817	-784
456.840	-976
456.886	-1349
456.920	-868
456.955	-326
457.001	-468
457.024	-493
457.082	-198
457.093	-158
457.162	-457
457.163	-443
457.232	-150
457.243	-262
457.301	-629
457.324	-693
457.370	-634
457.405	-229
457.439	-79
457.485	-546
457.508	-730
457.566	-653
457.577	-585
457.646	-313
457.647	-306
457.715	-293
457.727	-303
457.784	-213
457.808	-325
457.853	-575
457.889	-329
457.922	-160
457.969	101
457.991	141
458.050	-85
458.060	-85
458.129	309
458.130	306
458.198	-119
458.211	-149
458.267	-595
458.292	-603
458.336	-470
458.372	-540
458.405	-507
458.453	-552
458.474	-596
458.533	-164
458.543	-62
458.611	907
458.614	915
458.680	227
458.694	145
458.749	83
458.775	-90
458.818	-360
458.855	-206
458.887	-85
458.936	-334
458.955	-427
459.016	100
459.024	170
459.093	-215
459.097	-192
459.162	136
459.177	37
459.230	-274
459.257	-75
459.299	88
459.338	-34
459.368	-61
459.418	785
459.437	1014
459.499	181
459.505	130
459.574	493
459.579	502
459.643	139
459.659	56
459.711	76
459.740	-20
459.780	-193
459.820	234
459.849	477
459.900	-115
459.917	-279
459.981	447
459.986	479
460.054	-376
460.061	-316
460.123	484
460.141	404
460.191	559
460.222	972
460.260	947
460.302	675
460.328	744
460.382	1009
460.397	901
460.462	-191
460.465	-138
460.534	2444
460.543	2666
460.602	5146
460.623	6382
460.671	10552
460.703	14409
460.739	12029
460.783	8009
460.808	7815
460.864	2866
460.876	2127
460.944	782
460.945	763
461.013	143
461.024	80
461.081	-55
461.104	45
461.150	298
461.184	238
461.218	297
461.264	571
461.286	574
461.345	751
461.355	752
461.423	198
461.425	193
461.491	1014
461.505	1170
461.559	1956
461.585	2232
461.628	2793
461.665	3564
461.696	3709
461.745	4468
461.764	4008
461.825	1165
461.832	1119
461.901	677
461.905	693
461.969	563
461.985	472
462.037	1047
462.065	1412
462.105	1154
462.145	924
462.173	1437
462.225	2182
462.241	2151
462.305	2598
462.310	2514
462.378	1019
462.385	769
462.446	694
462.465	789
462.514	352
462.545	331
462.582	706
462.625	795
462.650	646
462.705	439
462.718	556
462.785	1236
462.786	1240
462.854	1301
462.865	1335
462.922	1534
462.945	1653
462.990	1538
463.025	1068
463.058	525
463.104	283
463.126	478
463.184	628
463.194	660
463.262	1144
463.264	1153
463.330	1202
463.344	1300
463.398	1580
463.424	1352
463.466	788
463.504	779
463.533	1037
463.583	1263
463.601	1260
463.663	1127
463.669	1168
463.737	1604
463.743	1668
463.805	3086
463.823	3449
463.873	4618
463.903	5377
463.940	4864
463.982	4311
464.008	3348
464.062	987
464.076	993
464.142	1072
464.144	1068
464.211	959
464.221	921
464.279	1302
464.301	1561
464.347	1399
464.381	1093
464.414	1232
464.461	1607
464.482	1659
464.540	1650
464.550	1541
464.617	848
464.620	819
464.685	1724
464.699	1953
464.753	2590
464.779	2821
464.820	2530
464.859	2396
464.888	2428
464.938	2259
464.956	2479
465.018	3408
465.023	3370
465.091	2695
465.098	2629
465.158	2863
465.177	2941
465.226	2626
465.257	2399
465.293	2334
465.336	2165
465.361	2708
465.416	4087
465.428	4128
465.495	4167
465.496	4182
465.563	5532
465.575	5746
465.631	5902
465.654	6097
465.698	4304
465.734	2512
465.765	2269
465.813	1953
465.833	2030
465.893	2369
465.900	2368
465.968	2346
465.972	2332
466.035	2293
466.052	2320
466.102	2426
466.131	2417
466.170	2516
466.210	2664
466.237	2787
466.290	3008
466.304	3081
466.369	3308
466.372	3314
466.439	3362
466.449	3362
466.506	3356
466.528	3335
466.573	4805
466.607	5886
466.641	7194
466.687	9035
466.708	9452
466.766	10550
466.775	9904
466.842	4904
466.845	4657
466.909	3565
466.925	3312
466.977	3525
467.004	3649
467.044	3687
467.083	3698
467.111	3966
467.163	4491
467.178	4582
467.242	4909
467.245	4881
467.312	4204
467.321	4111
467.379	4663
467.400	4854
467.446	4526
467.480	4279
467.559	3822
467.638	3100
467.717	2746
467.796	4144
467.875	3998
467.955	3722
468.034	6268
468.113	9236
468.192	11801
468.271	3259
468.350	3330
468.429	3057
468.508	3061
468.588	2471
468.667	2470
468.746	3360
468.825	2868
468.904	2407
468.983	3171
469.062	4417
469.141	5312
469.220	2165
469.299	3457
469.378	3058
469.456	5072
469.535	3993
469.614	2863
469.693	3287
469.772	4701
469.851	5707
469.930	4096
470.009	2868
470.088	3111
470.166	3715
470.245	4209
470.324	4292
470.403	4018
470.482	3386
470.560	4052
470.639	3790
470.718	4014
470.797	3374
470.875	3324
470.954	3565
471.033	4545
471.111	2265
471.190	2650
471.269	2367
471.347	3058
471.426	2408
471.505	3393
471.583	3339
471.662	2934
471.740	2580
471.819	2581
471.898	2556
471.976	2764
472.055	2920
472.133	3488
472.212	4362
472.290	4147
472.369	2623
472.447	2795
472.526	2013
472.604	3201
472.683	2796
472.761	2850
472.839	3156
472.918	2526
472.996	2009
473.075	3504
473.153	2651
473.231	1849
473.310	1810
473.388	3417
473.466	2950
473.545	3809
473.623	4303
473.701	3571
473.780	2562
473.858	1815
473.936	4793
474.014	2398
474.093	3230
474.171	3892
474.249	4895
474.327	3033
474.405	1742
474.484	2414
474.562	1574
474.640	2671
474.718	3456
474.796	2511
474.874	3550
474.952	2107
475.030	2847
475.108	2313
475.187	2514
475.265	3374
475.343	4409
475.421	4734
475.499	2016
475.577	2167
475.655	3429
475.733	6085
475.811	8464
475.889	8058
475.966	3718
476.044	3118
476.122	2639
476.200	4132
476.278	2426
476.356	2656
476.434	2979
476.512	2742
476.590	4512
476.667	2856
476.745	1801
476.823	2470
476.901	1868
476.979	1738
477.056	2073
477.134	2691
477.212	1571
477.290	1495
477.367	1622
477.445	2028
477.523	1580
477.601	1674
477.678	1416
477.756	2633
477.834	2362
477.911	1621
477.989	1951
478.066	1388
478.144	2104
478.222	3019
478.299	4717
478.377	2364
478.454	1878
478.532	1677
478.609	1327
478.687	2468
478.764	1306
478.842	1684
478.919	1780
478.997	2167
479.074	2068
479.152	1766
479.229	2618
479.307	1495
479.384	1717
479.461	1372
479.539	2187
479.616	1972
479.694	1009
479.771	2657
479.848	1978
479.926	1933
480.003	4234
480.080	1703
480.157	1916
480.235	897
480.312	2048
480.389	2637
480.467	2672
480.544	2760
480.621	1379
480.698	1944
480.775	2121
480.853	2257
480.930	686
481.007	2560
481.084	1464
481.161	2263
481.238	1853
481.315	2162
481.392	302
481.470	1499
481.547	961
481.624	1809
481.701	1218
481.778	1890
481.855	2198
481.932	3244
482.009	4052
482.086	2196
482.163	2610
482.240	3277
482.317	5307
482.393	2711
482.470	1230
482.547	1957
482.624	1539
482.701	2118
482.778	1830
482.855	1410
482.932	1700
483.009	1579
483.085	1080
483.162	2233
483.239	2068
483.316	1032
483.393	1268
483.469	1370
483.546	2034
483.623	1993
483.699	1367
483.776	977
483.853	1623
483.930	3414
484.006	6748
484.083	12438
484.160	8514
484.236	13947
484.313	9779
484.389	6531
484.466	7042
484.543	5720
484.619	6001
484.696	6436
484.772	6483
484.849	6566
484.925	5536
485.002	5831
485.078	5744
485.155	5985
485.231	5165
485.308	5780
485.384	5202
485.461	6982
485.537	9381
485.614	9386
485.690	4700
485.766	5038
485.843	5079
485.919	7016
485.995	6688
486.072	5148
486.148	4802
486.224	3984
486.301	5439
486.377	5411
486.453	4524
486.530	6534
486.606	8437
486.682	8461
486.758	8485
486.835	8976
486.911	7919
486.987	13553
487.063	11570
487.139	12866
487.215	9106
487.292	6233
487.368	5687
487.444	5414
487.520	6542
487.596	4949
487.672	6185
487.748	6162
487.824	6815
487.900	5247
487.976	5184
488.052	4792
488.128	6373
488.204	4464
488.280	4505
488.356	7076
488.432	10644
488.508	12506
488.584	3787
488.660	4371
488.736	4363
488.812	4652
488.888	5618
488.964	7748
489.039	13882
489.115	17107
489.191	9298
489.267	4943
489.343	4286
489.418	3513
489.494	3565
489.570	2603
489.646	4461
489.722	4118
489.797	4093
489.873	7559
489.949	11690
490.024	6594
490.100	3697
490.176	3564
490.251	3244
490.327	5004
490.403	3224
490.478	3474
490.554	3190
490.629	3118
490.705	3373
490.781	4118
490.856	2675
490.932	4466
491.007	4078
491.083	3150
491.158	3229
491.234	5154
491.309	8819
491.385	5968
491.460	2255
491.536	3491
491.611	2379
491.686	3858
491.762	4077
491.837	9403
491.913	13379
491.988	18498
492.063	18383
492.139	6307
492.214	3963
492.289	3155
492.365	1846
492.440	3207
492.515	2022
492.590	2842
492.666	2641
492.741	4228
492.816	4636
492.891	2365
492.967	3504
493.042	2278
493.117	2732
493.192	6149
493.267	16402
493.342	45660
493.418	43891
493.493	3579
493.568	2420
493.643	2194
493.718	2579
493.793	3903
493.868	4690
493.943	2653
494.018	2690
494.093	1941
494.168	2432
494.243	1735
494.318	1863
494.393	2245
494.468	2489
494.543	2171
494.618	2149
494.693	1375
494.768	1770
494.842	1720
494.917	1965
494.992	3053
495.067	2067
495.142	1894
495.217	1127
495.292	1834
495.366	1891
495.441	1874
495.516	3913
495.591	7075
495.665	20150
495.740	33954
495.815	8364
495.890	1966
495.964	1153
496.039	3856
496.114	1761
496.188	1931
496.263	2693
496.338	2305
496.412	2108
496.487	2692
496.561	3327
496.636	3816
496.710	2132
496.785	2024
496.860	2541
496.934	1924
497.009	2348
497.083	2530
497.158	3152
497.232	3163
497.307	4359
497.381	3092
497.455	4202
497.530	5515
497.604	3544
497.679	4397
497.753	7568
497.827	8099
497.902	6308
497.976	10489
498.050	26516
498.125	68402
498.199	46289
498.273	10341
498.348	9029
498.422	7474
498.496	6510
498.570	5913
498.645	3641
498.719	3158
498.793	5451
498.867	7238
498.941	11176
499.016	32415
499.090	60168
499.164	12187
499.238	3347
499.312	2726
499.386	3796
499.460	2548
499.534	2912
499.609	1834
499.683	4348
499.757	5657
499.831	15703
499.905	46184
499.979	25978
500.053	5198
500.127	5106
500.201	3465
500.275	2528
500.349	3005
500.422	2851
500.496	4866
500.570	12141
500.644	27259
500.718	37189
500.792	5174
500.866	3165
500.940	4017
501.013	2680
501.087	1996
501.161	4719
501.235	5917
501.309	18725
501.382	38436
501.456	22034
501.530	7275
501.603	9880
501.677	2806
501.751	693
501.825	3106
501.898	6535
501.972	14750
502.046	5769
502.119	2067
502.193	7509
502.266	14427
502.340	5114
502.413	8562
502.487	12109
502.561	5099
502.634	2281
502.708	2728
502.781	677
502.855	1976
502.928	54
503.002	558
503.075	1062
503.149	1191
503.222	1679
503.295	1923
503.369	2107
503.442	4105
503.516	15230
503.589	26306
503.662	11962
503.736	5797
503.809	12976
503.882	8869
503.956	14796
504.029	8450
504.102	2761
504.175	2938
504.249	486
504.322	1736
504.395	1373
504.468	976
504.542	1405
504.615	8
504.688	799
504.761	-404
504.834	1394
504.907	1604
504.980	2947
505.053	599
505.127	-420
505.200	4082
505.273	2008
505.346	1188
505.419	247
505.492	1458
505.565	976
505.638	1165
505.711	447
505.784	995
505.857	555
505.930	2078
506.003	-634
506.076	2551
506.149	1048
506.221	184
506.294	3452
506.367	6576
506.440	18829
506.513	5990
506.586	1866
506.659	258
506.731	963
506.804	1416
506.877	456
506.950	1371
507.022	1356
507.095	521
507.168	2201
507.241	2423
507.313	58
507.386	120
507.459	2263
507.531	1414
507.604	38
507.677	1199
507.749	-951
507.822	1883
507.894	4146
507.967	3773
508.040	2322
508.112	2757
508.185	2283
508.257	902
508.330	2802
508.402	1115
508.475	863
508.547	1803
508.620	1897
508.692	3238
508.765	1441
508.837	584
508.909	1788
508.982	1530
509.054	2171
509.127	1091
509.199	435
509.271	425
509.344	1040
509.416	788
509.488	1134
509.560	1099
509.633	1090
509.705	1848
509.777	1543
509.849	2361
509.922	926
509.994	1221
510.066	2518
510.138	1680
510.210	5883
510.283	3402
510.355	3219
510.427	2502
510.499	2481
510.571	2398
510.643	1680
510.715	4422
510.787	1324
510.859	3441
510.931	2110
511.003	2782
511.076	4004
511.148	1730
511.219	1621
511.291	4245
511.363	3467
511.435	2806
511.507	529
511.579	2257
511.651	2560
511.723	1331
511.795	1013
511.867	1963
511.939	2882
512.010	3488
512.082	2362
512.154	596
512.226	1821
512.298	4102
512.369	4497
512.441	3880
512.513	3995
512.585	1261
512.656	2618
512.728	2259
512.800	2396
512.871	2884
512.943	2490
513.015	864
513.086	2647
513.158	2345
513.230	1259
513.301	3249
513.373	3963
513.444	826
513.516	1846
513.588	1854
513.659	2242
513.731	2905
513.802	1190
513.874	6355
513.945	5954
514.016	1392
514.088	1248
514.159	1105
514.231	3713
514.302	3515
514.374	3006
514.445	1285
514.516	7086
514.588	2483
514.659	2454
514.730	3692
514.802	3214
514.873	543
514.944	3689
515.016	3014
515.087	1992
515.158	2868
515.229	4651
515.301	2980
515.372	4541
515.443	1814
515.514	968
515.585	13
515.656	1650
515.728	2846
515.799	1172
515.870	2484
515.941	2200
516.012	1093
516.083	3456
516.154	2402
516.225	4102
516.296	4055
516.367	1740
516.438	2150
516.509	2706
516.580	5383
516.651	19758
516.722	43724
516.793	12016
516.864	3015
516.935	4182
517.006	4758
517.077	7433
517.148	19549
517.219	59515
517.289	54887
517.360	18524
517.431	5833
517.502	1313
517.573	2810
517.643	2847
517.714	2849
517.785	2996
517.856	2484
517.926	4399
517.997	4473
518.068	2874
518.138	6826
518.209	11637
518.280	49069
518.350	109314
518.421	22570
518.492	4067
518.562	2849
518.633	2057
518.703	-212
518.774	3338
518.845	2857
518.915	2772
518.986	1415
519.056	3655
519.127	7483
519.197	10505
519.268	20103
519.338	8823
519.408	2392
519.479	3959
519.549	1812
519.620	2665
519.690	1722
519.760	1081
519.831	1892
519.901	695
519.971	1236
520.042	777
520.112	1508
520.182	2878
520.253	2394
520.323	888
520.393	1743
520.463	3917
520.534	316
520.604	6213
520.674	2406
520.744	1431
520.814	5905
520.885	5047
520.955	9080
521.025	22137
521.095	4200
521.165	2186
521.235	1240
521.305	596
521.375	1320
521.445	1318
521.515	552
521.585	2942
521.655	328
521.725	2165
521.795	2590
521.865	-1153
521.935	4112
522.005	1686
522.075	285
522.145	1571
522.215	1180
522.285	1512
522.355	3537
522.424	7232
522.494	3494
522.564	2667
522.634	7288
522.704	14553
522.774	2194
522.843	1825
522.913	1271
522.983	479
523.053	539
523.122	1049
523.192	2215
523.262	8860
523.331	4861
523.401	1484
523.471	488
523.540	107
523.610	-185
523.680	584
523.749	1079
523.819	1246
523.888	353
523.958	-63
524.027	875
524.097	307
524.166	-97
524.236	-636
524.305	1562
524.375	-208
524.444	-17
524.514	2138
524.583	291
524.653	243
524.722	1009
524.791	-834
524.861	2001
524.930	-524
524.999	1
525.069	2041
525.138	92
525.207	391
525.277	1199
525.346	340
525.415	1090
525.484	693
525.554	82
525.623	947
525.692	349
525.761	-30
525.830	408
525.900	-246
525.969	1268
526.038	1487
526.107	-610
526.176	3137
526.245	376
526.314	3616
526.383	2609
526.452	434
526.522	7056
526.591	7265
526.660	4971
526.729	987
526.797	3707
526.867	11829
526.935	42192
527.004	21411
527.073	5549
527.142	592
527.211	1205
527.280	1079
527.349	1366
527.418	-1048
527.487	1351
527.555	-1356
527.624	-217
527.693	-732
527.762	1036
527.831	-657
527.899	229
527.968	53
528.037	-1225
528.106	1799
528.174	2290
528.243	952
528.312	3447
528.380	1695
528.449	-446
528.518	2205
528.586	-1031
528.655	943
528.723	-109
528.792	-641
528.861	-579
528.929	-1934
528.998	575
529.066	413
529.135	158
529.203	-1192
529.272	-1089
529.340	715
529.409	412
529.477	-652
529.545	-1063
529.614	2989
529.682	-924
529.751	-50
529.819	3251
529.887	-152
529.956	-871
530.024	343
530.092	-1557
530.161	808
530.229	571
530.297	-287
530.365	431
530.434	918
530.502	-455
530.570	411
530.638	-1855
530.707	286
530.775	1905
530.843	-1036
530.911	689
530.979	168
531.047	-61
531.115	592
531.183	-309
531.252	584
531.320	-195
531.388	-1257
531.456	1322
531.524	-1631
531.592	666
531.660	2076
531.728	-993
531.796	-1543
531.864	330
531.932	-218
532.000	-851
532.067	521
532.135	1282
532.203	1778
532.271	-1113
532.339	3780
532.407	6172
532.475	1914
532.542	300
532.610	1068
532.678	1626
532.746	16580
532.814	24342
532.881	2039
532.949	431
533.017	427
533.084	-66
533.152	157
533.220	469
533.287	-1152
533.355	279
533.423	0
533.490	-357
533.558	-154
533.625	477
533.693	156
533.761	533
533.828	459
533.896	-451
533.963	3460
534.031	3655
534.098	4623
534.166	693
534.233	-1007
534.300	1749
534.368	536
534.435	-164
534.503	308
534.570	382
534.637	-415
534.705	133
534.772	375
534.840	-741
534.907	2106
534.974	1164
535.041	560
535.109	738
535.176	-78
535.243	90
535.310	-167
535.378	-1054
535.445	1136
535.512	185
535.579	801
535.646	-680
535.714	143
535.781	801
535.848	1074
535.915	1882
535.982	676
536.049	793
536.116	1856
536.183	730
536.250	672
536.317	513
536.384	906
536.451	1982
536.518	1126
536.585	-1135
536.652	3233
536.719	3355
536.786	-862
536.853	-579
536.920	3243
536.987	2811
537.053	3012
537.120	16393
537.187	7569
537.254	-931
537.321	-619
537.388	1656
537.454	-1136
537.521	-442
537.588	-427
537.654	517
537.721	78
537.788	1616
537.855	-387
537.921	415
537.988	-346
538.055	1172
538.121	-316
538.188	290
538.254	1874
538.321	2801
538.388	1935
538.454	-60
538.521	-266
538.587	603
538.654	97
538.720	-1094
538.787	-123
538.853	-20
538.920	-10
538.986	354
539.053	-664
539.119	666
539.185	163
539.252	1868
539.318	1913
539.385	2082
539.451	-437
539.517	1342
539.583	1912
539.650	4493
539.716	7541
539.782	1464
539.849	-522
539.915	821
539.981	116
540.047	661
540.114	10
540.180	1883
540.246	95
540.312	802
540.378	2427
540.444	3552
540.510	5313
540.576	9549
540.643	1180
540.709	-1085
540.775	116
540.841	420
540.907	2166
540.973	1986
541.039	1147
541.105	1389
541.171	636
541.237	-107
541.303	1878
541.369	2659
541.435	2823
541.500	2926
541.566	-174
541.632	912
541.698	263
541.764	947
541.830	-447
541.896	-628
541.961	1268
542.027	-223
542.093	435
542.159	333
542.224	292
542.290	2723
542.356	3370
542.421	3677
542.487	1492
542.553	-196
542.618	1139
542.684	-121
542.750	374
542.815	854
542.881	3193
542.947	10353
543.012	2768
543.078	190
543.143	234
543.209	1326
543.274	-118
543.340	1368
543.405	4364
543.471	3321
543.536	814
543.602	652
543.667	-636
543.732	1003
543.798	-264
543.863	174
543.928	-30
543.994	163
544.059	565
544.124	1030
544.190	445
544.255	382
544.320	275
544.386	-730
544.451	1635
544.516	1180
544.581	1826
544.646	7647
544.712	6077
544.777	1209
544.842	503
544.907	-108
544.972	-179
545.037	923
545.102	1760
545.168	822
545.233	901
545.298	1215
545.363	588
545.428	1082
545.493	5206
545.558	5575
545.623	1139
545.688	1100
545.753	862
545.818	844
545.883	2242
545.947	386
546.012	863
546.077	83
546.142	1340
546.207	-410
546.272	1131
546.337	942
546.401	853
546.466	905
546.531	-403
546.596	608
546.661	273
546.725	1514
546.790	-293
546.855	584
546.919	-1434
546.984	1334
547.049	852
547.113	499
547.178	206
547.243	1428
547.307	1107
547.372	795
547.436	66
547.501	146
547.565	763
547.630	2534
547.695	993
547.759	687
547.823	-6
547.888	929
547.952	236
548.017	1170
548.081	823
548.146	1860
548.210	796
548.274	-378
548.339	667
548.403	1204
548.468	441
548.532	136
548.596	-201
548.660	-379
548.725	1293
548.789	464
548.853	1743
548.917	88
548.982	1859
549.046	693
549.110	92
549.174	607
549.238	245
549.303	-119
549.367	1800
549.431	445
549.495	-317
549.559	-87
549.623	419
549.687	1046
549.751	702
549.815	-325
549.879	1516
549.943	-1304
550.007	1616
550.071	523
550.135	1070
550.199	-202
550.263	699
550.327	1926
550.391	978
550.455	211
550.519	231
550.582	1339
550.646	899
550.710	1546
550.774	880
550.838	209
550.901	413
550.965	896
551.029	1313
551.093	1890
551.156	2198
551.220	5337
551.284	2751
551.347	1975
551.411	7658
551.475	4918
551.538	351
551.602	861
551.666	579
551.729	-239
551.793	683
551.856	931
551.920	564
551.983	944
552.047	17
552.110	840
552.174	652
552.237	499
552.301	808
552.364	793
552.428	321
552.491	-136
552.554	1177
552.618	117
552.681	1502
552.745	88
552.808	3140
552.871	2554
552.934	1727
552.998	-350
553.061	982
553.124	651
553.187	445
553.251	929
553.314	2518
553.377	2268
553.440	8377
553.503	32863
553.567	28909
553.630	2181
553.693	303
553.756	1612
553.819	733
553.882	121
553.945	459
554.008	557
554.071	-107
554.134	-224
554.197	38
554.260	137
554.323	1592
554.386	303
554.449	-863
554.512	1177
554.575	-56
554.638	246
554.701	-294
554.764	274
554.827	181
554.889	294
554.952	304
555.015	175
555.078	25
555.141	496
555.203	-125
555.266	-591
555.329	-238
555.391	203
555.454	503
555.517	1226
555.580	688
555.642	469
555.705	-615
555.768	558
555.830	271
555.893	-118
555.955	696
556.018	128
556.080	-142
556.143	423
556.206	70
556.268	205
556.330	951
556.393	931
556.455	-172
556.518	1699
556.580	1147
556.643	499
556.705	331
556.767	-89
556.830	627
556.892	1159
556.955	1714
557.017	1113
557.079	62
557.142	533
557.204	1167
557.266	2842
557.328	1919
557.391	-902
557.453	-435
557.515	424
557.577	289
557.639	336
557.701	763
557.764	170
557.826	-168
557.888	945
557.950	137
558.012	12
558.074	861
558.136	1169
558.198	1607
558.260	763
558.322	-762
558.384	801
558.446	1164
558.508	584
558.570	1575
558.632	4181
558.694	3743
558.756	2452
558.818	6266
558.880	10424
558.942	2130
559.003	2052
559.065	436
559.127	1054
559.189	229
559.251	-117
559.312	448
559.374	2769
559.436	6379
559.498	2385
559.559	-196
559.621	153
559.683	1632
559.744	2579
559.806	3266
559.868	3819
559.929	455
559.991	1478
560.052	934
560.114	2966
560.176	1862
560.237	2094
560.299	2141
560.360	329
560.422	399
560.483	1301
560.545	-170
560.606	-130
560.667	955
560.729	-127
560.790	481
560.852	234
560.913	-116
560.974	1003
561.036	84
561.097	802
561.158	434
561.220	832
561.281	553
561.342	581
561.403	1504
561.465	2248
561.526	6395
561.587	5939
561.648	-166
561.709	564
561.771	166
561.832	661
561.893	1008
561.954	278
562.015	669
562.076	1140
562.137	876
562.198	374
562.259	1436
562.320	727
562.381	1067
562.442	2129
562.503	1342
562.564	443
562.625	702
562.686	1376
562.747	837
562.808	1162
562.869	1137
562.930	1258
562.991	521
563.051	884
563.112	438
563.173	202
563.234	579
563.294	947
563.355	437
563.416	507
563.477	529
563.537	942
563.598	999
563.659	392
563.720	756
563.780	1506
563.841	970
563.901	1143
563.962	1244
564.023	561
564.083	659
564.144	861
564.204	510
564.265	632
564.325	1650
564.386	3708
564.446	1779
564.507	878
564.567	154
564.628	550
564.688	1254
564.749	1227
564.809	931
564.869	1566
564.930	-31
564.990	1396
565.050	351
565.111	1748
565.171	1019
565.231	1248
565.292	1761
565.352	812
565.412	1371
565.472	1164
565.532	782
565.593	1354
565.653	684
565.713	1557
565.773	1102
565.833	1967
565.893	1731
565.953	778
566.013	1191
566.074	1134
566.134	3084
566.194	2901
566.254	3099
566.314	1502
566.374	868
566.434	1458
566.494	1472
566.554	796
566.614	1498
566.673	1674
566.733	2358
566.793	1782
566.853	1341
566.913	2598
566.973	2147
567.033	1716
567.092	2437
567.152	1822
567.212	1837
567.272	2777
567.331	3199
567.391	3092
567.451	3545
567.511	4273
567.570	3096
567.630	2483
567.690	2754
567.749	3050
567.809	2755
567.868	3801
567.928	4225
567.988	4945
568.047	4945
568.107	7155
568.166	10450
568.226	16407
568.285	20490
568.345	14742
568.404	12662
568.464	11362
568.523	10732
568.582	9887
568.642	12472
568.701	16534
568.761	25597
568.820	36229
568.879	30309
568.939	21973
568.998	15912
569.057	12059
569.116	10363
569.176	7784
569.235	6220
569.294	6261
569.353	4285
569.413	4291
569.472	2740
569.531	3203
569.590	2640
569.649	3279
569.708	3508
569.767	2637
569.827	2469
569.886	2314
569.945	2125
570.004	1815
570.063	1321
570.122	1734
570.181	2200
570.240	1757
570.299	2478
570.358	2111
570.417	1969
570.475	1127
570.534	2500
570.593	2593
570.652	1132
570.711	2340
570.770	762
570.829	1675
570.887	1958
570.946	1860
571.005	1068
571.064	1320
571.122	1341
571.181	1357
571.240	621
571.299	1531
571.357	456
571.416	1864
571.475	1430
571.533	1641
571.592	857
571.650	1298
571.709	29
571.768	1166
571.826	642
571.885	1483
571.943	398
572.002	1189
572.060	748
572.119	1294
572.177	1415
572.236	1511
572.294	1606
572.352	1063
572.411	58
572.469	950
572.528	890
572.586	651
572.644	1846
572.703	2022
572.761	656
572.819	408
572.877	978
572.936	901
572.994	671
573.052	690
573.110	651
573.169	937
573.227	843
573.285	1172
573.343	-230
573.401	471
573.459	1775
573.517	-42
573.576	627
573.634	1241
573.692	996
573.750	1003
573.808	1108
573.866	1524
573.924	1471
573.982	1269
574.040	728
574.098	1209
574.155	1273
574.213	846
574.271	1012
574.329	1201
574.387	1193
574.445	1067
574.503	782
574.560	1122
574.618	114
574.676	705
574.734	1244
574.792	1287
574.849	941
574.907	813
574.965	867
575.022	727
575.080	1230
575.138	705
575.195	839
575.253	480
575.311	771
575.368	1427
575.426	565
575.483	2229
575.541	674
575.598	565
575.656	776
575.713	236
575.771	1194
575.828	-8
575.886	1188
575.943	1432
576.001	543
576.058	1280
576.115	1539
576.173	1532
576.230	1639
576.287	2049
576.345	1134
576.402	505
576.459	909
576.517	1227
576.574	1019
576.631	1355
576.688	254
576.746	1361
576.803	1174
576.860	1119
576.917	2036
576.974	499
577.031	1520
577.089	1335
577.146	479
577.203	1165
577.260	1136
577.317	1683
577.374	1426
577.431	792
577.488	708
577.545	983
577.602	2531
577.659	1951
577.716	2629
577.773	2850
577.830	1921
577.886	2099
577.943	1210
578.000	1363
578.057	1478
578.114	2672
578.171	3846
578.227	5200
578.284	4616
578.341	4764
578.398	3483
578.454	2714
578.511	2234
578.568	2925
578.625	1592
578.681	1775
578.738	1014
578.794	1850
578.851	1760
578.908	1956
578.964	2025
579.021	2124
579.077	465
579.134	931
579.190	1371
579.247	2025
579.303	516
579.360	761
579.416	1538
579.473	1311
579.529	1667
579.586	1589
579.642	1628
579.698	1857
579.755	1379
579.811	2155
579.867	2559
579.924	1960
579.980	3094
580.036	4589
580.093	5878
580.149	8483
580.205	9926
580.261	7143
580.317	4918
580.374	3873
580.430	4846
580.486	3065
580.542	2672
580.598	1681
580.619	2014
580.654	2590
580.692	2152
580.710	1930
580.765	1561
580.767	1544
580.823	1911
580.838	1877
580.879	1756
580.911	1235
580.935	846
580.984	1996
580.991	2152
581.047	2221
581.057	2466
581.103	3591
581.130	3487
581.159	3361
581.203	3260
581.215	3205
581.270	3254
581.276	3230
581.326	2943
581.349	2553
581.382	1985
581.422	2108
581.438	2140
581.494	2155
581.494	2153
581.550	1598
581.567	1910
581.606	2558
581.640	2110
581.661	1819
581.713	2636
581.717	2701
581.773	2006
581.786	2092
581.829	2363
581.859	2122
581.885	1924
581.932	2239
581.940	2278
581.996	2830
582.004	2743
582.052	2256
582.077	2240
582.107	2272
582.150	2956
582.163	3144
582.219	2441
582.223	2446
582.274	2345
582.296	2343
582.330	2389
582.368	2224
582.386	2162
582.441	3197
582.441	3195
582.497	3051
582.514	3388
582.552	4124
582.587	4119
582.608	3992
582.659	3014
582.663	2939
582.719	3346
582.732	3234
582.774	3001
582.805	3062
582.830	3124
582.877	4084
582.885	4235
582.941	3827
582.950	3888
582.996	4164
583.023	4403
583.052	4967
583.095	5816
583.107	6074
583.162	7920
583.168	8053
583.218	8828
583.240	8691
583.273	7906
583.313	7221
583.328	7065
583.384	6546
583.385	6495
583.439	4998
583.458	4948
583.494	4885
583.531	4670
583.549	4706
583.603	4597
583.605	4592
583.660	4656
583.676	4710
583.715	4699
583.748	4734
583.770	4835
583.820	4796
583.825	4787
583.881	4185
583.893	4322
583.936	5159
583.965	5179
583.991	4925
584.038	5040
584.046	5107
584.101	5631
584.110	5545
584.156	4943
584.183	4839
584.211	4939
584.255	5082
584.266	5096
584.321	5817
584.328	5808
584.376	5861
584.400	6007
584.431	6181
584.472	6026
584.486	5976
584.541	6468
584.545	6448
584.596	5962
584.617	5872
584.651	6103
584.689	6316
584.706	6294
584.761	5708
584.762	5703
584.816	6778
584.834	6940
584.871	6912
584.906	6924
584.926	7057
584.978	6878
584.980	6877
585.035	7620
585.051	7732
585.090	8265
585.123	8303
585.145	8109
585.195	7793
585.200	7917
585.254	9966
585.267	10252
585.309	10662
585.340	11572
585.364	11870
585.412	10691
585.419	10504
585.473	9991
585.484	9823
585.528	10089
585.556	10150
585.583	10170
585.628	10257
585.637	10489
585.692	13386
585.700	13599
585.747	14468
585.772	14548
585.801	13373
585.845	11405
585.856	11181
585.910	11148
585.917	11046
585.965	11117
585.989	11161
586.019	11179
586.061	11165
586.074	11283
586.128	12272
586.133	12254
586.183	12132
586.205	12552
586.237	13491
586.277	13731
586.292	13703
586.346	13666
586.349	13654
586.401	14414
586.421	14342
586.455	14292
586.493	15020
586.509	15698
586.564	17883
586.565	17899
586.618	21595
586.637	22094
586.672	20024
586.709	18118
586.727	17778
586.781	17400
586.781	17447
586.835	17568
586.853	17715
586.889	17786
586.925	17983
586.944	18400
586.996	19532
586.998	19626
587.052	20788
587.068	21007
587.106	21390
587.140	21867
587.161	22194
587.212	22552
587.215	22685
587.269	23917
587.284	24370
587.323	25150
587.356	25824
587.377	26873
587.427	28961
587.431	29157
587.485	29815
587.499	30291
587.539	32275
587.571	33058
587.593	33439
587.643	34712
587.648	35146
587.702	38352
587.715	39188
587.755	41401
587.786	42794
587.810	44325
587.858	47447
587.864	48095
587.917	52916
587.930	53900
587.971	58108
588.001	61439
588.025	65031
588.073	71178
588.079	72326
588.133	81280
588.145	83305
588.187	92784
588.217	98630
588.241	105136
588.288	117331
588.295	119849
588.348	139435
588.360	143363
588.402	163585
588.431	177247
588.456	192273
588.503	221792
588.510	228215
588.564	276010
588.575	285868
588.617	343409
588.646	383808
588.671	442139
588.718	555256
588.725	584650
588.778	811744
588.789	857820
588.832	1129900
588.861	1313444
588.886	1396912
588.932	1515436
588.939	1508825
588.993	1395212
589.004	1367785
589.047	1418144
589.075	1427909
589.100	1260597
589.147	943049
589.154	915597
589.207	689060
589.218	641656
589.261	586116
589.290	549537
589.314	570425
589.361	611722
589.368	637558
589.421	845921
589.433	889971
589.475	1164881
589.504	1350376
589.528	1399457
589.576	1446300
589.582	1443002
589.635	1354189
589.647	1326217
589.689	1005424
589.718	779734
589.742	662063
589.790	425767
589.795	415283
589.849	306535
589.861	280726
589.902	240138
589.932	208784
589.955	193293
590.004	158818
590.009	157325
590.062	135643
590.075	129860
590.115	119195
590.146	110189
590.168	105799
590.218	94718
590.222	94461
590.275	86963
590.289	84649
590.328	80311
590.360	76206
590.381	74173
590.431	68342
590.435	68333
590.488	63778
590.503	62283
590.541	60792
590.574	59003
590.594	58005
590.645	54917
590.647	55045
590.700	52403
590.716	51411
590.753	49235
590.787	46884
590.806	46626
590.859	45128
590.859	45276
590.912	42921
590.930	42051
590.965	41862
591.001	41319
591.018	41013
591.071	39510
591.072	39331
591.124	38934
591.143	38611
591.177	37898
591.214	36882
591.230	37097
591.283	37384
591.285	37226
591.336	36571
591.356	36215
591.389	35919
591.427	35016
591.442	34723
591.495	33168
591.498	32908
591.547	32664
591.569	32412
591.600	32175
591.640	31408
591.653	31489
591.706	31228
591.711	31082
591.759	31151
591.782	30898
591.811	31462
591.853	32019
591.864	31893
591.917	30461
591.924	30132
591.969	30075
591.995	29818
592.022	29889
592.066	29622
592.075	29722
592.127	29591
592.137	29430
592.180	29754
592.208	29760
592.233	29580
592.279	28826
592.285	28801
592.338	27534
592.350	27121
592.390	26742
592.421	26262
592.443	26394
592.491	26293
592.495	26409
592.548	26425
592.562	26312
592.600	26049
592.633	25619
592.653	25630
592.704	25232
592.705	25375
592.775	25235
592.846	24682
592.916	24852
592.987	25169
593.058	24337
593.128	22563
593.199	21782
593.270	22315
593.341	21967
593.411	22925
593.482	22341
593.553	23022
593.623	20634
593.694	22082
593.764	21605
593.835	20956
593.906	21090
593.976	20138
594.047	20993
594.117	22621
594.188	21519
594.258	20240
594.329	19325
594.399	18617
594.470	18453
594.540	19630
594.611	18892
594.681	19119
594.751	19108
594.822	19432
594.892	19383
594.963	18495
595.033	18885
595.103	18873
595.174	18206
595.244	22899
595.314	24232
595.384	18290
595.455	17161
595.525	18481
595.595	17290
595.665	18227
595.736	16104
595.806	17573
595.876	16963
595.946	18454
596.016	16736
596.087	16833
596.157	17500
596.227	17274
596.297	16685
596.367	17818
596.437	18699
596.507	20119
596.577	22330
596.647	18546
596.717	16262
596.787	16654
596.857	16522
596.927	16998
596.997	15311
597.067	16975
597.137	20965
597.207	19486
597.277	16318
597.347	16099
597.417	16391
597.487	17292
597.557	17092
597.626	16028
597.696	16897
597.766	18600
597.836	20769
597.906	17068
597.975	15674
598.045	16284
598.115	15531
598.185	15603
598.254	15826
598.324	15798
598.394	15001
598.464	16086
598.533	14814
598.603	15869
598.672	14582
598.742	16433
598.812	15152
598.881	14612
598.951	15176
599.020	14094
599.090	13776
599.159	15183
599.229	14730
599.299	14110
599.368	13530
599.437	13901
599.507	14337
599.576	14479
599.646	17184
599.715	18929
599.785	14535
599.854	13663
599.924	15157
599.993	14484
600.062	13921
600.132	14578
600.201	14371
600.270	15153
600.340	14348
600.409	13856
600.478	13516
600.547	13696
600.617	13701
600.686	13939
600.755	13951
600.824	14038
600.894	14058
600.963	13117
601.032	12422
601.101	13129
601.170	13010
601.239	14022
601.308	14247
601.378	14179
601.447	12505
601.516	13141
601.585	14271
601.654	14017
601.723	13714
601.792	13768
601.861	14815
601.930	19539
601.999	16472
602.068	13166
602.137	14548
602.206	14147
602.275	13776
602.343	13877
602.412	14274
602.481	13010
602.550	12347
602.619	13501
602.688	13096
602.756	12418
602.825	12757
602.894	12625
602.963	11976
603.032	12010
603.100	12383
603.169	12684
603.238	11898
603.307	12435
603.375	12411
603.444	11855
603.513	11571
603.581	11989
603.650	11938
603.719	11797
603.787	11713
603.856	12115
603.924	12258
603.993	12942
604.061	11473
604.130	11681
604.198	12107
604.267	12419
604.335	12341
604.404	12057
604.472	12355
604.541	11893
604.609	11727
604.678	12298
604.746	12053
604.815	11486
604.883	12322
604.951	12403
605.020	11345
605.088	12132
605.156	10850
605.225	12064
605.293	10913
605.361	11055
605.429	11606
605.498	11099
605.566	11907
605.634	11751
605.702	11782
605.771	11632
605.839	10883
605.907	11628
605.975	11467
606.043	12238
606.111	12201
606.180	13409
606.248	18823
606.316	21135
606.384	12501
606.452	14378
606.520	13860
606.588	12126
606.656	10264
606.724	10639
606.792	10192
606.860	9177
606.928	9531
606.996	10438
607.064	9605
607.132	10105
607.200	10374
607.267	10031
607.335	10217
607.403	9858
607.471	9632
607.539	9857
607.607	10218
607.674	9446
607.742	9704
607.810	11240
607.878	10031
607.946	9413
608.013	10394
608.081	11267
608.149	11117
608.216	10547
608.284	10181
608.352	10509
608.419	9597
608.487	12898
608.555	10809
608.622	10888
608.690	10053
608.757	9842
608.825	10013
608.893	10500
608.960	14680
609.028	15664
609.095	14181
609.163	10930
609.230	10738
609.298	11424
609.365	9858
609.432	10311
609.500	10775
609.567	11592
609.635	11195
609.702	12599
609.769	11671
609.837	12900
609.904	12267
609.971	12241
610.039	15325
610.106	19893
610.173	31120
610.241	67751
610.308	112302
610.375	77795
610.442	24297
610.509	14955
610.577	12910
610.644	11748
610.711	11777
610.778	11581
610.845	11595
610.912	13117
610.980	16506
611.047	29662
611.114	18997
611.181	11296
611.248	9600
611.315	10477
611.382	9209
611.449	10070
611.516	11040
611.583	10168
611.650	10294
611.717	10300
611.784	10676
611.851	11467
611.918	12443
611.984	11857
612.051	13802
612.118	20443
612.185	39647
612.252	30271
612.319	12288
612.386	11456
612.452	10996
612.519	11779
612.586	12611
612.653	11914
612.719	10747
612.786	9822
612.853	9684
612.919	9276
612.986	10604
613.053	8289
613.120	8619
613.186	9504
613.253	11237
613.319	9375
613.386	9394
613.453	10609
613.519	11334
613.586	12366
613.652	17157
613.719	13707
613.785	13018
613.852	10403
613.918	9670
613.985	14149
614.051	20986
614.118	47724
614.184	50377
614.250	14401
614.317	9725
614.383	9127
614.449	9517
614.516	9261
614.582	10966
614.648	9552
614.715	9191
614.781	9066
614.847	10379
614.914	10928
614.980	9684
615.046	10228
615.112	10293
615.179	10459
615.245	11207
615.311	14346
615.377	23194
615.443	27171
615.509	17568
615.575	13112
615.642	11887
615.708	11719
615.774	12244
615.840	14298
615.906	16817
615.972	24528
616.038	44580
616.104	60789
616.170	65667
616.236	54636
616.302	20268
616.368	13799
616.434	12227
616.500	13453
616.565	12448
616.631	12365
616.697	11410
616.763	12625
616.829	12948
616.895	16486
616.961	16085
617.026	12520
617.092	9859
617.158	11663
617.224	10033
617.289	10755
617.355	10207
617.421	10262
617.487	11141
617.552	11240
617.618	9976
617.684	9400
617.749	11868
617.815	10036
617.880	9412
617.946	10717
618.012	10602
618.077	10772
618.143	10758
618.208	10933
618.274	11554
618.339	11042
618.405	9467
618.470	10956
618.536	10742
618.601	12086
618.667	11580
618.732	11346
618.798	11893
618.863	11275
618.928	10663
618.994	12415
619.059	13441
619.124	16811
619.190	13185
619.255	10736
619.320	10565
619.386	10495
619.451	10439
619.516	10660
619.581	10810
619.647	10871
619.712	10391
619.777	11622
619.842	11319
619.907	12434
619.972	11491
620.038	11159
620.103	10989
620.168	9746
620.233	10596
620.298	9923
620.363	10036
620.428	10724
620.493	10291
620.558	10442
620.623	10919
620.688	10669
620.753	11261
620.818	10670
620.883	10886
620.948	10269
621.013	10584
621.078	11354
621.143	9672
621.207	12148
621.272	11437
621.337	13171
621.402	12308
621.467	14528
621.532	15472
621.596	14591
621.661	12194
621.726	12812
621.791	11891
621.855	13420
621.920	12915
621.985	13722
622.049	14350
622.114	13042
622.179	13038
622.243	13963
622.308	13152
622.373	14616
622.437	13483
622.502	13432
622.566	14012
622.631	12556
622.695	14572
622.760	13609
622.824	13775
622.889	14363
622.953	14382
623.018	20201
623.082	19493
623.147	13636
623.211	13271
623.276	13722
623.340	12176
623.404	12893
623.469	12311
623.533	12871
623.597	12389
623.662	13357
623.726	11905
623.790	12446
623.854	11835
623.919	12822
623.983	12359
624.047	13239
624.111	11275
624.176	11861
624.240	13640
624.304	17401
624.368	12224
624.432	12480
624.496	12989
624.560	13924
624.625	13229
624.689	11923
624.753	11773
624.817	12352
624.881	11326
624.945	12607
625.009	12487
625.073	11912
625.137	12501
625.201	15375
625.265	14567
625.329	11941
625.393	12970
625.456	13122
625.520	11496
625.584	12352
625.648	15826
625.712	18428
625.776	35892
625.839	42946
625.903	19505
625.967	11822
626.031	18262
626.095	25680
626.158	13198
626.222	10707
626.286	11292
626.349	9950
626.413	9996
626.477	12138
626.540	11183
626.604	10988
626.668	11522
626.731	10470
626.795	10962
626.858	11837
626.922	10866
626.986	11242
627.049	8663
627.113	10790
627.176	10347
627.240	10030
627.303	10460
627.366	9734
627.430	10507
627.493	10525
627.557	9567
627.620	11463
627.684	10169
627.747	9740
627.810	8714
627.874	9784
627.937	8148
628.000	11438
628.064	10213
628.127	8901
628.190	10073
628.253	9681
628.317	10003
628.380	9916
628.443	9733
628.506	10914
628.569	8954
628.632	9219
628.696	9627
628.759	8655
628.822	8536
628.885	8369
628.948	9054
629.011	9406
629.074	8881
629.137	8107
629.200	8756
629.263	11775
629.326	8823
629.389	8994
629.452	9136
629.515	9253
629.578	8296
629.641	10484
629.704	8973
629.767	9069
629.830	9087
629.892	9305
629.955	7567
630.018	10336
630.081	8362
630.144	10897
630.207	8698
630.269	11102
630.332	9080
630.395	8668
630.458	8643
630.520	6941
630.583	8735
630.646	8808
630.708	8165
630.771	7720
630.834	8546
630.896	7462
630.959	7383
631.021	7112
631.084	7541
631.146	8841
631.209	8864
631.272	6916
631.334	7601
631.397	7561
631.459	6880
631.522	8796
631.584	7071
631.646	7816
631.709	7328
631.771	9702
631.834	8570
631.896	8165
631.958	6442
632.021	8149
632.083	6389
632.145	8553
632.208	6979
632.270	8305
632.332	6960
632.395	6504
632.457	7292
632.519	7478
632.581	8467
632.643	7003
632.706	8521
632.768	6375
632.830	8185
632.892	6953
632.954	6501
633.016	7624
633.078	6333
633.141	7177
633.203	6941
633.265	7347
633.327	7449
633.389	6145
633.451	7423
633.513	7445
633.575	7679
633.637	8062
633.698	6940
633.760	7049
633.822	7330
633.884	7384
633.946	6628
634.008	6815
634.070	8332
634.132	11664
634.193	8751
634.255	7560
634.317	6203
634.379	7661
634.441	6817
634.502	7170
634.564	5864
634.626	6400
634.687	7877
634.749	7442
634.811	6337
634.873	5456
634.934	6503
634.996	7119
635.057	6396
635.119	5562
635.181	6135
635.242	7664
635.304	5100
635.365	8375
635.427	5675
635.488	5758
635.550	5203
635.611	7248
635.673	3818
635.734	7162
635.796	5874
635.857	7447
635.918	5730
635.980	7285
636.041	4964
636.102	6462
636.164	5814
636.225	6987
636.286	4578
636.348	6304
636.409	5143
636.470	5261
636.531	5941
636.593	6934
636.654	6783
636.715	5818
636.776	5438
636.838	5362
636.899	6351
636.960	5551
637.021	5343
637.082	4333
637.143	5827
637.204	5591
637.265	5569
637.326	5829
637.387	5046
637.448	4294
637.509	5396
637.570	5431
637.631	6097
637.692	4652
637.753	5041
637.814	4697
637.875	5222
637.936	6041
637.997	4759
638.058	4905
638.119	5857
638.179	5763
638.240	4706
638.301	4955
638.362	4582
638.423	5190
638.483	6757
638.544	4086
638.605	5287
638.666	3948
638.726	5680
638.787	5683
638.848	4720
638.908	5039
638.969	4890
639.030	5560
639.090	3993
639.151	4068
639.211	5197
639.272	6198
639.332	8833
639.393	7187
639.453	4499
639.514	5368
639.574	4744
639.635	4934
639.695	4744
639.756	4534
639.816	5109
639.877	5214
639.937	6996
639.997	9005
640.058	4209
640.118	4524
640.178	4667
640.239	4967
640.299	3752
640.359	3952
640.420	4493
640.480	5264
640.540	3268
640.600	4205
640.661	4034
640.721	4514
640.781	6296
640.841	4117
640.901	4968
640.961	5453
641.021	4861
641.082	4260
641.142	5886
641.202	5712
641.262	2833
641.322	5206
641.382	3450
641.442	5158
641.502	4207
641.562	4646
641.622	3723
641.682	3859
641.742	3959
641.802	4632
641.861	5381
641.921	4378
641.981	5995
642.041	4920
642.101	6024
642.161	3985
642.221	2673
642.280	3857
642.340	3851
642.400	3206
642.460	5004
642.519	4021
642.579	3574
642.639	4922
642.698	1305
642.758	6389
642.818	4180
642.877	3848
642.937	3598
642.997	5278
643.056	7140
643.116	3797
643.175	5295
643.235	3781
643.294	3450
643.354	4029
643.414	4145
643.473	4478
643.532	3766
643.592	3563
643.651	4749
643.711	8031
643.770	9602
643.830	16604
643.889	37415
643.948	11428
644.008	4679
644.067	3275
644.126	3723
644.186	3359
644.245	4272
644.304	2262
644.363	5449
644.423	2413
644.482	4010
644.541	4333
644.600	1402
644.659	4394
644.719	2959
644.778	3816
644.837	4424
644.896	6432
644.955	9054
645.014	7863
645.073	7388
645.132	4135
645.191	3805
645.250	3532
645.309	4764
645.368	4222
645.427	5048
645.486	2498
645.545	4980
645.604	3469
645.663	3977
645.722	3759
645.781	4075
645.840	2868
645.898	3374
645.957	4910
646.016	2813
646.075	6212
646.134	7213
646.192	17445
646.251	24341
646.310	5897
646.369	3683
646.427	3915
646.486	1673
646.545	3928
646.603	3474
646.662	4021
646.721	3505
646.779	2386
646.838	1649
646.896	4543
646.955	2786
647.014	4209
647.072	2579
647.131	6153
647.189	4100
647.248	2519
647.306	3000
647.365	4242
647.423	1458
647.481	5124
647.540	1622
647.598	3050
647.657	2075
647.715	4656
647.773	1871
647.832	4841
647.890	1608
647.948	2434
648.007	3732
648.065	3294
648.123	3727
648.181	5452
648.240	6483
648.298	6732
648.356	3307
648.414	3587
648.472	3460
648.531	4018
648.589	2994
648.647	3312
648.705	3022
648.763	3296
648.821	3167
648.879	2700
648.937	2934
648.995	3632
649.053	2922
649.111	3958
649.169	4297
649.227	5211
649.285	6476
649.343	13996
649.401	10728
649.459	10784
649.516	10884
649.574	8361
649.632	20380
649.690	27568
649.748	10447
649.806	13357
649.863	22418
649.921	8944
649.979	3801
650.037	3774
650.094	1226
650.152	3568
650.210	2501
650.268	3277
650.325	3143
650.383	3164
650.440	1558
650.498	3299
650.556	2073
650.613	2161
650.671	3744
650.728	2644
650.786	2907
650.843	3391
650.901	457
650.958	2952
651.016	2517
651.073	3109
651.131	2729
651.188	1549
651.246	2211
651.303	1766
651.360	2899
651.418	1765
651.475	2120
651.532	2021
651.590	2958
651.647	1639
651.704	2138
651.762	2916
651.819	2420
651.876	1543
651.933	2404
651.990	3003
652.048	1771
652.105	2225
652.162	2822
652.219	2441
652.276	2919
652.333	2660
652.390	1248
652.448	2808
652.505	2275
652.562	3545
652.619	4529
652.676	9736
652.733	10545
652.790	2360
652.847	1190
652.904	3177
652.961	1564
653.017	1948
653.074	3282
653.131	3295
653.188	1927
653.245	3135
653.302	2317
653.359	2285
653.415	2352
653.472	2606
653.529	2655
653.586	1912
653.642	1964
653.699	3443
653.756	1520
653.813	2571
653.869	2216
653.926	1815
653.983	1493
654.039	2701
654.096	2167
654.152	2528
654.209	389
654.266	2670
654.322	1448
654.379	3327
654.435	2424
654.492	2259
654.548	3281
654.605	3748
654.661	3146
654.717	2441
654.774	2817
654.830	2484
654.887	2171
654.943	2186
655.000	2769
655.056	2699
655.112	3202
655.168	2335
655.225	2457
655.281	2869
655.337	2565
655.394	4259
655.450	2871
655.506	3611
655.562	4057
655.618	5214
655.675	1669
655.731	3175
655.787	1903
655.843	3600
655.899	1448
655.955	3166
656.011	3078
656.067	1994
656.123	3407
656.179	3439
656.235	4460
656.291	2338
656.347	3625
656.403	2644
656.459	2295
656.515	3309
656.571	1665
656.627	2572
656.683	1627
656.739	3224
656.795	1841
656.850	2619
656.906	2661
656.962	3030
657.018	760
657.074	1711
657.129	1688
657.185	3059
657.241	1919
657.297	2326
657.352	2352
657.408	1419
657.464	2737
657.519	1901
657.575	1229
657.630	1726
657.686	1896
657.742	1818
657.797	1940
657.853	1929
657.908	2881
657.964	2187
658.019	1468
658.075	2334
658.130	2312
658.186	1799
658.241	2170
658.297	1848
658.352	1571
658.407	2525
658.463	1479
658.518	1938
658.573	2142
658.629	882
658.684	2376
658.739	1909
658.795	1429
658.850	1843
658.905	1128
658.960	1865
659.016	837
659.071	1961
659.126	2320
659.181	1973
659.236	3956
659.291	3535
659.346	3018
659.401	3179
659.457	4669
659.512	8586
659.567	4393
659.622	2253
659.677	750
659.732	1361
659.787	2090
659.842	1635
659.897	1973
659.952	2407
660.007	1524
660.061	1571
660.116	896
660.171	1230
660.226	1833
660.281	2291
660.336	1184
660.391	2730
660.445	1526
660.500	2599
660.555	2380
660.610	1777
660.664	1633
660.719	2262
660.774	2307
660.828	1866
660.883	1435
660.938	2802
660.992	802
661.047	1431
661.101	1481
661.156	2237
661.211	1556
661.265	2242
661.320	1886
661.374	1684
661.429	1559
661.483	1851
661.538	891
661.592	1611
661.647	1210
661.701	2069
661.755	1661
661.810	2209
661.864	859
661.919	1736
661.973	1929
662.027	2135
662.081	992
662.136	1099
662.190	1591
662.244	2004
662.299	1438
662.353	1631
662.407	1286
662.461	1557
662.515	2396
662.569	1974
662.624	2152
662.678	1227
662.732	1278
662.786	1364
662.840	1748
662.894	1416
662.948	1255
663.002	1567
663.056	889
663.110	1547
663.164	909
663.218	2280
663.272	1933
663.326	2042
663.380	1789
663.434	2038
663.488	1430
663.542	2006
663.595	1851
663.649	1725
663.703	1404
663.757	2264
663.811	1064
663.864	1719
663.918	1685
663.972	1062
664.026	1414
664.079	1186
664.133	1314
664.187	2017
664.240	1602
664.294	1960
664.348	2019
664.401	1783
664.455	1739
664.508	1349
664.562	1728
664.615	1609
664.669	593
664.722	1803
664.776	1350
664.829	1461
664.883	1111
664.936	1769
664.990	1292
665.043	2165
665.097	1362
665.150	2828
665.203	990
665.257	1959
665.310	1453
665.363	2079
665.417	2059
665.470	1260
665.523	1821
665.576	1147
665.630	2136
665.683	1846
665.736	1810
665.789	1826
665.842	835
665.895	2357
665.949	2380
666.002	1738
666.055	1807
666.108	2373
666.161	1506
666.214	3082
666.267	2084
666.320	2000
666.373	1286
666.426	1001
666.479	2314
666.532	1895
666.585	871
666.638	1753
666.691	1085
666.744	2206
666.796	1017
666.849	1485
666.902	1748
666.955	2060
667.008	1188
667.060	1227
667.113	551
667.166	2139
667.219	1709
667.271	1755
667.324	1257
667.377	1759
667.430	1598
667.482	3492
667.535	3509
667.587	2227
667.640	1793
667.693	2221
667.745	2417
667.798	3393
667.850	1447
667.903	2195
667.955	799
668.008	2082
668.060	2351
668.113	2523
668.165	1956
668.218	2485
668.270	2084
668.322	1895
668.375	1583
668.427	2308
668.479	1179
668.532	1850
668.584	1196
668.636	1977
668.689	2215
668.741	1049
668.793	1834
668.845	992
668.898	1503
668.950	2094
669.002	1329
669.054	1670
669.106	1019
669.158	2517
669.211	1563
669.263	2272
669.315	3913
669.367	4786
669.419	2006
669.471	2775
669.523	2811
669.575	3808
669.627	3475
669.679	2215
669.731	2645
669.783	2772
669.835	3548
669.886	2951
669.938	2408
669.990	2723
670.042	2383
670.094	3994
670.146	3080
670.197	4535
670.249	5548
670.301	6740
670.353	9590
670.404	14663
670.456	21465
670.508	35229
670.560	60551
670.611	108170
670.663	194314
670.715	436568
670.766	647085
670.818	227644
670.869	47268
670.921	22915
670.972	14962
671.024	10764
671.075	6869
671.127	6911
671.178	4389
671.230	5394
671.281	4090
671.333	3674
671.384	3027
671.436	2312
671.487	3430
671.538	3383
671.590	2622
671.641	2759
671.692	2759
671.744	3443
671.795	3384
671.846	2361
671.897	2006
671.949	2024
672.000	2011
672.051	2842
672.102	2555
672.153	1820
672.204	2471
672.256	1929
672.307	2154
672.358	2365
672.409	1374
672.460	2119
672.511	960
672.562	1804
672.613	1835
672.664	1044
672.715	1695
672.766	1517
672.817	1299
672.868	1973
672.919	1846
672.970	1942
673.021	1640
673.071	1016
673.122	1425
673.173	1400
673.224	2016
673.275	1221
673.326	446
673.376	1274
673.427	995
673.478	1278
673.528	1766
673.579	1419
673.630	1534
673.680	2204
673.731	933
673.782	1142
673.832	1104
673.883	1604
673.934	388
673.984	1094
674.035	1422
674.085	1191
674.136	1432
674.186	1352
674.237	1330
674.287	1758
674.338	365
674.388	1226
674.438	1025
674.489	974
674.539	1163
674.589	1772
674.640	1295
674.690	1520
674.740	281
674.791	1068
674.841	1785
674.891	1294
674.942	1605
674.992	1461
675.042	661
675.092	1064
675.142	1277
675.193	935
675.243	-443
675.293	1484
675.343	598
675.393	1400
675.443	772
675.493	776
675.543	466
675.593	753
675.643	454
675.693	1503
675.743	720
675.793	1307
675.843	634
675.893	1593
675.943	1610
675.993	1359
676.043	378
676.093	1140
676.142	740
676.192	1803
676.242	505
676.292	670
676.341	326
676.391	235
676.441	214
676.491	677
676.540	-73
676.590	1434
676.640	491
676.689	559
676.739	857
676.789	1299
676.838	882
676.888	1021
676.937	1048
676.987	895
677.037	442
677.086	743
677.136	704
677.185	406
677.235	510
677.284	977
677.333	-290
677.383	352
677.432	-108
677.482	890
677.531	321
677.580	207
677.630	-247
677.679	1392
677.728	-49
677.778	1034
677.827	956
677.876	976
677.925	530
677.975	990
678.024	442
678.073	1201
678.122	876
678.171	229
678.220	824
678.269	1294
678.319	210
678.368	139
678.417	-53
678.466	1374
678.515	822
678.564	944
678.613	466
678.662	843
678.711	530
678.760	701
678.809	89
678.857	745
678.906	501
678.955	479
679.004	997
679.053	278
679.102	231
679.151	695
679.199	197
679.248	947
679.297	56
679.346	216
679.394	112
679.443	497
679.492	-30
679.540	804
679.589	680
679.638	1069
679.686	931
679.735	647
679.784	-203
679.832	653
679.881	425
679.929	597
679.978	233
680.026	924
680.075	123
680.123	431
680.172	193
680.220	228
680.268	208
680.317	-26
680.365	390
680.414	349
680.462	354
680.510	711
680.559	363
680.607	844
680.655	-44
680.703	263
680.752	62
680.800	291
680.848	619
680.896	396
680.945	239
680.993	42
681.041	-11
681.089	953
681.137	231
681.185	934
681.233	336
681.258	-269
681.281	-867
681.329	135
681.377	764
681.380	758
681.425	247
681.473	1172
681.502	262
681.521	-418
681.569	1269
681.617	626
681.624	563
681.665	-2
681.713	626
681.745	612
681.761	571
681.809	300
681.857	2135
681.867	1777
681.904	446
681.952	453
681.989	587
682.000	606
682.048	750
682.096	492
682.111	822
682.143	1438
682.191	539
682.233	1460
682.239	1576
682.286	1330
682.334	1467
682.354	1282
682.382	985
682.430	1643
682.476	1056
682.477	1023
682.525	1501
682.572	1260
682.598	1532
682.620	1748
682.667	1036
682.715	2575
682.720	2478
682.763	1396
682.810	785
682.841	986
682.857	1060
682.905	2035
682.952	1662
682.963	1774
683.000	2066
683.047	1585
683.085	2375
683.095	2568
683.142	2050
683.190	2374
683.206	2090
683.237	1518
683.284	2086
683.328	2224
683.332	2217
683.379	2550
683.426	1588
683.449	1774
683.473	1950
683.521	1804
683.568	2432
683.571	2424
683.615	2120
683.662	1989
683.693	1846
683.709	1727
683.757	1748
683.804	2406
683.814	2459
683.851	2617
683.898	3009
683.936	2694
683.945	2594
683.992	2350
684.039	3021
684.057	2621
684.086	1974
684.133	3089
684.179	2601
684.180	2570
684.227	3572
684.274	3190
684.300	3385
684.321	3528
684.368	2917
684.415	3635
684.422	3427
684.462	2115
684.509	3513
684.543	3289
684.556	3214
684.603	3626
684.649	3267
684.665	3216
684.696	3029
684.743	3548
684.786	3738
684.790	3741
684.837	3269
684.883	3503
684.908	3734
684.930	3924
684.977	3393
685.023	4196
685.029	4175
685.070	3975
685.117	3574
685.150	4076
685.164	4271
685.210	4380
685.257	4553
685.272	4383
685.303	3930
685.350	4087
685.393	3869
685.396	3840
685.443	4851
685.490	4051
685.514	4267
685.536	4518
685.583	4262
685.629	4537
685.636	4600
685.675	4813
685.722	4590
685.757	4626
685.768	4645
685.815	4680
685.861	4755
685.878	4692
685.908	4485
685.954	4470
686.000	4858
686.000	4860
686.047	4674
686.093	4853
686.121	4861
686.139	4895
686.185	5451
686.232	5096
686.242	5014
686.278	4490
686.324	5089
686.363	4839
686.370	4825
686.416	4341
686.463	5475
686.484	5435
686.509	5386
686.555	5289
686.601	5252
686.606	5290
686.647	5385
686.693	4754
686.727	4874
686.739	4998
686.785	4933
686.831	5774
686.848	5594
686.877	5177
686.923	4783
686.969	5400
686.969	5402
687.015	5265
687.061	5429
687.090	5951
687.107	6186
687.153	5387
687.199	5860
687.211	5721
687.245	5364
687.291	5174
687.332	5241
687.336	5277
687.382	5719
687.428	5770
687.453	5926
687.474	5884
687.520	5688
687.565	5848
687.574	5791
687.611	5747
687.657	5923
687.695	6017
687.702	6048
687.748	6484
687.794	6723
687.816	6887
687.839	6846
687.885	6541
687.931	5999
687.937	5871
687.976	5341
688.022	5714
688.058	6038
688.067	6129
688.113	5963
688.158	5633
688.179	5850
688.204	6177
688.249	5940
688.295	6554
688.300	6559
688.340	6653
688.386	7126
688.421	7233
688.431	7219
688.477	7162
688.522	6758
688.542	6719
688.567	6718
688.613	6990
688.658	7176
688.663	7115
688.703	6740
688.749	6877
688.784	6973
688.794	7020
688.839	6820
688.884	7074
688.905	7031
688.930	6855
688.975	7203
689.020	7165
689.026	7114
689.065	6946
689.110	6813
689.146	6860
689.155	6891
689.201	7427
689.246	7054
689.267	7337
689.291	7736
689.336	7942
689.381	7855
689.388	7828
689.426	7630
689.471	8056
689.509	8229
689.516	8231
689.561	8011
689.606	7195
689.630	7281
689.651	7568
689.696	7768
689.741	8135
689.750	8164
689.785	7982
689.830	7752
689.871	7352
689.875	7365
689.920	8302
689.965	8288
689.992	8277
690.010	8197
690.054	8315
690.099	8469
690.112	8347
690.144	8205
690.189	8764
690.233	8626
690.233	8638
690.278	8970
690.323	8971
690.354	9243
690.367	9524
690.412	10120
690.457	10415
690.474	10805
690.501	11357
690.546	11965
690.590	12069
690.595	12124
690.635	13193
690.680	14224
690.716	15304
690.724	15894
690.769	18353
690.813	21035
690.836	22497
690.857	25968
690.902	33745
690.946	42390
690.957	44294
690.991	62402
691.035	88548
691.077	113761
691.080	114367
691.124	115342
691.168	116139
691.198	117672
691.213	109089
691.257	84126
691.301	58580
691.318	49060
691.346	43957
691.390	34923
691.434	26207
691.439	25160
691.478	22349
691.522	19366
691.559	16606
691.567	16429
691.611	15754
691.655	14527
691.680	13951
691.699	13713
691.743	13045
691.787	12170
691.800	12032
691.831	12198
691.875	11868
691.919	12142
691.921	12112
691.964	11917
692.008	11760
692.041	11825
692.052	11842
692.096	11519
692.139	11444
692.162	11376
692.183	11328
692.227	11031
692.271	10679
692.282	10675
692.315	11102
692.359	11143
692.402	11316
692.403	11337
692.447	11275
692.490	10948
692.523	10729
692.534	10817
692.578	11473
692.622	11554
692.643	11795
692.666	11909
692.709	11745
692.753	11790
692.763	11708
692.797	11714
692.840	12167
692.884	12224
692.884	12251
692.928	12552
692.971	12442
693.004	12843
693.015	13116
693.059	13428
693.102	14401
693.124	14451
693.146	14428
693.189	14831
693.233	15154
693.245	15257
693.276	16630
693.320	18201
693.363	20034
693.365	20051
693.407	22722
693.450	25889
693.485	28033
693.493	29248
693.537	35487
693.580	41891
693.605	45769
693.624	53416
693.667	71023
693.710	89402
693.725	95844
693.753	130845
693.797	187087
693.840	244215
693.845	249962
693.883	254469
693.926	257892
693.966	262409
693.970	257427
694.013	200515
694.056	144364
694.086	105308
694.099	98964
694.142	78536
694.185	57896
694.206	47987
694.229	44620
694.272	38345
694.315	31868
694.326	30077
694.358	27874
694.401	24858
694.444	21938
694.446	21753
694.487	20898
694.530	19499
694.566	18576
694.573	18491
694.616	17647
694.659	16375
694.686	15925
694.702	15893
694.745	15417
694.787	14804
694.806	14569
694.830	14411
694.873	13890
694.916	13696
694.926	13587
694.959	13633
695.002	13482
695.044	13457
695.046	13428
695.087	13234
695.130	12701
695.166	12392
695.172	12486
695.215	12736
695.258	13198
695.286	13330
695.301	13213
695.343	13006
695.386	12709
695.406	12489
695.428	12544
695.471	12643
695.514	12941
695.526	12874
695.556	12581
695.599	12544
695.641	12137
695.646	12078
695.684	12014
695.726	11815
695.766	11916
695.769	11958
695.811	11832
695.854	11634
695.886	11692
695.896	11809
695.938	11812
695.981	11966
696.005	12095
696.023	12168
696.065	12044
696.108	12120
696.125	12066
696.150	12121
696.192	12331
696.235	12288
696.245	12298
696.277	12614
696.319	12802
696.361	13214
696.365	13204
696.404	13903
696.446	14605
696.485	15214
696.488	15216
696.530	14792
696.572	14210
696.604	13862
696.614	13853
696.656	13529
696.698	13326
696.724	13036
696.740	12997
696.783	13002
696.825	13039
696.844	12959
696.867	12938
696.909	12922
696.951	12857
696.964	12805
696.992	12567
697.034	12055
697.076	11688
697.083	11590
697.118	11937
697.160	12304
697.202	12724
697.203	12697
697.244	12179
697.286	11846
697.323	11367
697.327	11402
697.369	11532
697.411	11516
697.442	11657
697.453	11736
697.494	11659
697.536	11727
697.562	11774
697.578	11908
697.620	12099
697.661	12204
697.682	12266
697.703	12230
697.744	12085
697.786	12016
697.801	11909
697.828	12018
697.869	12248
697.911	12349
697.921	12355
697.952	12343
697.994	12250
698.035	12216
698.040	12172
698.077	12083
698.118	11969
698.160	11870
698.160	11837
698.201	11827
698.243	11819
698.279	11723
698.284	11777
698.325	12041
698.367	12264
698.399	12382
698.408	12377
698.449	12239
698.491	12061
698.518	11949
698.532	12072
698.573	12252
698.614	12511
698.638	12611
698.656	12527
698.697	12246
698.738	11967
698.757	11801
698.779	11888
698.820	11979
698.862	12095
698.877	12101
698.903	12289
698.944	12529
698.985	12764
698.996	12797
699.026	12669
699.067	12440
699.116	12135
699.235	12319
699.354	12289
699.474	12354
699.593	12022
699.713	12352
699.832	12118
699.951	12042
700.070	12716
700.190	10807
700.309	12222
700.428	12297
700.547	11335
700.667	11444
700.786	12248
700.905	11703
701.024	11786
701.143	12010
701.262	11534
701.381	11388
701.500	11485
701.619	10806
701.738	11135
701.857	11525
701.976	10829
702.095	10496
702.214	10926
702.333	11286
702.452	11817
702.571	11089
702.690	11273
702.809	10764
702.928	10573
703.047	11248
703.165	11137
703.284	10841
703.403	11380
703.522	11149
703.640	11755
703.759	11907
703.878	12688
703.997	11495
704.115	11176
704.234	10901
704.353	11136
704.471	10509
704.590	10802
704.708	10362
704.827	10690
704.946	10522
705.064	10450
705.183	10732
705.301	12478
705.420	14470
705.538	14625
705.656	12942
705.775	15482
705.893	29081
706.012	43117
706.130	13709
706.249	12825
706.367	12172
706.485	13322
706.604	11777
706.722	12314
706.840	12802
706.958	14670
707.077	12716
707.195	12702
707.313	11499
707.431	12166
707.549	10435
707.668	10335
707.786	11849
707.904	11117
708.022	11073
708.140	11786
708.258	10871
708.376	11619
708.494	11021
708.612	11636
708.730	15012
708.848	14917
708.966	12792
709.084	13328
709.202	12193
709.320	12521
709.438	12201
709.556	13664
709.674	12587
709.791	13381
709.909	11966
710.027	13455
710.145	12272
710.263	11857
710.380	11562
710.498	12477
710.616	12101
710.733	12520
710.851	11343
710.969	12687
711.086	12126
711.204	12504
711.322	11916
711.439	12177
711.557	11565
711.674	11863
711.792	11785
711.909	14774
712.027	15812
712.144	11702
712.262	11963
712.379	12291
712.497	15821
712.614	16343
712.732	13652
712.849	13426
712.966	12398
713.084	13656
713.201	12921
713.318	13427
713.436	13359
713.553	13481
713.670	13485
713.787	13612
713.905	13190
714.022	12706
714.139	11796
714.256	12748
714.373	12279
714.490	13102
714.608	13136
714.725	20268
714.842	20800
714.959	13520
715.076	11758
715.193	12121
715.310	12286
715.427	12146
715.544	11994
715.661	11629
715.778	11202
715.895	12718
716.011	11490
716.128	12425
716.245	11545
716.362	12110
716.479	11232
716.596	12164
716.713	10925
716.829	11009
716.946	11364
717.063	11011
717.180	10603
717.296	11020
717.413	11081
717.530	11355
717.646	10973
717.763	11430
717.880	10503
717.996	10817
718.113	10204
718.229	10672
718.346	10153
718.462	9991
718.579	10102
718.695	12804
718.812	12060
718.928	11995
719.045	9814
719.161	9636
719.277	9812
719.394	10734
719.510	10999
719.626	9461
719.743	11573
719.859	10127
719.975	10201
720.092	11069
720.208	15054
720.324	11128
720.440	9679
720.557	10597
720.673	10847
720.789	13250
720.905	20445
721.021	13796
721.137	9855
721.253	10064
721.369	9774
721.486	10020
721.602	12005
721.718	10125
721.834	8874
721.950	9941
722.066	8928
722.181	9340
722.297	10172
722.413	9259
722.529	9783
722.645	9937
722.761	8434
722.877	9728
722.993	8477
723.108	9402
723.224	8470
723.340	8898
723.456	8333
723.571	9102
723.687	8662
723.803	8936
723.918	8569
724.034	8848
724.150	8806
724.265	8866
724.381	10773
724.497	13985
724.612	8136
724.728	8347
724.843	7452
724.959	9414
725.074	10256
725.190	13276
725.305	8302
725.421	8730
725.536	7881
725.651	7739
725.767	8149
725.882	8110
725.997	7502
726.113	7755
726.228	8191
726.343	8788
726.459	7672
726.574	7395
726.689	7857
726.804	7242
726.920	7966
727.035	7994
727.150	7817
727.265	7805
727.380	7796
727.495	7949
727.610	7396
727.725	8385
727.841	10371
727.956	20201
728.071	17426
728.186	7532
728.301	7264
728.416	8824
728.531	7510
728.645	7543
728.760	6742
728.875	7707
728.990	7140
729.105	6403
729.220	6974
729.335	6629
729.449	6878
729.564	6584
729.679	6730
729.794	7344
729.908	6759
730.023	7741
730.138	7520
730.253	7470
730.367	6019
730.482	7276
730.596	6286
730.711	7222
730.826	7234
730.940	7297
731.055	7403
731.169	6706
731.284	6187
731.398	7218
731.513	6626
731.627	7020
731.742	6788
731.856	6084
731.970	5868
732.085	6865
732.199	6662
732.313	6327
732.428	6990
732.542	7720
732.656	7577
732.771	6640
732.885	6083
732.999	6801
733.113	6475
733.227	7636
733.342	6853
733.456	7102
733.570	6336
733.684	7011
733.798	6787
733.912	6590
734.026	4941
734.140	7052
734.254	6629
734.368	8225
734.482	9175
734.596	6198
734.710	6043
734.824	6402
734.938	6168
735.052	6555
735.166	5753
735.280	6847
735.393	5846
735.507	6319
735.621	6480
735.735	8178
735.849	6779
735.962	6104
736.076	5181
736.190	6323
736.303	6192
736.417	8151
736.531	5635
736.644	6298
736.758	6126
736.872	6247
736.985	5250
737.099	6304
737.212	5051
737.326	6050
737.439	6401
737.553	6377
737.666	6430
737.780	6078
737.893	6088
738.007	6791
738.120	6344
738.233	6189
738.347	5685
738.460	6831
738.573	5526
738.687	5975
738.800	5897
738.913	6491
739.026	5469
739.140	6407
739.253	6574
739.366	6453
739.479	4815
739.592	5779
739.705	5751
739.818	5509
739.932	5826
740.045	5955
740.158	5359
740.271	6822
740.384	6860
740.497	6656
740.610	6913
740.723	6258
740.836	5399
740.949	6524
741.062	6172
741.174	7135
741.287	5343
741.400	6566
741.513	6085
741.626	6491
741.739	5890
741.851	5819
741.964	5919
742.077	5686
742.189	6167
742.302	7611
742.415	7230
742.527	6347
742.640	5755
742.753	6159
742.865	5694
742.978	6030
743.090	5768
743.203	5951
743.316	6530
743.428	7236
743.541	5465
743.653	5753
743.766	5720
743.878	6343
743.990	6761
744.103	8409
744.215	8305
744.327	6369
744.440	6539
744.552	6631
744.664	6329
744.777	5747
744.889	5409
745.001	6149
745.113	4823
745.226	5998
745.338	6548
745.450	6282
745.562	5756
745.674	6456
745.786	5005
745.898	5909
746.010	6397
746.122	5698
746.234	5761
746.347	6805
746.459	5783
746.570	7070
746.682	7635
746.794	10615
746.906	7927
747.018	5751
747.130	6287
747.242	6857
747.354	5927
747.466	7811
747.577	5833
747.689	6744
747.801	5498
747.913	6148
748.024	5987
748.136	6613
748.248	6238
748.359	6774
748.471	6408
748.583	6608
748.694	7583
748.806	9287
748.918	6228
749.029	7262
749.141	7345
749.252	6561
749.364	6086
749.475	7589
749.587	7107
749.698	6739
749.809	6329
749.921	7319
750.032	6467
750.144	6546
750.255	6206
750.366	6174
750.478	6566
750.589	6156
750.700	5799
750.811	7584
750.923	7582
751.034	7645
751.145	8506
751.256	6892
751.367	6871
751.479	6070
751.590	5999
751.701	6826
751.812	5995
751.923	6647
752.034	6605
752.145	6850
752.256	6125
752.367	6151
752.478	6745
752.589	6776
752.700	6544
752.811	7086
752.922	6481
753.032	6547
753.143	7630
753.254	6651
753.365	7883
753.476	6817
753.586	7813
753.697	7099
753.808	6805
753.919	6763
754.029	6344
754.140	7102
754.251	7732
754.361	6533
754.472	7182
754.582	7696
754.693	7417
754.804	8049
754.914	7656
755.025	7698
755.135	7282
755.246	8250
755.356	7114
755.466	8062
755.577	7907
755.687	7791
755.798	7805
755.908	8348
756.018	7859
756.129	8063
756.239	7697
756.349	8889
756.460	8056
756.570	7554
756.680	8704
756.790	9472
756.900	8291
757.011	9447
757.121	8605
757.231	9104
757.341	8775
757.451	8742
757.561	9402
757.671	9433
757.781	9219
757.891	10639
758.001	9526
758.111	10066
758.221	10754
758.331	10250
758.441	9863
758.551	9975
758.661	10708
758.771	10643
758.880	11078
758.990	11402
759.100	11070
759.210	11465
759.320	12670
759.429	11884
759.539	12148
759.649	12672
759.758	12715
759.868	13734
759.978	12695
760.087	13717
760.197	14132
760.307	14118
760.416	14212
760.526	13826
760.635	16042
760.745	15565
760.854	15914
760.964	16102
761.073	16371
761.182	16917
761.292	17072
761.401	17919
761.511	18586
761.620	18054
761.729	19495
761.839	19789
761.948	21210
762.057	21483
762.166	21570
762.276	21925
762.385	23882
762.494	24165
762.603	25709
762.712	26438
762.822	26698
762.931	29331
763.040	28253
763.149	31138
763.258	32937
763.367	34511
763.476	36279
763.585	38068
763.694	39429
763.803	43009
763.912	45220
764.021	48505
764.130	51237
764.238	54400
764.347	59183
764.456	63773
764.565	68904
764.674	76082
764.783	82620
764.891	93300
765.000	102857
765.109	116671
765.217	131874
765.326	152781
765.435	178876
765.543	213943
765.652	255709
765.761	315791
765.869	394066
765.978	503852
766.086	635741
766.195	785377
766.303	857479
766.412	671793
766.520	604387
766.629	806547
766.737	772961
766.846	634783
766.954	502675
767.062	393892
767.171	313078
767.279	249185
767.387	200818
767.496	169784
767.604	144179
767.712	125779
767.820	112584
767.928	104436
768.037	96149
768.145	90232
768.253	85728
768.361	82758
768.469	83527
768.577	86636
768.685	89346
768.793	94925
768.901	103931
769.009	120615
769.117	142415
769.225	177959
769.333	232795
769.441	321026
769.549	461512
769.657	663949
769.765	790007
769.873	606851
769.981	697623
770.088	671254
770.196	495759
770.304	360542
770.412	269217
770.519	209315
770.627	168869
770.735	139442
770.842	117566
770.950	99953
771.058	87483
771.165	78357
771.273	69588
771.380	62810
771.488	56509
771.595	52287
771.703	47707
771.810	45890
771.918	40498
772.025	38813
772.133	35192
772.240	33772
772.348	32007
772.455	31154
772.562	28291
772.670	27186
772.777	26540
772.884	25205
772.991	23274
773.099	22768
773.206	21644
773.313	21727
773.420	19714
773.528	19334
773.635	18524
773.742	17928
773.849	17765
773.956	17726
774.063	16702
774.170	16648
774.277	16238
774.384	15363
774.491	14631
774.598	15059
774.705	14063
774.812	14573
774.919	13614
775.026	13490
775.133	12309
775.239	11791
775.346	12459
775.453	12337
775.560	12150
775.667	11796
775.773	10749
775.880	12245
775.987	11094
776.093	11325
776.200	10248
776.307	10007
776.413	10661
776.520	10112
776.627	10041
776.733	10060
776.840	8294
776.946	11412
777.053	12579
777.159	17255
777.266	12284
777.372	16862
777.478	13483
777.585	10054
777.691	8528
777.798	8351
777.904	8854
778.010	9788
778.117	8303
778.223	8200
778.329	7985
778.435	6851
778.542	8018
778.648	6794
778.754	5935
778.860	7171
778.966	7067
779.072	6762
779.178	7305
779.284	6664
779.391	7520
779.497	7530
779.603	10611
779.708	14770
779.815	30839
779.920	99917
780.026	228537
780.132	56755
780.238	13045
780.344	9301
780.450	8327
780.556	7877
780.661	6180
780.767	5953
780.873	5901
780.979	6422
781.085	4689
781.190	5882
781.296	4886
781.402	4696
781.507	4927
781.613	5450
781.719	4457
781.824	5034
781.930	4872
782.035	4545
782.141	4768
782.246	5113
782.352	4848
782.457	3819
782.563	4449
782.668	4615
782.773	4563
782.879	4409
782.984	5174
783.090	5367
783.195	4921
783.300	4147
783.405	3453
783.511	4838
783.616	5089
783.721	4138
783.826	3304
783.932	4499
784.037	4006
784.142	3542
784.247	3607
784.352	3909
784.457	3721
784.562	3848
784.667	2904
784.772	4752
784.877	3249
784.982	4126
785.087	3449
785.192	3511
785.297	3164
785.402	4005
785.507	3457
785.611	3762
785.716	2781
785.821	3868
785.926	1845
786.031	3266
786.135	3007
786.240	3903
786.345	1693
786.450	3915
786.554	2339
786.659	3358
786.763	1700
786.868	3324
786.973	3724
787.077	4090
787.182	2926
787.286	3365
787.391	2926
787.495	3175
787.600	2763
787.704	3127
787.809	3159
787.913	2507
788.017	2877
788.122	3536
788.226	2792
788.330	2696
788.435	2384
788.539	3303
788.643	2504
788.747	2227
788.852	2079
788.956	2598
789.060	3494
789.164	3152
789.268	2329
789.372	3177
789.476	1923
789.580	3048
789.684	1951
789.788	2558
789.892	2103
789.996	3388
790.100	2815
790.204	2143
790.308	2845
790.412	2552
790.516	2552
790.620	3214
790.724	2733
790.828	2572
790.931	1715
791.035	3708
791.139	2435
791.242	2555
791.346	2278
791.450	1516
791.554	1862
791.657	1994
791.761	3288
791.864	3162
791.968	2341
792.072	3188
792.175	2032
792.279	2558
792.382	2462
792.486	2655
792.589	1414
792.693	1952
792.796	1342
792.899	3392
793.003	2832
793.106	1395
793.209	2350
793.313	4074
793.416	1188
793.519	3031
793.623	2913
793.726	2864
793.829	2238
793.932	2897
794.035	1619
794.138	4143
794.242	3078
794.345	4343
794.448	7425
794.551	15486
794.654	53415
794.757	136390
794.860	34047
794.963	6815
795.066	3436
795.169	4337
795.272	2273
795.375	2948
795.477	2367
795.580	2843
795.683	1876
795.786	2248
795.889	1026
795.991	2571
796.094	2646
796.197	1709
796.300	2494
796.402	1288
796.505	1782
796.608	1331
796.710	2137
796.813	2265
796.915	1081
797.018	2304
797.120	2486
797.223	915
797.326	2543
797.428	1457
797.530	1757
797.633	2003
797.735	2511
797.838	2075
797.940	1339
798.042	1038
798.145	2044
798.247	1914
798.349	635
798.452	2766
798.554	1372
798.656	943
798.758	2360
798.860	958
798.962	2028
799.065	878
799.167	1237
799.269	4030
799.371	1598
799.473	2089
799.575	694
799.677	1198
799.779	2509
799.881	959
799.983	1673
800.085	1797
800.187	1473
800.289	1596
800.390	1890
800.492	2088
800.594	2682
800.696	1277
800.798	1107
800.899	1877
801.001	1175
801.103	1279
801.205	710
801.306	2027
801.408	736
801.509	1503
801.611	1627
801.713	2181
801.814	33
801.916	1065
802.017	1359
802.119	760
802.220	1310
802.322	127
802.423	2843
802.525	744
802.626	862
802.727	1646
802.829	1521
802.930	-308
803.031	1634
803.133	1666
803.234	545
803.335	1715
803.436	-54
803.538	1537
803.639	338
803.740	1554
803.841	975
803.942	1962
804.043	1995
804.144	243
804.245	1231
804.346	1072
804.447	-58
804.548	823
804.649	2672
804.750	1771
804.851	808
804.952	754
805.053	772
805.154	345
805.255	1827
805.355	184
805.456	1040
805.557	520
805.658	-337
805.758	1801
805.859	1238
805.960	767
806.061	985
806.161	701
806.262	296
806.362	1217
806.463	776
806.564	918
806.664	1054
806.765	1009
806.865	1343
806.966	44
807.066	494
807.166	1387
807.267	1256
807.367	800
807.468	1000
807.568	347
807.668	1712
807.769	1632
807.869	718
807.969	1028
808.069	1083
808.170	829
808.270	-277
808.370	640
808.470	864
808.570	309
808.670	-156
808.770	947
808.870	-34
808.970	990
809.070	44
809.170	351
809.271	1190
809.370	393
809.470	963
809.570	867
809.670	716
809.770	1366
809.870	927
809.970	1617
810.070	816
810.169	1409
810.269	-636
810.369	1344
810.469	240
810.568	1596
810.668	134
810.768	965
810.867	693
810.967	452
811.066	1272
811.166	897
811.265	1372
811.365	758
811.464	641
811.564	662
811.663	873
811.763	476
811.862	1346
811.962	1358
812.061	231
812.160	442
812.260	511
812.359	809
812.458	1628
812.557	3129
812.657	6794
812.756	3461
812.855	293
812.954	960
813.053	890
813.153	479
813.252	-218
813.351	895
813.450	1167
813.549	935
813.648	697
813.747	115
813.846	1176
813.945	496
814.044	303
814.143	1018
814.242	556
814.341	689
814.439	560
814.538	777
814.637	315
814.736	527
814.835	336
814.933	62
815.032	1031
815.131	1423
815.229	-66
815.328	1055
815.427	-41
815.525	1304
815.624	507
815.722	782
815.821	601
815.919	299
816.018	328
816.116	1526
816.215	629
816.313	1587
816.412	1929
816.510	601
816.609	1823
816.707	1348
816.805	1779
816.904	1326
817.002	1676
817.100	2292
817.198	2357
817.296	2066
817.395	2571
817.493	3359
817.591	2563
817.689	4901
817.787	6355
817.885	11254
817.983	17950
818.081	35755
818.179	82089
818.277	193466
818.375	215309
818.473	79132
818.571	30218
818.669	18593
818.767	14103
818.865	14450
818.963	15621
819.061	21946
819.158	34957
819.256	70844
819.354	149574
819.452	309967
819.549	267996
819.647	104991
819.745	42748
819.842	23715
819.940	15891
820.038	10796
820.135	8588
820.233	6783
820.330	5356
820.428	4493
820.525	4319
820.623	3508
820.720	1867
820.818	3087
820.915	2664
821.012	3319
821.110	1045
821.207	2820
821.304	852
821.402	1252
821.499	2733
821.596	4899
821.693	1905
821.791	1706
821.888	1274
821.985	2418
822.082	1543
822.179	3381
822.276	1474
822.373	1475
822.470	45
822.567	1746
822.664	191
822.761	1189
822.858	-177
822.955	1367
823.052	509
823.149	1005
823.246	659
823.343	851
823.440	1244
823.536	180
823.633	60
823.730	672
823.827	102
823.923	226
824.020	1886
824.117	1320
824.213	84
824.310	874
824.407	745
824.503	837
824.600	181
824.696	263
824.793	891
824.889	301
824.986	70
825.082	505
825.179	519
825.275	131
825.371	-567
825.468	1435
825.564	-564
825.660	1132
825.757	824
825.853	1193
825.949	-253
826.045	1067
826.142	-533
826.238	169
826.334	573
826.430	-933
826.526	764
826.622	240
826.718	-452
826.814	81
826.910	769
827.006	-157
827.102	-394
827.198	1225
827.294	-453
827.390	-138
827.486	531
827.582	-635
827.678	-674
827.774	1408
827.869	-598
827.965	1208
828.061	-634
828.157	740
828.252	335
828.348	-349
828.444	651
828.539	-805
828.635	62
828.731	656
828.826	-854
828.922	832
829.017	-708
829.113	182
829.208	-368
829.304	-1139
829.399	865
829.495	-773
829.590	407
829.685	-333
829.781	127
829.876	-498
829.971	-116
830.066	-507
830.162	83
830.257	-323
830.352	468
830.447	818
830.543	-36
830.638	-1291
830.733	266
830.828	-442
830.923	-110
831.018	-343
831.113	-49
831.208	-539
831.303	-701
831.398	412
831.493	-142
831.588	342
831.683	-559
831.778	-251
831.873	-699
831.967	508
832.062	-812
832.157	-789
832.252	634
832.346	582
832.441	588
832.536	340
832.631	976
832.725	988
832.820	-47
832.914	-65
833.009	-518
833.104	-218
833.198	150
833.293	-414
833.387	-355
833.482	-360
833.576	-910
833.670	706
833.765	-672
833.859	172
833.954	434
834.048	276
834.142	-26
834.237	103
834.331	-467
834.425	165
834.519	-774
834.613	733
834.708	-563
834.802	267
834.896	-670
834.990	114
835.084	-145
835.178	-72
835.272	-1204
835.366	-881
835.460	-500
835.554	-425
835.648	-161
835.742	-320
835.836	-765
835.930	-1053
836.024	-69
836.117	889
836.211	-607
836.305	536
836.399	740
836.493	-34
836.586	-168
836.680	-449
836.774	-925
836.867	672
836.961	-542
837.055	-828
837.148	-659
837.242	-11
837.335	-965
837.429	267
837.522	-559
837.616	-302
837.709	737
837.803	303
837.896	-131
837.989	-1145
838.083	28
838.176	265
838.269	-451
838.363	588
838.456	102
838.549	558
838.642	-347
838.735	1700
838.829	262
838.922	-609
839.015	-570
839.108	142
839.201	-756
839.294	302
839.387	-458
839.480	-673
839.573	157
839.666	-310
839.759	55
839.852	-549
839.945	-712
840.038	-217
840.131	-744
840.223	79
840.316	65
840.409	43
840.502	-1860
840.594	758
840.687	-1274
840.780	213
840.873	-175
840.965	-201
841.058	153
841.150	713
841.243	-420
841.336	335
841.428	-129
841.521	424
841.613	-370
841.706	301
841.798	-767
841.890	-599
841.983	-1451
842.075	143
842.167	-1054
842.260	308
842.352	239
842.444	-84
842.537	672
842.629	2502
842.721	-476
842.813	150
842.905	-1472
842.997	276
843.090	-975
843.182	51
843.274	-928
843.366	3535
843.458	4037
843.550	3805
843.642	-306
843.734	575
843.826	0
843.918	400
844.009	-49
844.101	-429
844.193	-290
844.285	-366
844.377	353
844.469	1121
844.560	1147
844.652	1698
844.744	-551
844.835	-315
844.927	-165
845.019	363
845.110	-320
845.202	-356
845.293	-529
845.385	-165
845.476	-343
845.568	-314
845.659	-594
845.751	-439
845.842	-716
845.934	127
846.025	-901
846.116	-134
846.208	-739
846.299	-672
846.390	-293
846.482	10
846.573	404
846.664	138
846.755	-317
846.846	773
846.937	-1816
847.029	307
847.120	-1082
847.211	-52
847.302	513
847.393	-996
847.484	-116
847.575	88
847.666	-356
847.757	549
847.847	-633
847.938	846
848.029	-609
848.120	-387
848.211	-489
848.302	-686
848.392	-578
848.483	78
848.574	-1357
848.664	-388
848.755	-336
848.846	396
848.936	-607
849.027	-625
849.118	-190
849.208	-877
849.299	-679
849.389	-173
849.480	-391
849.570	-90
849.661	-597
849.751	294
849.841	-426
849.932	-127
850.022	-705
850.112	27
850.203	-418
850.293	-738
850.383	-788
850.474	-578
850.564	-1060
850.654	641
850.744	-789
850.834	-776
850.924	-414
851.014	12
851.104	-511
851.194	-771
851.284	-439
851.374	-114
851.464	-607
851.554	-394
851.644	63
851.734	230
851.824	597
851.914	1395
852.004	2936
852.094	4870
852.183	396
852.273	298
852.363	18
852.452	-499
852.542	-491
852.632	426
852.721	-534
852.811	-331
852.901	-232
852.990	-616
853.080	-1064
853.169	-86
853.259	-880
853.348	166
853.438	-939
853.527	668
853.617	-1040
853.706	-482
853.795	-840
853.885	329
853.974	-105
854.063	1756
854.152	1222
854.242	437
854.331	-483
854.420	-214
854.509	-570
854.598	-369
854.687	-1362
854.777	-373
854.866	51
854.955	-189
855.044	-1150
855.133	-343
855.222	-777
855.311	-667
855.400	-1136
855.488	-121
855.577	-1473
855.666	16
855.755	361
855.844	546
855.933	470
856.021	735
856.110	-8
856.199	-1057
856.288	-382
856.376	131
856.465	-968
856.554	-333
856.642	-975
856.731	-222
856.819	-1037
856.908	-470
856.996	-626
857.085	-1243
857.173	-557
857.262	-294
857.350	-424
857.438	175
857.527	-609
857.615	-1001
857.703	-223
857.792	-64
857.880	-1083
857.968	-399
858.056	-1139
858.145	-180
858.233	-1162
858.321	-892
858.409	112
858.497	-840
858.585	-1857
858.673	83
858.761	-1229
858.849	-590
858.937	-1071
859.025	195
859.113	-690
859.201	-473
859.289	-374
859.377	-785
859.465	-482
859.552	-710
859.640	-799
859.728	452
859.816	-399
859.903	-723
859.991	-346
860.079	-1294
860.166	-900
860.254	-966
860.342	-379
860.429	-385
860.517	-1304
860.604	222
860.692	-1054
860.779	36
860.867	-1423
860.954	-467
861.042	-837
861.129	-811
861.216	-808
861.304	-1000
861.391	-840
861.478	-921
861.565	-99
861.653	299
861.740	-450
861.827	-725
861.914	-947
862.001	-632
862.089	-658
862.176	-551
862.263	-558
862.350	-496
862.437	-625
862.524	-672
862.611	-576
862.698	-181
862.785	-980
862.871	916
862.958	-962
863.045	-1315
863.132	-736
863.219	-826
863.306	-1402
863.392	-660
863.479	-1166
863.566	-420
863.652	-640
863.739	-1233
863.826	-1343
863.912	125
863.999	-1032
864.086	-1133
864.172	-745
864.259	-997
864.345	-591
864.432	-571
864.518	-1185
864.604	-385
864.691	-541
864.777	-527
864.863	-168
864.950	-658
865.036	-1149
865.122	-531
865.209	-838
865.295	-609
865.381	-239
865.467	-629
865.553	-699
865.639	-548
865.726	-420
865.812	-212
865.898	312
865.984	-339
866.070	727
866.156	1044
866.242	-139
866.328	197
866.414	-1263
866.499	-197
866.585	-1181
866.671	-841
866.757	-1436
866.843	-1220
866.928	-977
867.014	-140
867.100	-947
867.186	-1127
867.271	-231
867.357	-524
867.442	-1025
867.528	-734
867.614	-914
867.699	-266
867.785	923
867.870	214
867.956	-306
868.041	1129
868.127	19
868.212	351
868.297	970
868.383	251
868.468	-691
868.553	761
868.639	-378
868.724	1020
868.809	1007
868.894	-163
868.979	-1308
869.065	-229
869.150	-2014
869.235	-146
869.320	-1197
869.405	-752
869.490	-1151
869.575	-390
869.660	-1376
869.745	-189
869.830	-1479
869.915	-685
870.000	-1238
870.085	-802
870.169	-688
870.254	-945
870.339	-1123
870.424	-1380
870.509	-1082
870.593	6
870.678	-1161
870.763	-606
870.847	-501
870.932	-803
871.016	-454
871.101	-627
871.186	-1213
871.270	-1147
871.355	-1264
871.439	76
871.523	-1171
871.608	-823
871.692	-800
871.777	-746
871.861	-470
871.945	-1412
872.030	-1034
872.114	-1244
872.198	-1838
872.282	-659
872.367	-906
872.451	-1102
872.535	-592
872.619	-865
872.703	-644
872.787	-645
872.871	-803
872.955	-657
873.039	-891
873.123	-332
873.207	-1058
873.291	-1144
873.375	-609
873.459	-664
873.543	-1955
873.627	-724
873.711	-1686
873.794	-645
873.878	-1511
873.962	-1093
874.045	-551
874.129	-1106
874.137	-1157
874.213	-1663
874.245	-1389
874.296	-952
874.352	-1107
874.380	-1184
874.460	-832
874.464	-819
874.547	-667
874.568	-789
874.631	-1133
874.676	-1598
874.714	-1997
874.784	-644
874.798	-372
874.881	126
874.892	6
874.965	-849
874.999	-766
875.048	-647
875.107	-1083
875.131	-1248
875.215	-746
875.215	-745
875.298	-663
875.323	-867
875.381	-1337
875.430	-905
875.465	-582
875.538	-628
875.548	-646
875.631	-927
875.646	-1085
875.714	-1788
875.753	-1351
875.798	-846
875.861	-1171
875.881	-1283
875.964	-220
875.968	-236
876.047	-465
876.076	-498
876.130	-602
876.183	-1158
876.213	-1446
876.291	-674
876.296	-627
876.379	-1288
876.398	-1227
876.462	-941
876.506	-707
876.545	-542
876.613	-570
876.628	-575
876.711	-1476
876.721	-1365
876.794	-525
876.828	-871
876.877	-1308
876.935	-1181
876.960	-1149
877.043	-751
877.043	-751
877.125	-684
877.150	-611
877.208	-377
877.258	-633
877.291	-798
877.365	-796
877.374	-800
877.456	-29
877.472	-244
877.539	-1155
877.579	-842
877.622	-490
877.687	-488
877.704	-501
877.787	-486
877.794	-474
877.869	-282
877.901	-352
877.952	-570
878.008	-529
878.034	-434
878.115	-129
878.117	-122
878.199	-334
878.222	-324
878.282	-514
878.329	-823
878.364	-945
878.437	-506
878.447	-468
878.529	-1558
878.544	-1460
878.611	-781
878.651	-845
878.694	-1003
878.758	-558
878.776	-365
878.858	-590
878.865	-552
878.941	-465
878.972	-722
879.023	-1047
879.078	-1048
879.105	-1020
879.185	-526
879.187	-518
879.269	-512
879.292	-713
879.351	-1211
879.399	-1055
879.433	-852
879.506	-147
879.516	-50
879.598	-618
879.613	-576
879.680	-815
879.720	-780
879.762	-545
879.827	-1146
879.844	-1334
879.926	-1079
879.933	-1101
880.007	-1117
880.040	-1029
880.089	-702
880.147	-471
880.171	-481
880.253	-18
880.254	-21
880.335	-672
880.360	-539
880.417	164
880.467	36
880.499	-61
880.574	661
880.580	694
880.662	-710
880.680	-664
880.744	-459
880.787	-695
880.825	-845
880.893	-889
880.907	-837
880.989	-911
881.000	-810
881.070	-605
881.106	-748
881.152	-717
881.213	-275
881.233	-221
881.315	-1057
881.319	-1050
881.396	-472
881.426	-449
881.478	-683
881.532	-788
881.559	-750
881.639	-718
881.641	-719
881.722	-561
881.745	-713
881.803	-751
881.852	-546
881.885	-746
881.958	-729
881.966	-646
882.047	-364
882.064	-364
882.129	-411
882.171	42
882.210	244
882.277	-66
882.291	-138
882.372	-231
882.383	-285
882.454	-386
882.489	-419
882.535	-470
882.596	-664
882.616	-810
882.697	-1022
882.702	-1025
882.778	-179
882.808	-18
882.859	-397
882.914	-1057
882.940	-1223
883.020	-756
883.021	-748
883.102	-269
883.127	-212
883.183	-225
883.233	-269
883.264	-459
883.339	-867
883.345	-850
883.426	-487
883.445	-387
883.507	-129
883.551	-221
883.587	-434
883.657	-155
883.668	-79
883.749	-340
883.763	-315
883.830	-235
883.869	-172
883.910	-166
883.975	-132
883.991	-171
884.072	-1008
884.081	-998
884.152	-20
884.187	25
884.233	-468
884.292	-505
884.314	-522
884.394	-1092
884.398	-1096
884.475	-507
884.504	-450
884.555	-333
884.610	-244
884.636	-322
884.716	-161
884.716	-157
884.797	-213
884.821	-208
884.877	-225
884.927	-450
884.958	-472
885.033	-426
885.038	-446
885.118	-444
885.139	-592
885.199	-689
885.244	-486
885.279	-230
885.350	-14
885.359	-32
885.439	-6
885.456	-72
885.520	-526
885.561	-462
885.600	-53
885.667	140
885.680	98
885.760	-111
885.773	-132
885.840	-149
885.878	-39
885.920	241
885.984	188
886.000	11
886.080	-349
886.089	-433
886.160	-508
886.195	-430
886.240	-318
886.300	-320
886.320	-378
886.400	-271
886.406	-292
886.480	-747
886.511	-776
886.560	-744
886.616	-1067
886.640	-986
886.720	-212
886.722	-201
886.800	-313
886.827	-340
886.879	-247
886.932	-178
886.959	-125
887.038	146
887.039	151
887.119	39
887.143	94
887.198	281
887.248	343
887.278	205
887.354	-300
887.358	-305
887.437	-244
887.459	-249
887.517	-287
887.564	-417
887.596	-428
887.669	-400
887.676	-366
887.755	136
887.774	235
887.835	182
887.880	149
887.914	96
887.985	-11
887.994	-72
888.073	-716
888.090	-825
888.153	-423
888.195	-233
888.232	-215
888.300	-56
888.311	-36
888.391	21
888.405	21
888.470	-193
888.510	-327
888.549	-285
888.615	-122
888.628	-105
888.708	-109
888.720	-109
888.787	282
888.825	473
888.866	117
888.930	-385
888.945	-364
889.024	-272
889.035	-260
889.103	-265
889.140	-286
889.182	-317
889.245	-304
889.261	-327
889.340	-499
889.349	-511
889.419	195
889.454	533
889.498	165
889.559	-322
889.577	-264
889.656	-10
889.664	17
889.735	35
889.768	44
889.814	98
889.873	171
889.978	-766
890.083	-37
890.187	-170
890.292	-576
890.397	-94
890.501	123
890.606	-551
890.710	205
890.815	66
890.919	-143
891.024	-296
891.128	-272
891.233	75
891.337	-385
891.442	-656
891.546	-774
891.650	634
891.755	525
891.859	241
891.963	437
892.068	-335
892.172	498
892.276	-139
892.380	-342
892.484	-748
892.589	-189
892.693	240
892.797	-94
892.901	-124
893.005	-642
893.109	218
893.213	-203
893.317	-404
893.421	87
893.525	-631
893.629	-146
893.733	175
893.837	-144
893.941	152
894.045	178
894.148	-152
894.252	446
894.356	-143
894.460	-20
894.564	39
894.667	-282
894.771	-329
894.875	-353
894.978	281
895.082	-605
895.186	-266
895.289	-23
895.393	-767
895.496	516
895.600	-121
895.703	110
895.807	-891
895.910	-657
896.014	-105
896.117	564
896.221	151
896.324	-646
896.427	-1273
896.531	307
896.634	1002
896.737	-597
896.840	200
896.944	10
897.047	-254
897.150	-79
897.253	-708
897.356	-541
897.460	568
897.563	-101
897.666	157
897.769	-1127
897.872	-39
897.975	-466
898.078	-1538
898.181	191
898.284	-556
898.387	222
898.490	89
898.593	-692
898.695	-786
898.798	547
898.901	-713
899.004	-243
899.107	226
899.209	-9
899.312	-566
899.415	-272
899.518	35
899.620	-588
899.723	12
899.826	-234
899.928	781
900.031	-644
900.133	-477
900.236	-678
900.338	-184
900.441	47
900.543	139
900.646	11
900.748	-329
900.851	-39
900.953	351
901.055	331
901.158	68
901.260	-302
901.362	-36
901.465	-9
901.567	-464
901.669	-249
901.771	-205
901.873	199
901.976	-419
902.078	-868
902.180	-784
902.282	-1061
902.384	-670
902.486	-158
902.588	-715
902.690	-187
902.792	-774
902.894	118
902.996	-143
903.098	-1077
903.200	-73
903.302	-739
903.404	-340
903.505	-176
903.607	-810
903.709	464
903.811	165
903.913	-406
904.014	-101
904.116	-954
904.218	-287
904.319	864
904.421	-456
904.523	289
904.624	-313
904.726	-693
904.827	-639
904.929	-262
905.030	-403
905.132	-316
905.233	-523
905.335	50
905.436	96
905.537	-223
905.639	-156
905.740	-50
905.841	-516
905.943	263
906.044	-502
906.145	-15
906.247	-680
906.348	-560
906.449	-934
906.550	-820
906.651	-673
906.752	149
906.854	-486
906.955	-366
907.056	-1209
907.157	-538
907.258	-799
907.359	-184
907.460	152
907.561	-224
907.662	-427
907.762	-553
907.863	-1553
907.964	-497
908.065	-284
908.166	-790
908.267	-531
908.367	-900
908.468	-1356
908.569	-643
908.670	-520
908.770	-151
908.871	-346
908.971	118
909.072	-273
909.173	-676
909.273	-647
909.374	-113
909.474	-984
909.575	474
909.675	-613
909.776	-36
909.876	-454
909.977	-754
910.077	-324
910.177	-883
910.278	-504
910.378	-1022
910.478	-519
910.579	-897
910.679	-325
910.779	-243
910.879	-421
910.980	-398
911.080	-680
911.180	-389
911.280	253
911.380	-697
911.480	-144
911.580	-259
911.680	-585
911.780	-570
911.880	-1051
911.980	-767
912.080	-681
912.180	-778
912.280	-815
912.380	-576
912.480	-935
912.580	-31
912.679	-1137
912.779	-550
912.879	-650
912.979	-661
913.078	-1051
913.178	26
913.278	-686
913.377	-441
913.477	-870
913.577	-1142
913.676	-270
913.776	-395
913.875	-567
913.975	-611
914.074	-767
914.174	-615
914.273	-1008
914.373	236
914.472	-1123
914.572	-650
914.671	-968
914.770	-1351
914.870	-636
914.969	-1366
915.068	-674
915.167	111
915.267	-94
915.366	-1107
915.465	-246
915.564	171
915.663	-759
915.763	-973
915.862	-892
915.961	-262
916.060	-1368
916.159	-818
916.258	-973
916.357	-1453
916.456	-234
916.555	-902
916.654	-831
916.752	-969
916.851	-739
916.950	41
917.049	-493
917.148	-107
917.247	-1102
917.345	-370
917.444	-263
917.543	-480
917.642	-958
917.740	-270
917.839	-133
917.937	138
918.036	-778
918.135	-904
918.233	-1020
918.332	-921
918.430	-886
918.529	-504
918.627	-501
918.726	-508
918.824	7
918.923	-494
919.021	-156
919.119	-81
919.218	-873
919.316	-767
919.414	-772
919.512	-886
919.611	-685
919.709	-1079
919.807	-817
919.905	-538
920.003	-406
920.102	-1031
920.200	-777
920.298	-1096
920.396	-945
920.494	-74
920.592	-921
920.690	-563
920.788	-1111
920.886	-663
920.984	-402
921.082	-870
921.180	-793
921.277	-653
921.375	-138
921.473	-1176
921.571	-1424
921.669	-1130
921.766	-1625
921.864	-698
921.962	-818
922.060	-520
922.157	-772
922.255	-193
922.352	-938
922.450	-119
922.548	-1199
922.645	-1386
922.743	-1236
922.840	-1399
922.938	-834
923.035	-721
923.133	-164
923.230	-990
923.327	-241
923.425	-892
923.522	-801
923.619	-1332
923.717	-334
923.814	-1219
923.911	-724
924.008	-469
924.106	-1407
924.203	108
924.300	-489
924.397	-1008
924.494	-963
924.591	-918
924.688	-1727
924.786	-1037
924.883	-510
924.979	-583
925.077	-597
925.173	-1378
925.270	-1366
925.367	-581
925.464	-531
925.561	-699
925.658	-1016
925.755	-468
925.852	-1457
925.948	-1043
926.045	-1023
926.142	-898
926.239	-485
926.335	-239
926.432	-729
926.529	822
926.625	-1022
926.722	-1424
926.818	-1044
926.915	-835
927.011	-969
927.108	-979
927.204	-549
927.301	-1157
927.397	-1814
927.494	-673
927.590	-734
927.687	-1268
927.783	-1008
927.879	-1032
927.976	-1057
928.072	-1410
928.168	-1052
928.264	-746
928.361	-1253
928.457	-347
928.553	-262
928.649	-796
928.745	-1332
928.841	-1226
928.937	-829
929.033	-1288
929.129	-1252
929.225	-1242
929.321	-1303
929.417	-519
929.513	-1048
929.609	-903
929.705	-1016
929.801	45
929.897	-1150
929.993	-481
930.089	-1068
930.184	-927
930.280	-615
930.376	-748
930.471	-1308
930.567	-992
930.663	-947
930.758	-990
930.854	-1586
930.950	-1167
931.045	-1278
931.141	-1315
931.236	-51
931.332	-1470
931.427	-1248
931.523	-1204
931.618	-531
931.714	-1029
931.809	-752
931.905	-1110
932.000	-1342
932.095	-568
932.191	-440
932.286	-1744
932.381	-1019
932.476	-1039
932.572	-1756
932.667	-536
932.762	-792
932.857	-1055
932.952	-367
933.047	-845
933.142	-869
933.237	-1272
933.332	-695
933.427	-589
933.522	-1356
933.617	-954
933.712	-680
933.807	-1388
933.902	-1345
933.997	-1366
934.092	-1058
934.187	-1147
934.282	-1167
934.376	-1209
934.471	-1018
934.566	-516
934.661	-1161
934.755	-1580
934.850	-1162
934.945	-1342
935.039	-1166
935.134	-1384
935.228	-1099
935.323	-1266
935.417	-1257
935.512	-1125
935.606	-1173
935.701	-1174
935.795	-1002
935.890	-831
935.984	-1576
936.079	-641
936.173	-919
936.267	-1647
936.362	-836
936.456	-906
936.550	-1760
936.644	-272
936.738	-1231
936.833	-1121
936.927	-1315
937.021	-872
937.115	-1075
937.209	-2533
937.303	-1020
937.397	-1149
937.491	-352
937.585	-1411
937.679	-1200
937.773	-904
937.867	-1332
937.961	-1455
938.055	-1527
938.149	-912
938.243	-897
938.337	-458
938.430	-186
938.524	-698
938.618	-202
938.712	-799
938.805	-980
938.899	-824
938.993	-1194
939.086	-562
939.180	-233
939.274	-177
939.367	-1373
939.461	-1477
939.554	-1238
939.648	-1032
939.741	-1092
939.835	-687
939.928	-1112
940.022	-814
940.115	-898
940.208	-1033
940.302	-1289
940.395	-826
940.488	-1443
940.582	-846
940.675	-1237
940.768	-660
940.861	-1553
940.954	-1471
941.048	-312
941.141	-965
941.234	-1276
941.327	-572
941.420	-934
941.513	-1017
941.606	-1660
941.699	-284
941.792	-1564
941.885	-2116
941.978	-1261
942.071	-1283
942.164	-1218
942.257	-1648
942.349	-190
942.442	-999
942.535	-1425
942.628	-1604
942.721	-864
942.813	-1692
942.906	-804
942.999	-1461
943.091	-1837
943.184	-1081
943.277	-1558
943.369	-755
943.462	-1098
943.554	-836
943.647	-1383
943.739	-751
943.832	-1070
943.924	-1701
944.017	-1910
944.109	-910
944.201	-747
944.294	-1008
944.386	-1026
944.478	-642
944.571	-1232
944.663	-1455
944.755	-818
944.847	-632
944.940	-1227
945.032	-1788
945.124	-966
945.216	-938
945.308	-1760
945.400	-487
945.492	-868
945.584	-1201
945.676	-1333
945.768	-750
945.860	-799
945.952	-897
946.044	-912
946.136	-459
946.228	-811
946.320	-1371
946.412	-1309
946.503	-602
946.595	-2117
946.687	-1736
946.779	-1167
946.870	-1859
946.962	-1089
947.054	-621
947.145	-1155
947.237	-780
947.329	-2047
947.420	-1562
947.512	-1433
947.603	-1298
947.695	-905
947.786	-1503
947.878	-1841
947.969	-695
948.061	-1755
948.152	-1571
948.243	-1541
948.335	-1534
948.426	-1465
948.517	-878
948.609	-1719
948.700	-1290
948.791	-898
948.882	-69
948.973	-2250
949.065	-1213
949.156	-1363
949.247	-1808
949.338	-1615
949.429	-2102
949.520	-1588
949.611	-1088
949.702	-1198
949.793	-1285
949.884	-2304
949.975	-1041
950.066	-2409
950.157	-1225
950.247	-1643
950.338	-1582
950.429	-1529
950.520	-1220
950.611	-2176
950.701	-1294
950.792	-1889
950.883	-1669
950.973	-1807
951.064	-1194
951.155	-2501
951.245	-1623
951.336	-1145
951.427	-1914
951.517	-1565
951.608	-852
951.698	-1887
951.788	-840
951.879	-1227
951.969	-1234
952.060	-1861
952.150	-1680
952.240	-2033
952.331	-2592
952.421	-513
952.511	-1678
952.602	-1009
952.692	-2052
952.782	-972
952.872	-1016
952.962	-974
953.052	-1778
953.143	-1471
953.233	-1117
953.323	-940
953.413	-1786
953.503	-1347
953.593	-1064
953.683	-1628
953.773	-2212
953.863	-2148
953.953	-1864
954.042	-1384
954.132	-1438
954.222	-1266
954.312	-1806
954.402	-1860
954.492	-984
954.581	-1694
954.671	-1706
954.761	-2371
954.850	-364
954.940	-1133
955.030	-1857
955.119	-926
955.209	-1762
955.298	-1631
955.388	-2198
955.477	-1543
955.567	-2079
955.656	-1099
955.746	-1278
955.835	-1125
955.925	-2087
956.014	-1521
956.103	-1727
956.193	-1949
956.282	-1259
956.371	-1687
956.461	-2057
956.550	-2247
956.639	-1191
956.728	-1654
956.817	-1725
956.906	-1924
956.995	-1013
957.085	-2079
957.174	-1466
957.263	-1201
957.352	-2217
957.441	-1432
957.530	-1223
957.619	-1660
957.708	-1958
957.796	-1597
957.885	-1237
957.974	-1910
958.063	-1469
958.152	-2419
958.241	-1623
958.329	-1489
958.418	-1095
958.507	-2327
958.596	-417
958.684	-2004
958.773	-1697
958.861	-2040
958.950	-1118
959.039	-1595
959.127	-2093
959.216	-1367
959.304	-1445
959.393	-1935
959.481	-1341
959.570	-1474
959.658	-1443
959.746	-839
959.835	-2352
959.923	-1471
960.011	-1419
960.100	-1247
960.188	-1302
960.276	-1197
960.365	-1827
960.453	-1131
960.541	-1891
960.629	-1342
960.717	-1997
960.805	-1860
960.893	-1135
960.981	-2511
961.069	-1182
961.158	-1746
961.245	-881
961.333	-1799
961.421	-1881
961.509	-1470
961.597	-1723
961.685	-1485
961.773	-1673
961.861	-2239
961.949	-1263
962.036	-2308
962.124	-1358
962.212	-2565
962.299	-2477
962.387	-2262
962.475	-1081
962.562	-2200
962.650	-1041
962.738	-1882
962.825	-1156
962.913	-1277
963.000	-1965
963.088	-2124
963.175	-1699
963.263	-2330
963.350	-2424
963.438	-1718
963.525	-1927
963.612	-1505
963.700	-1368
963.787	-1063
963.874	-1879
963.962	-1186
964.049	-1008
964.136	-1625
964.223	-1824
964.310	-1755
964.398	-1887
964.485	-2012
964.572	-1332
964.659	-1718
964.746	-1451
964.833	-1945
964.920	-1752
965.007	-1763
965.094	-1719
965.181	-1842
965.268	-1205
965.355	-1510
965.441	-2010
965.528	-2168
965.615	-611
965.702	-1963
965.789	-1483
965.875	-1973
965.962	-1550
966.049	-1369
966.136	-1729
966.222	-2702
966.309	-1127
966.395	-2749
966.482	-1306
966.569	-2086
966.655	-1908
966.742	-1990
966.828	-1303
966.915	-2613
967.001	-2059
967.087	-2163
967.174	-1493
967.260	-2088
967.347	-2329
967.433	-1904
967.519	-986
967.605	-1750
967.692	-1606
967.778	-1735
967.864	-1734
967.950	-1739
968.036	-2363
968.123	-1843
968.209	-1433
968.295	-2291
968.381	-551
968.467	-1542
968.553	-2162
968.639	-657
968.725	-2550
968.811	-2408
968.897	-1508
968.983	-1295
969.069	-1877
969.154	-1560
969.240	-1173
969.326	-2652
969.412	-2117
969.497	-1744
969.583	-2029
969.669	-1494
969.755	-1679
969.840	-2100
969.926	-1237
970.012	-1720
970.097	-1675
970.183	-2571
970.268	-2265
970.354	-1606
970.439	-2576
970.525	-865
970.610	-2303
970.696	-1335
970.781	-1198
970.866	-2560
970.952	-1874
971.037	-1821
971.122	-2059
971.208	-1336
971.293	-1812
971.378	-1872
971.463	-2106
971.549	-994
971.634	-2296
971.719	-1262
971.804	-2642
971.889	-1178
971.974	-1472
972.059	-2557
972.144	-1216
972.229	-2450
972.314	-2882
972.399	-1119
972.484	-988
972.569	-1066
972.654	-1538
972.739	-436
972.824	-1736
972.908	-1930
972.993	-1860
973.078	-1687
973.163	-1950
973.247	-916
973.332	-3723
973.417	-657
973.501	-2209
973.586	-2555
973.671	-1607
973.755	-1735
973.840	-1245
973.924	-828
974.009	-1415
974.093	-3003
974.178	-892
974.262	-2018
974.346	-2497
974.431	-1975
974.515	-1546
974.600	-2007
974.684	-1533
974.768	-1469
974.852	-915
974.937	-2486
975.021	-1199
975.105	-1853
975.189	-2481
975.273	-1076
975.358	-2516
975.442	-1753
975.526	-1581
975.610	-2453
975.694	-2557
975.778	-806
975.862	-1617
975.946	-3665
976.030	-129
976.114	-1818
976.198	-1865
976.281	-1580
976.365	-945
976.449	-2253
976.533	-1803
976.617	-2256
976.700	-1665
976.784	-1844
976.868	-1739
976.951	-1199
977.035	-2488
977.119	-1678
977.202	-1472
977.286	-887
977.369	-1702
977.453	-2190
977.536	-1769
977.620	-1902
977.703	-1507
977.787	-2847
977.870	-1064
977.953	-1534
978.037	-2749
978.120	-1478
978.203	-1786
978.287	-2377
978.370	-1568
978.453	-2204
978.536	-1607
978.620	-926
978.703	-1828
978.786	-1909
978.869	-2325
978.952	-2740
979.035	-700
979.118	-1092
979.201	-2371
979.284	-1265
979.367	-2067
979.450	-817
979.533	-2164
979.616	-2047
979.699	-2249
979.782	-1522
979.865	-1313
979.948	-2475
980.030	-2091
980.113	-1829
980.196	-1897
980.279	-1749
980.361	-1283
980.444	-2015
980.526	-1571
980.609	-2053
980.692	-1562
980.774	-1513
980.857	-2564
980.939	-512
981.022	-2118
981.104	-2390
981.187	-1678
981.269	-1381
981.352	-1900
981.434	-3673
981.516	-1777
981.599	-975
981.681	-2395
981.763	-1503
981.846	-1734
981.928	-1843
982.010	-2773
982.092	-1957
982.174	-1277
982.256	-1891
982.339	-1581
982.421	-1523
982.503	-1534
982.585	-2699
982.667	-1638
982.749	-1283
982.831	-1390
982.913	-2477
982.995	-1193
983.077	-1846
983.158	-1231
983.240	-2562
983.322	-1149
983.404	-1546
983.486	-2323
983.568	-1401
983.649	-1276
983.731	-1481
983.813	-2447
983.894	-2160
983.976	-2383
984.058	-2695
984.139	-1165
984.221	-2621
984.302	-356
984.384	-2019
984.465	-2568
984.547	-1476
984.628	-2446
984.710	-1126
984.791	-1627
984.872	-1505
984.954	-1483
985.035	-1944
985.116	-2170
985.198	-1732
985.279	-174
985.360	-1787
985.441	-2447
985.522	-1111
985.604	-2323
985.685	-3967
985.766	-1185
985.847	-1049
985.928	-1716
986.009	-2019
986.090	-1976
986.171	-1409
986.252	-2490
986.333	-1745
986.414	-1888
986.495	-2479
986.576	-1880
986.656	-2682
986.737	-1350
986.818	-1002
986.899	-1728
986.980	-2360
987.060	-997
987.141	-2110
987.222	-2318
987.302	-870
987.383	-1619
987.464	-1117
987.544	-1631
987.625	-1915
987.705	-1368
987.786	-1445
987.866	-2296
987.947	-2680
988.027	-1736
988.108	-1498
988.188	-1512
988.268	-1372
988.349	-2104
988.429	-2649
988.509	-1484
988.589	-1543
988.670	-2923
988.750	-1947
988.830	-2228
988.910	-2377
988.990	-2205
989.070	-2396
989.151	-2094
989.231	-2612
989.311	-2052
989.391	-2287
989.471	-1394
989.551	-2559
989.631	-2294
989.711	-1651
989.791	-2870
989.870	-2691
989.950	-1007
990.030	-2797
990.110	-1931
990.190	-2508
990.269	-2455
990.349	-2886
990.429	-2077
990.509	-1120
990.588	-2394
990.668	-897
990.747	-1637
990.827	-2099
990.907	-2174
990.986	-1908
991.066	-1721
991.145	-1858
991.225	-1751
991.304	-2282
991.383	-1968
991.463	-2188
991.542	-970
991.622	-1660
991.701	-2141
991.780	-1916
991.859	-2113
991.939	-1788
992.018	-2767
992.097	-1838
992.176	-1330
992.256	-2102
992.335	-2221
992.414	-2393
992.493	-1970
992.572	-2614
992.651	-772
992.730	-2572
992.809	-1271
992.888	-2301
992.967	-2088
993.046	-1230
993.125	-2223
993.203	-1862
993.282	-1617
993.361	-2057
993.440	-1992
993.519	-2299
993.597	-3008
993.676	-2298
993.755	-1884
993.834	-2532
993.912	-2245
993.991	-1296
994.069	-2526
994.148	-2720
994.226	-2123
994.305	-2448
994.384	-3194
994.462	-1729
994.540	-2348
994.619	-2104
994.697	-1295
994.776	-1886
994.854	-1225
994.932	-1969
995.011	-1134
995.089	-2637
995.167	-1695
995.245	-1807
995.324	-2264
995.402	-1497
995.480	-1822
995.558	-1431
995.636	-2998
995.714	-2527
995.792	-1127
995.870	-2700
995.948	-1540
996.026	-1089
996.104	-2573
996.182	-1557
996.260	-1995
996.338	-2163
996.416	-2109
996.494	-2763
996.572	-432
996.649	-1799
996.727	-3121
996.805	-1019
996.883	-2549
996.960	-2228
997.038	-2280
997.116	-2451
997.193	-2526
997.271	-1910
997.348	-2730
997.426	-2762
997.504	-2247
997.581	-1157
997.658	-1500
997.736	-2705
997.813	-2978
997.891	-860
997.968	-2387
998.046	-2191
998.123	-2159
998.200	-2197
998.277	-3050
998.355	-1553
998.432	-2819
998.509	-1778
998.586	-1743
998.663	-1824
998.741	-1786
998.818	-2655
998.895	-2317
998.972	-2311
999.049	-1356
999.126	-2661
999.203	-1608
999.280	-2144
999.357	-1447
999.434	-2595
999.511	-2098
999.587	-1737
999.664	-2597
999.741	-2318
999.818	-2076
999.895	-2729
999.971	-1758
1000.048	-2569
1000.125	-2215
1000.202	-2201
1000.278	-2845
1000.355	-1500
1000.431	-2291
1000.508	-2473
1000.584	-1548
1000.661	-1396
1000.738	-2242
1000.814	-2529
1000.890	-1514
1000.967	-2369
1001.043	-2013
1001.120	-2398
1001.196	-1083
1001.272	-2591
1001.349	-2507
1001.425	-2021
1001.501	-3056
1001.577	-2243
1001.654	-1107
1001.730	-2560
1001.806	-1951
1001.882	-2730
1001.958	-1889
1002.034	-1684
1002.110	-2219
1002.186	-2553
1002.262	-1531
1002.338	-2578
1002.414	-1308
1002.490	-2186
1002.566	-2557
1002.642	-2194
1002.718	-1429
1002.794	-1745
1002.870	-2657
1002.945	-2345
1003.021	-2022
1003.097	-1791
1003.173	-1558
1003.248	-1767
1003.324	-2137
1003.400	-2167
1003.475	-2639
1003.551	-3090
1003.626	-1652
1003.702	-2012
1003.777	-2120
1003.853	-2079
1003.928	-2686
1004.004	-2356
1004.079	-1220
1004.155	-2456
1004.230	-2082
1004.305	-1551
1004.381	-2070
1004.456	-1831
1004.531	-1864
1004.607	-2071
1004.682	-2254
1004.757	-1737
1004.832	-2372
1004.907	-2768
1004.982	-1935
1005.057	-2208
1005.133	-2447
1005.208	-2170
1005.283	-1576
1005.358	-1626
1005.433	-2669
1005.508	-2426
1005.583	-2183
1005.657	-2663
1005.732	-2094
1005.807	-2879
1005.882	-1805
1005.957	-2562
1006.032	-1747
1006.106	-2404
1006.181	-2432
1006.256	-1462
1006.331	-3182
1006.405	-2476
1006.480	-2116
1006.554	-2107
1006.629	-1391
1006.704	-2855
1006.778	-1976
1006.853	-1664
1006.927	-2739
1007.002	-1942
1007.076	-2416
1007.150	-1935
1007.225	-2228
1007.299	-1811
1007.373	-2191
1007.448	-2615
1007.522	-1775
1007.596	-2087
1007.671	-2695
1007.745	-2144
1007.819	-2249
1007.893	-2474
1007.967	-2111
1008.041	-2621
1008.115	-1299
1008.190	-2808
1008.264	-2536
1008.338	-2304
1008.412	-2350
1008.486	-2584
1008.560	-1695
1008.633	-2201
1008.707	-1915
1008.781	-1681
1008.855	-1717
1008.929	-1878
1009.003	-2915
1009.076	-2488
1009.150	-1749
1009.224	-2039
1009.298	-1825
1009.371	-2518
1009.445	-1601
1009.519	-1972
1009.592	-3102
1009.666	-1823
1009.739	-2042
1009.813	-2892
1009.886	-2048
1009.960	-3284
1010.033	-2075
1010.107	-1827
1010.180	-2626
1010.253	-2368
1010.327	-2540
1010.400	-2549
1010.473	-2515
1010.547	-1090
1010.620	-2777
1010.693	-1904
1010.766	-2788
1010.840	-1597
1010.913	-1598
1010.986	-2868
1011.059	-1811
1011.132	-2770
1011.205	-1587
1011.278	-2091
1011.351	-2041
1011.424	-2115
1011.497	-1660
1011.570	-2333
1011.643	-2570
1011.716	-2452
1011.789	-2233
1011.862	-2008
1011.934	-1068
1012.007	-2382
1012.080	-2430
1012.153	-2693
1012.225	-2099
1012.298	-1708
1012.371	-2063
1012.443	-1325
1012.516	-2571
1012.588	-1853
1012.661	-1715
1012.733	-2149
1012.806	-1454
1012.879	-2807
1012.951	-1894
1013.023	-2549
1013.096	-2226
1013.168	-2801
1013.241	-1756
1013.313	-2363
1013.385	-1969
1013.458	-2207
1013.530	-1701
1013.602	-3170
1013.674	-1879
1013.746	-2764
1013.819	-1538
1013.891	-1461
1013.963	-2575
1014.035	-2101
1014.107	-2252
1014.179	-2267
1014.251	-2615
1014.323	-2413
1014.395	-2702
1014.467	-2355
1014.539	-2512
1014.611	-2310
1014.683	-942
1014.754	-2012
1014.826	-2126
1014.898	-2184
1014.970	-3043
1015.042	-2108
1015.113	-1665
1015.185	-2906
1015.257	-3129
1015.328	-1890
1015.400	-2761
1015.471	-2207
1015.543	-2270
1015.615	-2584
1015.686	-2410
1015.757	-2441
1015.829	-2247
1015.901	-2232
1015.972	-1732
1016.043	-2087
1016.115	-1076
1016.186	-2689
1016.257	-1718
1016.328	-2085
1016.400	-1561
1016.471	-2315
1016.542	-2174
1016.613	-2161
1016.685	-1554
1016.756	-1914
1016.827	-1982
1016.898	-3060
1016.969	-2396
1017.040	-2379
1017.111	-2279
1017.182	-2546
1017.253	-1920
1017.324	-2694
1017.395	-2618
1017.466	-1503
1017.537	-3160
1017.608	-2339
1017.678	-2291
1017.749	-2232
1017.820	-1962
1017.891	-3356
1017.961	-2255
1018.032	-2162
1018.103	-2268
1018.173	-2181
1018.244	-2592
1018.315	-1797
1018.385	-2284
1018.456	-2171
1018.526	-2879
1018.597	-2160
1018.667	-2774
1018.738	-2321
1018.808	-2226
1018.878	-3080
1018.949	-2529
1019.019	-1914
1019.089	-2233
1019.160	-3026
1019.230	-2791
1019.300	-2193
1019.371	-2998
1019.441	-1856
1019.511	-2206
1019.581	-2487
1019.651	-2091
1019.721	-2477
1019.791	-2145
1019.861	-2318
1019.931	-2224
1020.001	-2500
1020.071	-2083
1020.141	-2295
1020.211	-2902
1020.281	-1943
1020.351	-2753
1020.421	-1817
1020.491	-2483
1020.560	-2979
1020.630	-1844
1020.700	-2260
1020.770	-1880
1020.839	-2481
1020.909	-1773
1020.979	-3088
1021.048	-1538
1021.118	-2474
1021.187	-1836
1021.257	-2460
1021.326	-1723
1021.396	-3008
1021.465	-2160
1021.535	-1864
1021.604	-2534
1021.674	-2274
1021.743	-2079
1021.812	-2769
1021.882	-1589
1021.951	-2894
1022.020	-2719
1022.089	-2577
1022.159	-2530
1022.228	-2428
1022.297	-2644
1022.366	-2700
1022.435	-2668
1022.504	-3071
1022.573	-2368
1022.642	-2158
1022.711	-2505
1022.781	-1731
1022.849	-2364
1022.918	-2879
1022.987	-2571
1023.056	-2404
1023.125	-2299
1023.194	-2933
1023.263	-1862
1023.331	-2084
1023.400	-2622
1023.469	-2938
1023.538	-2623
1023.606	-2517
1023.675	-1997
1023.744	-2888
1023.812	-2516
1023.881	-2937
1023.949	-2813
1024.018	-3046
1024.086	-2487
1024.155	-2345
1024.223	-2365
1024.292	-2480
1024.360	-1919
1024.429	-2503
1024.497	-2415
1024.565	-2511
1024.634	-2531
1024.702	-2619
1024.770	-2859
1024.838	-2786
1024.907	-2016
1024.975	-2299
1025.043	-2760
1025.111	-3112
1025.179	-2144
1025.247	-2056
1025.315	-2952
1025.383	-3063
1025.451	-2668
1025.519	-2887
1025.587	-3021
1025.655	-2015
1025.723	-2862
1025.791	-2378
1025.859	-2763
1025.927	-2543
1025.995	-2664
1026.062	-1933
1026.130	-2561
1026.198	-2825
1026.266	-2807
1026.333	-1728
1026.401	-1638
1026.469	-2249
1026.536	-2125
1026.604	-2995
1026.671	-1702
1026.739	-1641
1026.806	-2143
1026.874	-2328
1026.941	-2243
1027.009	-2078
1027.076	-2689
1027.144	-2138
1027.211	-2824
1027.278	-2606
1027.345	-2277
1027.413	-2728
1027.480	-2743
1027.547	-2169
1027.614	-2621
1027.682	-2742
1027.749	-2203
1027.816	-3338
1027.883	-1876
1027.950	-2151
1028.017	-3250
1028.084	-2380
1028.151	-2702
1028.218	-2501
1028.285	-3005
1028.352	-3221
1028.419	-2945
1028.486	-2914
1028.553	-2090
1028.619	-2978
1028.686	-2251
1028.753	-3082
1028.820	-1768
1028.886	-2943
1028.953	-2080
1029.020	-2413
1029.086	-3212
1029.153	-3294
1029.220	-2503
1029.286	-2444
1029.353	-1993
1029.419	-2577
1029.486	-2577
1029.552	-2597
1029.619	-2540
1029.685	-3224
1029.751	-2466
1029.818	-1782
1029.884	-2757
1029.951	-1530
1030.017	-2698
1030.083	-1786
1030.149	-1476
1030.216	-2135
1030.282	-2561
1030.348	-2487
1030.414	-2439
1030.480	-3104
1030.546	-2526
1030.612	-2477
1030.678	-1967
1030.744	-2191
1030.810	-3400
1030.876	-2847
1030.942	-2936
1031.008	-2313
1031.074	-2032
1031.140	-1754
1031.206	-1766
1031.272	-3043
1031.337	-2530
1031.403	-2243
1031.469	-3123
1031.534	-3284
1031.600	-1789
1031.666	-2464
1031.731	-2290
1031.797	-2194
1031.863	-1353
1031.928	-2644
1031.994	-2864
1032.059	-1953
1032.125	-2380
1032.190	-3040
1032.256	-2532
1032.321	-2813
1032.386	-2876
1032.452	-2102
1032.517	-2196
1032.582	-1979
1032.647	-2546
1032.713	-2768
1032.778	-2559
1032.843	-2382
1032.908	-1681
1032.974	-2609
1033.039	-2239
1033.104	-1812
1033.169	-1673
1033.234	-2418
1033.299	-2124
1033.364	-2161
1033.429	-2677
1033.494	-2463
1033.559	-2057
1033.624	-3253
1033.688	-2780
1033.753	-3614
1033.818	-2471
1033.883	-1485
1033.948	-1608
1034.013	-2424
1034.077	-2731
1034.142	-2331
1034.207	-2711
1034.271	-2507
1034.336	-2918
1034.400	-2325
1034.465	-2528
1034.530	-2688
1034.594	-2415
1034.658	-1920
1034.723	-2385
1034.787	-3295
1034.852	-2498
1034.916	-3264
1034.981	-2333
1035.045	-2301
1035.109	-2180
1035.173	-1638
1035.238	-2705
1035.302	-1726
1035.366	-3235
1035.430	-2242
1035.495	-2383
1035.559	-1828
1035.623	-2594
1035.687	-3295
1035.751	-3018
1035.815	-2157
1035.879	-2448
1035.943	-2365
1036.007	-3293
1036.071	-2163
1036.135	-2552
1036.198	-2631
1036.262	-2319
1036.326	-2666
1036.390	-2701
1036.454	-2310
1036.517	-2065
1036.581	-2362
1036.645	-1805
1036.709	-1973
1036.772	-2950
1036.836	-1972
1036.900	-2084
1036.963	-2594
1037.026	-2971
1037.090	-1635
1037.154	-2159
1037.217	-2200
1037.280	-2872
1037.344	-2558
1037.407	-2263
1037.471	-2234
1037.534	-1948
1037.597	-2639
1037.661	-2353
1037.724	-2727
1037.787	-3283
1037.850	-2824
1037.913	-2884
1037.977	-1846
1038.040	-2562
1038.103	-2167
1038.166	-2869
1038.229	-2614
1038.292	-2656
1038.355	-2313
1038.418	-2938
1038.481	-1622
1038.544	-2296
1038.607	-1630
1038.670	-1866
1038.732	-3214
1038.795	-2448
1038.858	-1903
1038.921	-1769
1038.984	-2487
1039.046	-2270
1039.109	-2572
1039.172	-2113
1039.234	-2808
1039.297	-1850
1039.360	-2312
1039.422	-2511
1039.485	-2804
1039.547	-2884
1039.610	-2547
1039.672	-2750
1039.734	-2477
1039.797	-2825
1039.859	-2143
1039.922	-2494
1039.984	-2517
1040.046	-2075
1040.109	-2223
1040.171	-2427
1040.233	-2372
1040.295	-2756
1040.358	-2938
1040.420	-2116
1040.482	-2200
1040.544	-2643
1040.606	-2119
1040.668	-1703
1040.730	-2992
1040.792	-2120
1040.854	-3093
1040.916	-1625
1040.978	-2961
1041.040	-2169
1041.102	-2258
1041.164	-2573
1041.225	-2194
1041.287	-3146
1041.349	-2967
1041.411	-2453
1041.472	-2818
1041.534	-2723
1041.596	-2988
1041.657	-2388
1041.719	-2064
1041.781	-2715
1041.842	-3061
1041.904	-2812
1041.965	-2658
1042.027	-2566
1042.088	-2116
1042.150	-1930
1042.211	-2405
1042.272	-2412
1042.334	-2824
1042.395	-1913
1042.456	-2458
1042.518	-2281
1042.579	-2354
1042.640	-2479
1042.701	-1667
1042.763	-2140
1042.824	-2873
1042.885	-2205
1042.946	-2438
1043.007	-1951
1043.068	-2842
1043.129	-2624
1043.190	-2818
1043.251	-2279
1043.312	-2858
1043.373	-1680
1043.434	-2513
1043.495	-1995
1043.556	-2836
1043.616	-1961
1043.677	-2499
1043.738	-1999
1043.799	-2869
1043.859	-2228
1043.920	-2290
1043.981	-2960
1044.041	-2725
1044.102	-2487
1044.162	-2711
1044.223	-2337
1044.284	-2631
1044.344	-2227
1044.405	-2614
1044.465	-2553
1044.525	-2146
1044.586	-2428
1044.646	-3131
1044.707	-2221
1044.767	-1899
1044.827	-2706
1044.887	-2093
1044.948	-2207
1045.008	-2401
1045.068	-2364
1045.128	-2409
1045.188	-1956
1045.249	-2474
1045.309	-1982
1045.369	-2256
1045.429	-1524
1045.489	-2296
1045.549	-1805
1045.609	-2555
1045.669	-2259
1045.729	-2508
1045.789	-2171
1045.848	-2422
1045.908	-1927
1045.968	-2435
1046.028	-1952
1046.088	-2964
1046.147	-1922
1046.207	-1809
1046.267	-2057
1046.326	-1458
1046.386	-1888
1046.446	-1371
1046.505	-1172
1046.565	-1635
1046.624	-2066
1046.684	-1673
1046.743	-633
1046.803	-1413
1046.862	-840
1046.922	0
