'Start Wavelength	183.907
'End Wavelength	1046.922
'Gate Delay	5.000
'Gate Width (ms)	1.050
'Laser Output Level	0.000
'X Position	0.000
'Y Position	0.000
'Z Position	0.000
'Grid Point Number	1.000
'Shot Number	100.000
183.907	82.000
183.977	-249.000
184.047	-1304
184.116	-43
184.186	-244
184.256	-891
184.325	-265
184.395	-884
184.465	957
184.534	23
184.604	-732
184.674	-259
184.743	-424
184.813	-514
184.883	-644
184.952	-159
185.022	-85
185.092	-111
185.161	-606
185.231	-34
185.301	-128
185.370	6
185.440	-1138
185.509	7
185.579	-415
185.649	-437
185.718	-384
185.788	551
185.857	-775
185.927	-264
185.996	-619
186.066	-378
186.136	-563
186.205	-406
186.275	-234
186.344	-198
186.414	-542
186.483	-529
186.553	-180
186.622	271
186.692	-494
186.761	-563
186.831	256
186.900	-270
186.970	-843
187.039	-3
187.109	26
187.178	119
187.248	272
187.317	-684
187.387	-511
187.456	-306
187.526	451
187.595	617
187.664	-836
187.734	-291
187.803	-699
187.873	-135
187.942	-483
188.012	785
188.081	-3
188.150	-73
188.220	-168
188.289	273
188.358	466
188.428	698
188.497	-461
188.567	-37
188.636	-755
188.705	44
188.775	-248
188.844	-546
188.913	151
188.983	-800
189.052	-604
189.121	136
189.191	-681
189.260	-192
189.329	33
189.399	-81
189.468	-481
189.537	-616
189.606	35
189.676	-14
189.745	178
189.814	-392
189.883	-972
189.953	-470
190.022	361
190.091	691
190.161	534
190.230	655
190.299	-46
190.368	-295
190.437	-270
190.507	224
190.576	-87
190.645	-103
190.714	-892
190.783	-294
190.853	-72
190.922	-78
190.991	-712
191.060	21
191.129	-1425
191.198	333
191.268	-689
191.337	-685
191.406	-655
191.475	-126
191.544	-460
191.613	-215
191.682	-229
191.752	-302
191.821	-552
191.890	139
191.959	-156
192.028	-370
192.097	-491
192.166	-29
192.235	-733
192.304	571
192.373	-1060
192.442	26
192.511	-1099
192.580	-651
192.650	-638
192.719	-305
192.788	-243
192.857	-338
192.926	-565
192.995	-289
193.064	-744
193.133	-424
193.202	-550
193.271	114
193.340	-762
193.409	-8
193.478	-367
193.547	-774
193.615	-515
193.684	169
193.753	-390
193.822	400
193.891	-898
193.960	-305
194.029	-325
194.098	-761
194.167	-807
194.236	464
194.305	-1395
194.374	-416
194.443	-225
194.512	-578
194.580	123
194.649	-267
194.718	-274
194.787	-408
194.856	-653
194.925	226
194.994	-852
195.062	-160
195.131	-346
195.200	-426
195.269	-739
195.338	-667
195.407	-448
195.475	369
195.544	-466
195.613	203
195.682	461
195.751	107
195.819	-497
195.888	535
195.957	854
196.026	-29
196.094	42
196.163	-124
196.232	-287
196.301	-11
196.369	461
196.438	62
196.507	-595
196.576	249
196.644	-485
196.713	-262
196.782	-876
196.850	221
196.919	-247
196.988	160
197.056	-394
197.125	125
197.194	-249
197.262	667
197.331	-915
197.400	-300
197.468	-218
197.537	-576
197.606	206
197.674	476
197.743	917
197.812	79
197.880	1316
197.949	315
198.017	755
198.086	560
198.155	160
198.223	437
198.292	1070
198.360	276
198.429	-476
198.497	-160
198.566	534
198.635	1630
198.703	336
198.772	121
198.840	1189
198.909	1397
198.977	126
199.046	-75
199.114	459
199.183	-38
199.251	-378
199.320	-475
199.388	-209
199.457	184
199.525	73
199.594	-402
199.662	190
199.731	-328
199.799	-567
199.867	-264
199.936	-456
200.004	-108
200.073	-421
200.141	132
200.210	-671
200.278	-143
200.346	-708
200.415	201
200.483	-380
200.552	-252
200.620	-199
200.688	-408
200.757	138
200.825	-60
200.893	-664
200.962	-6
201.030	245
201.098	-319
201.167	193
201.235	-111
201.303	276
201.372	20
201.440	-1005
201.508	-827
201.577	-400
201.645	-40
201.713	-518
201.781	-58
201.850	-537
201.918	286
201.986	-734
202.055	154
202.123	-783
202.191	-402
202.259	165
202.327	1
202.396	-253
202.464	-214
202.532	-148
202.600	671
202.669	-128
202.737	-280
202.805	-1284
202.873	555
202.941	-647
203.009	-281
203.078	-45
203.146	-343
203.214	-534
203.282	-910
203.350	-48
203.418	-122
203.487	83
203.555	-343
203.623	-966
203.691	-238
203.759	-794
203.827	62
203.895	-690
203.963	-301
204.031	-588
204.099	-492
204.168	-953
204.236	-170
204.304	-444
204.372	-327
204.440	-600
204.508	225
204.576	-739
204.644	-58
204.712	-244
204.780	85
204.848	326
204.916	-246
204.984	-292
205.052	479
205.120	-987
205.188	405
205.256	488
205.324	94
205.392	-435
205.460	-135
205.528	585
205.596	-536
205.664	-699
205.732	20
205.799	1729
205.867	3294
205.935	-645
206.003	457
206.071	-325
206.139	470
206.207	190
206.275	-958
206.343	-311
206.411	282
206.478	-278
206.546	-7
206.614	-794
206.682	-41
206.750	-674
206.818	153
206.885	235
206.953	-971
207.021	-78
207.089	-141
207.157	-339
207.225	467
207.292	-888
207.360	-129
207.428	-488
207.496	-238
207.563	-4
207.631	-363
207.699	-796
207.767	227
207.834	-130
207.902	330
207.970	-221
208.038	-100
208.105	259
208.173	371
208.241	-470
208.309	1023
208.376	5
208.444	1151
208.512	186
208.579	274
208.647	-57
208.715	139
208.782	-1184
208.850	-336
208.918	-426
208.985	-92
209.053	-394
209.120	297
209.188	-687
209.256	-187
209.323	-690
209.391	212
209.459	1499
209.526	580
209.594	-416
209.661	-150
209.729	61
209.796	-40
209.864	-443
209.932	-881
209.999	954
210.067	189
210.134	-203
210.202	581
210.269	1017
210.337	995
210.404	222
210.472	-28
210.539	-85
210.607	65
210.674	-138
210.742	-17
210.809	196
210.877	117
210.944	557
211.012	-808
211.079	1027
211.146	-359
211.214	440
211.281	330
211.349	852
211.416	852
211.484	447
211.551	-56
211.618	293
211.686	1363
211.753	217
211.821	390
211.888	-508
211.955	209
212.023	649
212.090	-125
212.157	-165
212.225	422
212.292	1844
212.359	4003
212.427	10487
212.494	5036
212.561	1879
212.629	1192
212.696	971
212.763	1659
212.831	264
212.898	1338
212.965	-810
213.032	492
213.100	-540
213.167	116
213.234	498
213.301	845
213.369	-1070
213.436	512
213.503	-70
213.570	921
213.638	209
213.705	-53
213.772	-718
213.839	914
213.906	1094
213.973	378
214.041	167
214.108	1255
214.175	126
214.242	1084
214.309	-69
214.376	815
214.444	84
214.511	856
214.578	367
214.645	384
214.712	261
214.779	629
214.846	-83
214.913	770
214.980	690
215.048	1095
215.115	550
215.182	1541
215.249	400
215.316	285
215.383	484
215.450	596
215.517	380
215.584	535
215.651	391
215.718	1079
215.785	963
215.852	723
215.919	59
215.986	769
216.053	271
216.120	6
216.187	378
216.254	572
216.321	568
216.388	1049
216.455	1148
216.522	60
216.589	153
216.656	1411
216.722	1166
216.789	1113
216.856	478
216.923	206
216.990	674
217.057	1205
217.124	678
217.191	859
217.258	791
217.324	210
217.391	1265
217.458	710
217.525	97
217.592	143
217.659	-766
217.725	1809
217.792	1663
217.859	1425
217.926	-149
217.993	536
218.059	1025
218.126	969
218.193	321
218.260	630
218.327	218
218.393	1294
218.460	900
218.527	841
218.594	507
218.660	2071
218.727	1227
218.794	686
218.860	1157
218.927	543
218.994	362
219.061	1316
219.127	787
219.194	1328
219.261	107
219.327	297
219.394	989
219.461	-129
219.527	-373
219.594	1800
219.661	180
219.727	-1215
219.794	1108
219.860	789
219.927	959
219.994	1453
220.060	1324
220.127	1075
220.193	981
220.260	399
220.326	589
220.393	676
220.460	1743
220.526	839
220.593	651
220.659	2296
220.726	624
220.792	4716
220.859	2318
220.925	1910
220.992	2177
221.058	4153
221.125	7034
221.191	4536
221.258	1263
221.324	1327
221.391	589
221.457	683
221.524	1078
221.590	1774
221.657	6531
221.723	4889
221.789	3751
221.856	4777
221.922	1839
221.989	1642
222.055	702
222.121	649
222.188	2066
222.254	575
222.321	661
222.387	1354
222.453	1174
222.520	1347
222.586	643
222.652	1355
222.719	245
222.785	889
222.851	390
222.918	706
222.984	198
223.050	1267
223.116	-787
223.183	1815
223.249	636
223.315	572
223.382	369
223.448	1387
223.514	640
223.580	1060
223.647	391
223.713	927
223.779	529
223.845	636
223.911	468
223.978	650
224.044	756
224.110	417
224.176	1121
224.242	956
224.309	-530
224.375	1199
224.441	1108
224.507	321
224.573	244
224.639	1961
224.705	126
224.772	821
224.838	103
224.904	875
224.970	441
225.036	795
225.102	97
225.168	1543
225.234	376
225.300	595
225.366	628
225.432	1131
225.499	329
225.565	323
225.631	640
225.697	1696
225.763	462
225.829	1778
225.895	1673
225.961	2339
226.027	1684
226.093	823
226.159	2180
226.225	1593
226.291	1339
226.357	3469
226.423	1457
226.489	1618
226.554	471
226.620	476
226.686	966
226.752	1188
226.818	1494
226.884	4555
226.950	3711
227.016	1795
227.082	1748
227.148	901
227.214	1108
227.279	1086
227.345	1512
227.411	11
227.477	-47
227.543	336
227.609	1090
227.674	869
227.740	-1
227.806	1621
227.872	-217
227.938	1639
228.003	977
228.069	413
228.135	339
228.201	1095
228.267	625
228.332	561
228.398	26
228.464	911
228.530	82
228.595	924
228.661	698
228.727	568
228.792	1154
228.858	409
228.924	-328
228.990	2664
229.055	-396
229.121	1682
229.187	940
229.252	401
229.318	1167
229.384	148
229.449	217
229.515	-380
229.581	-503
229.646	2374
229.712	317
229.777	1086
229.843	1750
229.909	2700
229.974	2150
230.040	2714
230.105	1224
230.171	1698
230.236	3061
230.302	4473
230.368	2571
230.433	1618
230.499	1778
230.564	2590
230.630	609
230.695	1477
230.761	1902
230.826	744
230.892	2199
230.957	1313
231.023	868
231.088	597
231.154	1166
231.219	1383
231.284	983
231.350	1921
231.415	647
231.481	1554
231.546	1173
231.612	2272
231.677	192
231.742	-321
231.808	2056
231.873	39
231.939	-754
232.004	2071
232.069	2210
232.135	489
232.200	763
232.265	1531
232.331	57
232.396	1043
232.461	547
232.527	1700
232.592	-120
232.657	1567
232.723	1263
232.788	-23
232.853	1265
232.918	1159
232.984	463
233.049	1383
233.114	107
233.179	1816
233.245	1153
233.310	2031
233.375	-110
233.440	1515
233.506	552
233.571	963
233.636	229
233.701	883
233.766	747
233.832	1198
233.897	-77
233.962	249
234.027	1774
234.092	1136
234.157	536
234.222	479
234.288	281
234.353	2932
234.418	3005
234.483	3198
234.548	2201
234.613	975
234.678	1889
234.743	1500
234.808	3353
234.873	1618
234.938	2470
235.004	1721
235.069	979
235.134	1739
235.199	1443
235.264	1223
235.329	31
235.394	1174
235.459	1589
235.524	-107
235.589	816
235.654	939
235.719	340
235.784	1168
235.849	1175
235.913	2059
235.978	1708
236.043	1516
236.108	726
236.173	875
236.238	1469
236.303	-25
236.368	187
236.433	1806
236.498	1778
236.563	1385
236.627	2053
236.692	6726
236.757	5129
236.822	2973
236.887	2395
236.952	2228
237.017	-237
237.081	3280
237.146	830
237.211	2782
237.276	5143
237.341	12387
237.405	4041
237.470	2043
237.535	1296
237.600	1573
237.664	1246
237.729	905
237.794	607
237.859	2239
237.923	1154
237.988	956
238.053	1608
238.118	1304
238.182	3609
238.247	5914
238.312	1658
238.376	1725
238.441	-131
238.506	2283
238.570	-887
238.635	2389
238.700	530
238.764	1521
238.829	2548
238.893	2250
238.958	1516
239.023	1900
239.087	1476
239.152	1827
239.216	-229
239.281	1545
239.346	988
239.410	899
239.475	732
239.539	3740
239.604	3478
239.668	1570
239.733	-483
239.797	746
239.862	1526
239.926	3205
239.991	1489
240.055	1302
240.120	838
240.184	1398
240.249	550
240.313	998
240.378	270
240.442	2008
240.507	4281
240.571	1443
240.635	1684
240.700	1737
240.764	824
240.829	1176
240.893	-358
240.957	1030
241.022	1574
241.086	4028
241.151	794
241.215	572
241.279	1717
241.344	1936
241.408	1904
241.472	1312
241.537	2286
241.601	2227
241.665	1069
241.730	1154
241.794	2669
241.858	1448
241.922	1432
241.987	2997
242.051	1363
242.115	674
242.179	1646
242.244	694
242.308	1872
242.372	1600
242.436	975
242.501	1622
242.565	1245
242.629	1062
242.693	2036
242.757	592
242.822	1371
242.886	1331
242.950	1919
243.014	885
243.078	1390
243.142	2086
243.206	967
243.271	2241
243.335	871
243.399	3466
243.463	10564
243.527	34670
243.591	11756
243.655	3889
243.719	1723
243.783	3448
243.847	4188
243.911	5638
243.975	2778
244.040	937
244.104	3093
244.168	1215
244.232	1740
244.296	3043
244.360	5290
244.424	1556
244.488	1278
244.552	1573
244.615	-155
244.679	1329
244.743	-90
244.807	617
244.871	998
244.935	1815
244.999	-573
245.063	453
245.127	1428
245.191	3450
245.255	2826
245.319	1893
245.383	243
245.446	2003
245.510	-96
245.574	1243
245.638	1206
245.702	-58
245.766	3166
245.829	2390
245.893	156
245.957	695
246.021	880
246.085	503
246.149	1086
246.212	4176
246.276	6676
246.340	2525
246.404	1859
246.467	2241
246.531	786
246.595	2563
246.659	2194
246.722	965
246.786	1736
246.850	1793
246.913	2306
246.977	698
247.041	1494
247.104	1302
247.168	1188
247.232	3784
247.295	9641
247.359	4431
247.423	537
247.486	3257
247.550	2036
247.614	1240
247.677	2076
247.741	929
247.804	484
247.868	1859
247.932	1868
247.995	8410
248.059	2998
248.122	349
248.186	3090
248.249	2585
248.313	12448
248.376	14196
248.440	8674
248.503	2562
248.567	3663
248.630	2410
248.694	3966
248.757	7035
248.821	16046
248.884	10016
248.948	7370
249.011	11845
249.075	17796
249.138	16293
249.202	5997
249.265	4041
249.328	4524
249.392	2742
249.455	2330
249.519	2561
249.582	3083
249.645	4627
249.709	3330
249.772	2898
249.835	2814
249.899	3424
249.962	2732
250.025	2390
250.089	6059
250.152	9386
250.215	3135
250.279	3112
250.342	3264
250.405	3637
250.468	1895
250.532	4671
250.595	7613
250.658	30631
250.721	58656
250.785	17773
250.848	8968
250.911	4703
250.974	5310
251.038	5527
251.101	11182
251.164	4967
251.227	5502
251.290	5342
251.354	10221
251.417	44522
251.480	48968
251.543	30638
251.606	87076
251.669	69379
251.732	23183
251.795	19012
251.859	20368
251.922	51805
251.985	31975
252.048	10712
252.111	6966
252.174	5308
252.237	8034
252.300	21685
252.363	24206
252.426	65729
252.489	26610
252.552	10589
252.615	5252
252.678	7344
252.741	15369
252.804	26032
252.867	68455
252.930	35113
252.993	14061
253.056	8615
253.119	5826
253.182	5494
253.245	12370
253.308	8096
253.371	3358
253.434	3048
253.497	3310
253.559	8317
253.622	4587
253.685	4233
253.748	4395
253.811	2231
253.874	3426
253.937	2543
254.000	2588
254.062	4948
254.125	8415
254.188	4902
254.251	4790
254.314	1460
254.376	2774
254.439	4784
254.502	2690
254.565	3915
254.628	9066
254.690	4158
254.753	709
254.816	1004
254.878	1687
254.941	5269
255.004	5998
255.067	2391
255.129	1047
255.192	1276
255.255	-64
255.317	1180
255.380	362
255.443	180
255.505	65
255.568	106
255.631	349
255.693	733
255.756	-451
255.819	1940
255.881	51
255.944	1087
256.006	265
256.069	58
256.132	-13
256.194	1028
256.257	2280
256.319	1534
256.382	1079
256.444	2122
256.507	783
256.569	1296
256.632	1392
256.694	1229
256.757	3191
256.819	9784
256.882	3878
256.944	2160
257.007	2356
257.069	1534
257.132	754
257.194	1795
257.257	1281
257.319	462
257.381	94
257.444	2441
257.506	9691
257.569	10267
257.631	7179
257.693	4465
257.756	1252
257.818	1486
257.880	892
257.943	1783
258.005	773
258.067	996
258.130	1130
258.192	1462
258.254	1808
258.317	1213
258.379	1221
258.441	4064
258.503	4701
258.566	2955
258.628	5912
258.690	2058
258.753	1398
258.815	2886
258.877	1446
258.939	1429
259.001	2179
259.064	1526
259.126	460
259.188	2167
259.250	1684
259.312	1779
259.375	4280
259.437	3350
259.499	1400
259.561	1773
259.623	1865
259.685	683
259.747	1124
259.809	4216
259.872	8149
259.934	12546
259.996	10331
260.058	2971
260.120	328
260.182	1862
260.244	833
260.306	785
260.368	1920
260.430	372
260.492	1450
260.554	2714
260.616	2675
260.678	5437
260.740	7870
260.802	1552
260.864	1216
260.926	933
260.988	1860
261.050	173
261.112	524
261.174	6403
261.236	6389
261.298	2354
261.359	2516
261.421	4562
261.483	515
261.545	2621
261.607	13
261.669	2559
261.731	1295
261.793	4711
261.854	1494
261.916	1018
261.978	338
262.040	1089
262.102	741
262.164	1329
262.225	1202
262.287	1395
262.349	2193
262.411	2197
262.472	1548
262.534	387
262.596	3399
262.658	2116
262.719	-110
262.781	1609
262.843	2654
262.904	1873
262.966	1572
263.028	2366
263.090	13215
263.151	45692
263.213	12502
263.275	4065
263.336	1404
263.398	2447
263.459	218
263.521	1049
263.583	2184
263.644	1966
263.706	-437
263.767	-307
263.829	470
263.891	-382
263.952	-381
264.014	-136
264.075	-1002
264.137	592
264.198	801
264.260	-275
264.321	526
264.383	850
264.444	1613
264.506	-348
264.567	623
264.629	1516
264.690	-1059
264.752	297
264.813	316
264.875	163
264.936	-490
264.998	-426
265.059	-849
265.120	-31
265.182	-317
265.243	2339
265.305	1975
265.366	284
265.427	-243
265.489	469
265.550	-1390
265.611	263
265.673	-715
265.734	-533
265.795	19
265.857	-950
265.918	-304
265.979	723
266.040	4622
266.102	5180
266.163	675
266.224	826
266.286	878
266.347	-522
266.408	-581
266.469	1243
266.530	-966
266.592	38
266.653	453
266.714	1695
266.775	565
266.836	-4
266.898	-633
266.959	112
267.020	-219
267.081	1361
267.142	237
267.203	81
267.264	-938
267.326	1514
267.387	519
267.448	630
267.509	283
267.570	560
267.631	21
267.692	-583
267.753	568
267.814	-133
267.875	927
267.936	2889
267.997	-21
268.058	693
268.119	618
268.180	199
268.241	255
268.302	789
268.363	-496
268.424	194
268.485	594
268.546	-126
268.607	-498
268.668	-485
268.729	429
268.790	544
268.851	416
268.912	1391
268.972	1350
269.033	498
269.094	-731
269.155	-10
269.216	-137
269.277	861
269.338	401
269.398	338
269.459	122
269.520	582
269.581	1207
269.642	1563
269.702	396
269.763	625
269.824	782
269.885	1100
269.945	1669
270.006	883
270.067	-580
270.128	202
270.188	-872
270.249	-128
270.310	-305
270.370	738
270.431	477
270.492	-262
270.553	-390
270.613	1012
270.674	3688
270.734	1251
270.795	214
270.856	1513
270.916	212
270.977	621
271.038	859
271.098	116
271.159	938
271.219	1348
271.280	565
271.340	329
271.401	-169
271.462	1003
271.522	688
271.583	26
271.643	428
271.704	432
271.764	50
271.825	2099
271.885	10625
271.946	20113
272.006	4471
272.066	7129
272.127	16367
272.187	3909
272.248	1306
272.308	2247
272.369	10343
272.429	5470
272.489	1656
272.550	1457
272.610	2242
272.671	1487
272.731	448
272.791	1882
272.852	352
272.912	739
272.972	68
273.033	98
273.093	287
273.153	1035
273.214	14
273.274	749
273.334	2743
273.394	12112
273.455	3915
273.515	3468
273.575	8118
273.635	3564
273.696	4441
273.756	13260
273.816	4142
273.876	1740
273.936	2115
273.997	6585
274.057	600
274.117	788
274.177	1556
274.237	12749
274.297	13075
274.358	5418
274.418	9063
274.478	5813
274.538	939
274.598	972
274.658	3683
274.718	5780
274.778	2039
274.838	665
274.898	1049
274.958	7799
275.018	11740
275.078	9268
275.138	1159
275.198	801
275.258	500
275.318	183
275.378	1633
275.438	1957
275.498	852
275.558	3419
275.618	10384
275.678	7930
275.738	3287
275.798	1954
275.858	378
275.918	3
275.978	113
276.038	853
276.098	532
276.157	486
276.217	5284
276.277	2564
276.337	694
276.397	365
276.457	181
276.517	509
276.576	-561
276.636	-34
276.696	-233
276.756	2979
276.815	1654
276.875	-406
276.935	-358
276.995	-434
277.055	-727
277.114	482
277.174	-179
277.234	4468
277.293	536
277.353	633
277.413	-56
277.472	109
277.532	-444
277.592	1134
277.651	2695
277.711	7927
277.771	908
277.830	8391
277.890	7155
277.950	5105
278.009	19771
278.069	6714
278.128	4737
278.188	7027
278.248	1900
278.307	6608
278.367	4740
278.426	1080
278.486	570
278.545	229
278.605	197
278.664	522
278.724	271
278.783	3671
278.843	14904
278.902	3244
278.962	-41
279.021	1343
279.081	975
279.140	368
279.199	441
279.259	1005
279.318	483
279.378	2113
279.437	2933
279.496	21098
279.556	54009
279.615	45169
279.675	8992
279.734	4938
279.793	7211
279.853	17065
279.912	5964
279.971	2318
280.031	1969
280.090	6040
280.149	12937
280.208	6483
280.268	33353
280.327	41935
280.386	7936
280.445	4399
280.505	4907
280.564	2436
280.623	356
280.682	2422
280.742	4059
280.801	1101
280.860	-533
280.919	602
280.978	311
281.037	89
281.097	-351
281.156	389
281.215	-527
281.274	345
281.333	6741
281.392	5438
281.451	248
281.510	200
281.569	-650
281.628	-80
281.688	72
281.747	550
281.806	1
281.865	660
281.924	-762
281.983	-61
282.042	-1162
282.101	-655
282.160	-880
282.219	393
282.278	-683
282.337	1734
282.396	1518
282.454	-120
282.513	169
282.572	3802
282.631	2775
282.690	-47
282.749	-794
282.808	425
282.867	-289
282.926	224
282.985	-547
283.043	126
283.102	-1114
283.161	-68
283.220	1317
283.279	5110
283.338	1689
283.396	127
283.455	-702
283.514	-649
283.573	487
283.631	1076
283.690	820
283.749	229
283.808	1036
283.866	1360
283.925	-428
283.984	-380
284.043	-1141
284.101	-316
284.160	-431
284.219	222
284.277	79
284.336	919
284.395	6051
284.453	6871
284.512	530
284.570	1246
284.629	752
284.688	640
284.746	289
284.805	634
284.863	1073
284.922	1610
284.981	1348
285.039	3350
285.098	7989
285.156	25566
285.215	99776
285.273	104172
285.332	32726
285.390	15418
285.449	7978
285.507	5417
285.566	2658
285.624	2960
285.683	1352
285.741	798
285.799	-138
285.858	725
285.916	-424
285.975	-90
286.033	326
286.091	328
286.150	-478
286.208	1361
286.267	391
286.325	487
286.383	-396
286.442	766
286.500	-265
286.558	-217
286.616	-213
286.675	-638
286.733	-33
286.791	-845
286.850	161
286.908	1004
286.966	1548
287.024	274
287.083	-347
287.141	-363
287.199	127
287.257	960
287.315	1168
287.374	754
287.432	1287
287.490	1603
287.548	-368
287.606	597
287.664	138
287.723	417
287.781	1415
287.839	1529
287.897	1038
287.955	2091
288.013	5631
288.071	16222
288.129	63928
288.187	192777
288.245	91300
288.303	27065
288.361	14204
288.419	8845
288.477	5954
288.535	4433
288.593	2200
288.651	2029
288.709	506
288.767	713
288.825	-381
288.883	348
288.941	-336
288.999	71
289.057	-623
289.115	-517
289.173	-330
289.231	-142
289.289	263
289.346	-826
289.404	-378
289.462	-794
289.520	-455
289.578	195
289.636	-406
289.694	-1117
289.751	-438
289.809	-211
289.867	-1176
289.925	247
289.983	-570
290.040	-383
290.098	-481
290.156	434
290.214	-696
290.271	-1162
290.329	-1030
290.387	-755
290.444	-468
290.502	-621
290.560	-535
290.617	-488
290.675	-717
290.733	-711
290.790	-748
290.848	313
290.906	-1521
290.963	-568
291.021	-1054
291.078	-641
291.136	-700
291.194	901
291.251	3716
291.309	-301
291.366	-925
291.424	-850
291.481	-824
291.539	-1067
291.596	-1421
291.654	-1011
291.711	-1209
291.769	-471
291.826	471
291.884	420
291.941	-1059
291.999	-206
292.056	-1731
292.114	-472
292.171	-1521
292.228	-768
292.286	230
292.343	96
292.401	-367
292.458	43
292.515	-1092
292.573	-385
292.630	-925
292.687	-136
292.745	-734
292.802	-1232
292.859	368
292.917	5431
292.974	2939
293.031	214
293.089	-1183
293.146	-1451
293.203	-1247
293.260	-621
293.318	-730
293.375	-999
293.432	-1082
293.489	-777
293.546	-1511
293.604	-393
293.661	3184
293.718	15395
293.775	5129
293.832	1136
293.889	-543
293.947	508
294.004	620
294.061	-303
294.118	1121
294.175	3709
294.232	1306
294.289	122
294.346	-95
294.403	200
294.460	-1168
294.517	-422
294.574	-834
294.631	-796
294.688	-166
294.745	3427
294.802	13623
294.859	9203
294.916	1724
294.973	1448
295.030	789
295.087	-412
295.144	123
295.201	421
295.258	-263
295.315	364
295.372	4424
295.429	11757
295.486	4118
295.542	913
295.599	-171
295.656	812
295.713	2301
295.770	9847
295.827	1895
295.883	800
295.940	-295
295.997	45
296.054	40
296.111	-309
296.167	-504
296.224	-655
296.281	-953
296.338	-1654
296.394	-1342
296.451	-1090
296.508	2060
296.564	6803
296.621	4576
296.678	12004
296.734	21435
296.791	6519
296.848	1631
296.904	1684
296.961	5043
297.018	12246
297.074	9128
297.131	2607
297.187	935
297.244	2758
297.301	12259
297.357	30532
297.414	9592
297.470	2737
297.527	821
297.583	0
297.640	-152
297.696	137
297.753	-309
297.809	-949
297.866	-1047
297.922	-454
297.979	-1361
298.035	-115
298.092	-274
298.148	5157
298.204	5431
298.261	1865
298.317	4171
298.374	17114
298.430	11682
298.486	2682
298.543	903
298.599	29
298.656	1241
298.712	4766
298.768	20854
298.824	19144
298.881	4830
298.937	1910
298.993	36
299.050	385
299.106	-899
299.162	-837
299.218	-479
299.275	-594
299.331	-117
299.387	2410
299.443	13815
299.500	16655
299.556	4249
299.612	693
299.668	602
299.724	-405
299.780	448
299.837	285
299.893	1504
299.949	7569
300.005	9962
300.061	8339
300.117	19313
300.173	9488
300.229	1819
300.285	2587
300.341	1746
300.397	201
300.453	-1179
300.510	-671
300.566	-1045
300.622	-637
300.678	700
300.734	6210
300.790	8202
300.845	15204
300.901	6270
300.957	7234
301.013	5958
301.069	1815
301.125	440
301.181	597
301.237	-174
301.293	-1091
301.349	-491
301.405	-730
301.461	-911
301.516	-244
301.572	-493
301.628	776
301.684	695
301.740	1695
301.796	4683
301.851	3254
301.907	4386
301.963	7055
302.019	14292
302.074	46960
302.130	51249
302.186	22308
302.242	6573
302.297	2801
302.353	2439
302.409	6141
302.464	5718
302.520	4379
302.576	11429
302.631	16008
302.687	7003
302.743	1333
302.798	114
302.854	85
302.910	-254
302.965	-246
303.021	926
303.076	1709
303.132	1506
303.187	2072
303.243	-235
303.299	-292
303.354	-909
303.410	-812
303.465	-1262
303.521	-24
303.576	-572
303.632	676
303.687	2370
303.743	13048
303.798	12787
303.853	3982
303.909	9
303.964	884
304.020	875
304.075	2200
304.130	1086
304.186	2704
304.241	4584
304.297	1957
304.352	19
304.358	88
304.407	649
304.449	-424
304.463	-788
304.518	-602
304.539	-826
304.573	-1174
304.629	442
304.630	473
304.684	1826
304.720	5873
304.739	7950
304.794	16994
304.811	14173
304.850	7445
304.902	1832
304.905	1470
304.960	308
304.992	-361
305.015	-871
305.071	53
305.083	-147
305.126	-822
305.173	-423
305.181	-368
305.236	-1405
305.264	-995
305.292	-548
305.347	-1185
305.354	-1116
305.402	-654
305.445	-537
305.457	-515
305.512	200
305.535	-7
305.567	-312
305.622	19
305.626	114
305.678	1987
305.716	6344
305.733	8045
305.788	12050
305.807	10240
305.843	7127
305.897	10972
305.898	11015
305.953	13566
305.988	8038
306.008	4970
306.063	1506
306.078	1269
306.118	689
306.168	6
306.173	-62
306.228	215
306.259	59
306.283	-15
306.338	-658
306.349	-663
306.393	-798
306.440	-466
306.448	-378
306.503	-1024
306.530	-780
306.558	-433
306.613	365
306.620	546
306.668	1799
306.711	5439
306.723	6301
306.778	5504
306.801	4270
306.833	2643
306.888	486
306.892	462
306.943	496
306.982	91
306.997	-89
307.052	210
307.072	34
307.107	-235
307.162	-160
307.163	-165
307.217	-457
307.253	-22
307.272	185
307.327	-617
307.343	-444
307.381	34
307.434	-149
307.436	-136
307.491	973
307.524	2139
307.546	2592
307.600	4107
307.614	3399
307.655	1430
307.704	715
307.710	651
307.765	-145
307.795	-4
307.819	204
307.874	672
307.885	708
307.929	564
307.975	583
307.984	680
308.038	1219
308.065	2114
308.093	5351
308.148	13954
308.156	16301
308.202	28668
308.246	38599
308.257	38527
308.312	17179
308.336	10954
308.366	7747
308.421	4808
308.426	4523
308.475	2070
308.517	877
308.530	684
308.585	885
308.607	883
308.639	582
308.694	34
308.697	35
308.748	860
308.787	1206
308.803	1087
308.857	613
308.877	619
308.912	867
308.967	589
308.967	590
309.021	1416
309.058	2330
309.076	3186
309.130	7150
309.148	8688
309.185	22269
309.238	47103
309.239	47210
309.293	57127
309.328	48638
309.348	40600
309.402	14206
309.418	8883
309.457	5355
309.508	3220
309.511	3091
309.566	2809
309.598	2617
309.620	3050
309.674	4561
309.688	5122
309.729	4768
309.778	2444
309.783	2344
309.837	1492
309.868	1512
309.892	1805
309.946	3352
309.959	3919
310.001	5366
310.049	6295
310.055	6214
310.109	4091
310.139	2783
310.163	1934
310.218	1043
310.229	834
310.272	388
310.319	462
310.326	440
310.381	168
310.409	33
310.435	-47
310.489	-410
310.499	-425
310.543	-57
310.589	182
310.598	121
310.652	-60
310.679	-297
310.706	-177
310.760	280
310.769	329
310.814	118
310.859	-157
310.868	-57
310.923	683
310.948	963
310.977	552
311.031	-278
311.038	-376
311.085	-383
311.128	-528
311.139	-415
311.193	366
311.218	552
311.247	674
311.301	1174
311.308	1216
311.356	683
311.398	182
311.410	177
311.464	221
311.488	191
311.518	131
311.572	18
311.578	12
311.626	280
311.668	439
311.680	395
311.734	220
311.758	117
311.788	292
311.842	661
311.847	691
311.896	695
311.937	731
311.950	665
312.004	333
312.027	195
312.058	12
312.112	-319
312.117	-346
312.165	-235
312.207	-129
312.297	43
312.386	-257
312.476	245
312.566	1067
312.656	-16
312.745	255
312.835	-268
312.925	-148
313.015	-160
313.104	113
313.194	-261
313.284	341
313.374	-456
313.463	-80
313.553	32
313.643	352
313.732	-348
313.822	477
313.912	35
314.001	206
314.091	-251
314.180	127
314.270	-225
314.360	-323
314.449	-199
314.539	-50
314.628	602
314.718	92
314.808	-252
314.897	-304
314.987	-328
315.076	-415
315.166	-140
315.255	379
315.345	-446
315.434	105
315.524	218
315.613	-178
315.703	85
315.792	1277
315.881	2530
315.971	518
316.060	345
316.150	612
316.239	2
316.328	360
316.418	-163
316.507	-313
316.597	-610
316.686	77
316.775	-431
316.865	746
316.954	81
317.043	91
317.133	-389
317.222	-139
317.311	-262
317.400	-557
317.490	562
317.579	-28
317.668	-57
317.757	385
317.847	1417
317.936	5407
318.025	1603
318.114	782
318.203	-139
318.293	367
318.382	128
318.471	183
318.560	623
318.649	176
318.738	-123
318.828	150
318.917	-279
319.006	92
319.095	378
319.184	1022
319.273	892
319.362	278
319.451	-630
319.540	-42
319.629	807
319.718	1497
319.807	-852
319.896	-210
319.985	1445
320.074	463
320.163	-61
320.252	-16
320.341	-697
320.430	0
320.519	-193
320.608	564
320.697	-95
320.786	395
320.875	230
320.964	755
321.053	575
321.142	1175
321.230	1269
321.319	560
321.408	1197
321.497	132
321.586	354
321.675	697
321.764	479
321.852	433
321.941	811
322.030	1017
322.119	-310
322.207	2601
322.296	1181
322.385	27
322.474	490
322.562	3901
322.651	496
322.740	972
322.829	589
322.917	754
323.006	403
323.095	1195
323.183	-557
323.272	479
323.361	625
323.449	2929
323.538	683
323.626	1438
323.715	458
323.804	241
323.892	307
323.981	1052
324.069	240
324.158	934
324.246	889
324.335	117
324.424	490
324.512	136
324.601	-54
324.689	288
324.778	297
324.866	1412
324.954	394
325.043	12
325.131	-938
325.220	906
325.308	315
325.397	446
325.485	-213
325.574	117
325.662	-196
325.750	-232
325.839	1076
325.927	-142
326.015	376
326.104	-553
326.192	-146
326.280	-267
326.369	-59
326.457	253
326.545	-138
326.634	-410
326.722	24
326.810	388
326.898	173
326.987	143
327.075	237
327.163	1166
327.251	-530
327.340	166
327.428	-116
327.516	-170
327.604	-255
327.692	-79
327.781	-140
327.869	-468
327.957	37
328.045	197
328.133	-167
328.221	-155
328.309	317
328.397	469
328.485	-748
328.574	505
328.662	652
328.750	578
328.838	-358
328.926	679
329.014	258
329.102	-123
329.190	682
329.278	977
329.366	-277
329.454	100
329.542	-688
329.630	259
329.718	-87
329.806	-61
329.893	527
329.981	-273
330.069	50
330.157	2646
330.245	4919
330.333	2398
330.421	394
330.509	550
330.597	1848
330.684	932
330.772	-122
330.860	-13
330.948	-15
331.036	207
331.123	-122
331.211	143
331.299	305
331.387	370
331.475	-488
331.562	342
331.650	-284
331.738	113
331.825	133
331.913	188
332.001	634
332.089	727
332.176	-301
332.264	1180
332.352	253
332.439	-123
332.527	-133
332.614	-792
332.702	93
332.790	189
332.877	186
332.965	579
333.052	-52
333.140	1070
333.228	69
333.315	26
333.403	-130
333.490	533
333.578	-95
333.665	1357
333.753	510
333.840	470
333.928	-392
334.015	486
334.103	832
334.190	710
334.278	633
334.365	-4
334.452	152
334.540	47
334.627	307
334.715	1372
334.802	13
334.889	2468
334.977	1916
335.064	1294
335.151	-63
335.239	1016
335.326	317
335.413	498
335.501	666
335.588	289
335.675	64
335.762	1145
335.850	556
335.937	280
336.024	841
336.111	3014
336.199	772
336.286	140
336.373	153
336.460	-196
336.547	596
336.635	1308
336.722	-87
336.809	349
336.896	599
336.983	161
337.070	1676
337.157	1710
337.245	1498
337.332	797
337.419	-131
337.506	-66
337.593	49
337.680	763
337.767	344
337.854	1130
337.941	667
338.028	318
338.115	-461
338.202	745
338.289	458
338.376	1536
338.463	-107
338.550	391
338.637	268
338.724	593
338.811	1014
338.898	504
338.984	32
339.071	493
339.158	418
339.245	681
339.332	1108
339.419	1080
339.506	-493
339.593	-122
339.679	255
339.766	433
339.853	301
339.940	1006
340.027	1000
340.113	902
340.200	589
340.287	141
340.374	-917
340.460	541
340.547	-1101
340.634	1508
340.720	1868
340.807	1168
340.894	740
340.980	719
341.067	233
341.154	525
341.240	-66
341.327	1056
341.414	475
341.500	14
341.587	562
341.674	822
341.760	1012
341.847	1313
341.933	-232
342.020	-111
342.106	4
342.193	-101
342.279	-224
342.366	474
342.452	997
342.539	411
342.625	1030
342.712	2283
342.798	11
342.885	-7
342.971	-648
343.058	-405
343.144	-268
343.230	129
343.317	-519
343.403	256
343.490	-143
343.576	481
343.662	265
343.749	521
343.835	-299
343.921	2255
344.008	14040
344.094	24591
344.180	3970
344.267	1802
344.353	3581
344.439	3171
344.525	1235
344.612	872
344.698	181
344.784	-559
344.870	528
344.957	70
345.043	782
345.129	157
345.215	1031
345.301	336
345.387	511
345.474	-2
345.560	-280
345.646	-188
345.732	667
345.818	122
345.904	108
345.990	76
346.076	-296
346.162	358
346.249	371
346.335	285
346.421	-38
346.507	2253
346.593	6119
346.679	290
346.765	457
346.851	147
346.937	-582
347.023	1195
347.108	-216
347.194	760
347.280	53
347.366	921
347.452	2203
347.538	8279
347.624	6276
347.710	2754
347.796	-295
347.882	163
347.967	-199
348.053	414
348.139	-878
348.225	359
348.311	-315
348.397	-344
348.482	-55
348.568	506
348.654	-653
348.740	-448
348.825	-1485
348.911	2098
348.997	4252
349.083	7816
349.168	-907
349.254	-35
349.340	-40
349.425	670
349.511	-610
349.597	311
349.682	857
349.768	3671
349.854	360
349.939	1021
350.025	-434
350.110	878
350.196	-560
350.282	-568
350.367	157
350.453	709
350.538	-496
350.624	-641
350.709	-254
350.795	193
350.880	-215
350.966	695
351.051	-564
351.137	135
351.222	443
351.308	1075
351.393	2038
351.479	233
351.564	-1094
351.649	477
351.735	-716
351.820	-178
351.906	-402
351.991	152
352.076	1034
352.162	2260
352.247	-74
352.332	339
352.418	-1241
352.503	622
352.588	3826
352.673	1251
352.759	245
352.844	-617
352.929	278
353.014	-760
353.100	243
353.185	559
353.270	20
353.355	1284
353.441	14
353.526	357
353.611	-216
353.696	-476
353.781	726
353.866	-82
353.952	897
354.037	254
354.122	1385
354.207	963
354.292	-306
354.377	-238
354.462	-494
354.547	-200
354.632	-466
354.717	213
354.802	-1010
354.887	-21
354.972	-677
355.057	-277
355.142	-999
355.227	899
355.312	-376
355.397	713
355.482	1321
355.567	452
355.652	938
355.737	1144
355.822	2946
355.907	1286
355.991	802
356.076	-444
356.161	-261
356.246	-1181
356.331	-90
356.416	1254
356.501	10821
356.585	8397
356.670	-899
356.755	1641
356.840	455
356.924	8279
357.009	24727
357.094	6988
357.179	530
357.263	-76
357.348	-93
357.433	-124
357.517	502
357.602	353
357.687	-823
357.771	924
357.856	137
357.941	662
358.025	8208
358.110	35163
358.195	11227
358.279	1195
358.364	487
358.448	2749
358.533	5606
358.617	4144
358.702	3213
358.787	1034
358.871	357
358.956	13
359.040	-1020
359.125	-185
359.209	104
359.294	298
359.378	-705
359.462	-226
359.547	-486
359.631	-10
359.716	-1099
359.800	-285
359.885	391
359.969	-162
360.053	-94
360.138	-803
360.222	-251
360.306	504
360.391	-402
360.475	-273
360.559	1075
360.644	764
360.728	520
360.812	6822
360.896	14031
360.981	3434
361.065	-584
361.149	714
361.233	-405
361.318	-1020
361.402	-721
361.486	285
361.570	-942
361.654	705
361.739	1186
361.823	9411
361.907	14310
361.991	918
362.075	-166
362.159	68
362.243	296
362.327	-748
362.411	1444
362.495	-196
362.580	-1288
362.664	-293
362.748	-1774
362.832	-536
362.916	-1631
363.000	3057
363.084	11122
363.168	14914
363.252	2136
363.336	58
363.420	-139
363.503	-274
363.587	-76
363.671	243
363.755	-1090
363.839	1390
363.923	-1196
364.007	206
364.091	-419
364.175	-1210
364.258	1933
364.342	-346
364.426	3187
364.510	447
364.594	1253
364.677	3698
364.761	12049
364.845	7903
364.929	383
365.013	1199
365.096	422
365.180	-270
365.264	-236
365.347	1470
365.431	-383
365.515	-588
365.598	-1743
365.682	94
365.766	-1668
365.849	-22
365.933	-672
366.017	1346
366.100	-1518
366.184	-1355
366.267	224
366.351	62
366.435	-888
366.518	-893
366.602	-1307
366.685	-322
366.769	-886
366.852	-768
366.936	-862
367.019	103
367.103	-1986
367.186	-338
367.270	-860
367.353	-850
367.436	-748
367.520	-651
367.603	-1183
367.687	-785
367.770	-345
367.853	282
367.937	3375
368.020	4037
368.104	-1087
368.187	122
368.270	92
368.353	-441
368.437	-320
368.520	590
368.603	-304
368.687	1423
368.770	3589
368.853	317
368.936	11
369.020	134
369.103	-790
369.186	-430
369.269	-1249
369.352	77
369.436	-862
369.519	-65
369.602	-1873
369.685	89
369.768	-1329
369.851	-8
369.934	-1542
370.018	-399
370.101	-716
370.184	1632
370.267	535
370.350	-102
370.433	226
370.516	5595
370.599	5170
370.682	-931
370.765	1891
370.848	3745
370.931	5262
371.014	1721
371.097	-1638
371.180	233
371.263	-245
371.346	-2276
371.429	-593
371.511	-1025
371.594	-1617
371.677	315
371.760	42
371.843	680
371.926	12815
372.009	28872
372.091	7765
372.174	2576
372.257	7157
372.340	1136
372.423	-659
372.505	949
372.588	-535
372.671	2589
372.754	5300
372.836	1576
372.919	204
373.002	497
373.085	-1025
373.167	974
373.250	2653
373.332	6758
373.415	17388
373.498	34604
373.580	10748
373.663	17279
373.746	20597
373.828	2308
373.911	874
373.993	-649
374.076	42
374.159	-215
374.241	584
374.324	4850
374.406	2570
374.489	10542
374.571	23956
374.654	6213
374.736	4006
374.819	14299
374.901	23856
374.983	21050
375.066	2577
375.148	-455
375.231	-815
375.313	1147
375.395	-1631
375.478	-517
375.560	-828
375.643	-120
375.725	3188
375.807	17486
375.890	10161
375.972	-1007
376.054	-598
376.136	-106
376.219	-754
376.301	5072
376.383	10783
376.465	2567
376.548	405
376.630	2277
376.712	9490
376.794	2218
376.877	-849
376.959	-1539
377.041	-552
377.123	-818
377.205	-1499
377.287	-930
377.369	-334
377.452	-1117
377.534	-1238
377.616	-734
377.698	-484
377.780	-1319
377.862	-1585
377.944	-51
378.026	-1858
378.108	-416
378.190	-1614
378.272	251
378.354	-1036
378.436	-746
378.518	-2602
378.600	-155
378.682	-413
378.764	1801
378.846	1279
378.928	-1131
379.010	-1737
379.091	-154
379.173	-185
379.255	-1080
379.337	-813
379.419	878
379.501	4108
379.583	363
379.664	-828
379.746	-685
379.828	2836
379.910	2975
379.991	2614
380.073	-1557
380.155	-1489
380.237	-958
380.318	-1406
380.400	-825
380.482	-486
380.564	-113
380.645	-947
380.727	-556
380.809	277
380.890	-711
380.972	-2133
381.053	-1565
381.135	-100
381.217	149
381.298	3101
381.380	-112
381.461	-407
381.543	9605
381.624	8988
381.706	-331
381.787	-1362
381.869	533
381.951	6087
382.032	25220
382.113	12338
382.195	-1336
382.276	841
382.358	2201
382.439	8491
382.521	13002
382.602	19675
382.684	5560
382.765	8902
382.846	6652
382.928	8468
383.009	1958
383.090	1531
383.172	14492
383.253	19909
383.334	7622
383.416	11915
383.497	4786
383.578	-436
383.659	957
383.741	11649
383.822	35540
383.903	11788
383.984	6679
384.066	13712
384.147	5211
384.228	-572
384.309	-79
384.390	-1621
384.471	-397
384.553	-1167
384.634	-687
384.715	-913
384.796	-896
384.877	-1104
384.958	2458
385.039	1148
385.120	-477
385.201	-438
385.282	-789
385.363	-507
385.444	-1312
385.525	1264
385.606	7380
385.687	4486
385.768	214
385.849	123
385.930	14583
386.011	20940
386.092	1843
386.173	-503
386.254	-1059
386.335	-167
386.416	-846
386.496	677
386.577	2083
386.658	-608
386.739	-2117
386.820	-457
386.901	-1519
386.981	-1309
387.062	-1213
387.143	-1501
387.224	1740
387.304	512
387.385	45
387.466	-2675
387.547	106
387.627	-1952
387.708	891
387.789	6117
387.869	6906
387.950	1383
388.031	-417
388.111	-3221
388.192	-459
388.273	75
388.353	-972
388.434	-1263
388.514	1800
388.595	10645
388.676	9217
388.756	2167
388.837	1786
388.917	-277
388.998	-2033
389.078	-908
389.159	50
389.239	-2660
389.320	908
389.400	-2634
389.480	902
389.561	2294
389.641	1316
389.722	-583
389.802	-1166
389.883	1088
389.963	5808
390.043	167
390.124	-2309
390.204	617
390.284	2687
390.365	886
390.445	7134
390.525	43734
390.605	36201
390.686	2479
390.766	1200
390.846	-113
390.927	-1041
391.007	-1894
391.087	536
391.167	-1603
391.247	-2206
391.328	-545
391.408	-782
391.488	-654
391.568	-2164
391.648	-1241
391.728	-7
391.808	-82
391.888	-785
391.969	942
392.049	1066
392.129	-260
392.209	1047
392.289	4906
392.369	281
392.449	-616
392.529	-992
392.609	301
392.689	1014
392.769	3947
392.849	2729
392.929	3015
393.009	4766
393.089	1604
393.169	3599
393.248	16765
393.328	110359
393.408	110420
393.488	16765
393.568	2081
393.648	404
393.728	-1340
393.807	-1198
393.887	678
393.967	-513
394.047	-807
394.127	-549
394.206	898
394.286	9086
394.366	61595
394.446	59976
394.525	6858
394.605	-40
394.685	76
394.764	287
394.844	-1214
394.924	-1068
395.003	-592
395.083	-475
395.163	-728
395.242	-1464
395.322	-197
395.402	-1964
395.481	484
395.561	-1571
395.640	599
395.720	385
395.799	-132
395.879	-755
395.958	838
396.038	13833
396.117	81467
396.197	79908
396.276	11561
396.356	97
396.435	-523
396.515	1049
396.594	-841
396.673	3352
396.753	26192
396.832	105331
396.912	61199
396.991	5944
397.070	249
397.150	-1532
397.229	163
397.308	-348
397.388	-1050
397.467	207
397.546	-900
397.625	-2808
397.705	-580
397.784	-1427
397.863	-2021
397.942	-1032
398.022	-2031
398.101	-1908
398.180	-702
398.259	-1096
398.338	-717
398.417	-1225
398.497	-2030
398.576	-694
398.655	-2292
398.734	-1140
398.813	-1179
398.892	-975
398.971	-388
399.050	-1795
399.129	-2767
399.208	-1274
399.287	-971
399.366	-1138
399.445	-2584
399.524	-1033
399.603	-3488
399.682	-646
399.761	-1147
399.840	-361
399.919	-949
399.998	-1629
400.077	-3000
400.156	-1827
400.235	173
400.313	-1673
400.392	-2330
400.471	1110
400.550	-140
400.629	-913
400.708	-1675
400.786	-2196
400.865	-2217
400.944	-1968
401.023	-13
401.102	-1705
401.180	-1393
401.259	-1096
401.338	-1693
401.416	-856
401.495	-3173
401.574	-493
401.652	-2370
401.731	-92
401.810	-2632
401.888	-1316
401.967	-2125
402.046	-1535
402.124	-1510
402.203	-2797
402.281	-662
402.360	-1937
402.438	-1558
402.517	-2588
402.596	-949
402.674	-1687
402.753	-1640
402.831	-1108
402.910	-500
402.988	165
403.066	3045
403.145	2299
403.223	838
403.302	2254
403.380	1545
403.459	605
403.537	-2348
403.615	-1164
403.694	-2380
403.772	-1003
403.850	-1355
403.929	-2720
404.007	-2060
404.085	-31
404.164	-2674
404.242	-1854
404.320	-835
404.398	345
404.477	1071
404.555	13707
404.633	7642
404.711	225
404.789	-1054
404.868	-1539
404.946	-2342
405.024	-1565
405.102	-2405
405.180	-2301
405.258	-3821
405.336	-1673
405.415	-2772
405.493	-951
405.571	-1238
405.649	-2214
405.727	-3076
405.805	-1084
405.883	-1633
405.961	-1234
406.039	-2473
406.117	-3273
406.195	-1298
406.273	-166
406.351	7758
406.429	4250
406.507	-1598
406.585	-1999
406.663	-1608
406.740	-1319
406.818	-2985
406.896	-1987
406.974	-539
407.052	-2364
407.130	3400
407.208	4684
407.285	-872
407.363	-2070
407.441	-2164
407.519	-1874
407.596	-946
407.674	-108
407.752	5710
407.830	4236
407.907	-1259
407.985	-2217
408.063	-832
408.141	-1516
408.218	-1327
408.296	-2831
408.373	-2077
408.451	-1499
408.529	-2077
408.606	-2015
408.684	-2119
408.762	-2223
408.839	-1932
408.917	-2039
408.994	-2401
409.072	-2590
409.149	-2439
409.227	-1710
409.304	-2125
409.382	-2032
409.459	-2237
409.537	-1742
409.614	-1740
409.692	-2105
409.769	-2581
409.846	-1423
409.924	-1335
410.001	-4285
410.079	-2076
410.156	-772
410.233	-2725
410.311	-1832
410.388	-2023
410.465	-1346
410.543	-3062
410.620	-1144
410.697	-1973
410.775	-1862
410.852	-3193
410.929	-1261
411.006	-1798
411.083	-2303
411.161	-2706
411.238	-2211
411.315	-2103
411.392	-1606
411.469	-1606
411.547	-1555
411.624	-3703
411.701	-2344
411.778	-1632
411.855	-2405
411.932	-2565
412.009	-2232
412.086	-1924
412.163	-1811
412.240	-2867
412.317	-2257
412.394	-2318
412.471	-1614
412.548	-2184
412.625	-2128
412.702	-2495
412.779	-2554
412.856	-2690
412.933	-2795
413.010	-2625
413.087	-1770
413.164	-1546
413.241	-724
413.318	-2804
413.395	-1390
413.471	-1896
413.548	-2000
413.625	-1698
413.702	-3264
413.779	-2324
413.855	-2278
413.932	-2464
414.009	-2569
414.086	-1968
414.162	-1417
414.239	-1310
414.316	-674
414.393	1552
414.469	-2216
414.546	-3051
414.623	-1676
414.699	-2266
414.776	-2022
414.853	-3128
414.929	-975
415.006	-2613
415.082	-1926
415.159	-2205
415.236	-1512
415.312	-1647
415.389	-1222
415.465	-3229
415.542	-2136
415.618	-3783
415.695	-1469
415.771	-3205
415.848	-2601
415.924	-1682
416.000	-2478
416.077	-950
416.153	-2568
416.230	-3352
416.306	-2302
416.383	-2959
416.459	-1779
416.535	-2615
416.612	-2453
416.688	-2596
416.764	-2798
416.841	-3119
416.917	-2357
416.993	-1732
417.069	-1575
417.146	-2986
417.222	-2037
417.298	-2892
417.374	-2732
417.451	-2326
417.527	-2294
417.603	-1808
417.679	-1601
417.755	-2316
417.831	-2670
417.908	-1985
417.984	-2632
418.060	-3244
418.136	-1659
418.212	-2510
418.288	-2032
418.364	-1992
418.440	-2665
418.516	-1825
418.592	-1999
418.668	-2707
418.744	-2642
418.820	-1662
418.896	-2531
418.972	-2958
419.048	-2240
419.124	-1192
419.200	-3470
419.276	-2211
419.352	-3635
419.428	-3269
419.504	-2066
419.579	-2151
419.655	-2342
419.731	-2307
419.807	-1746
419.883	-1593
419.959	-1484
420.034	-1894
420.110	-1639
420.186	-1660
420.262	-519
420.337	-2893
420.413	-2039
420.489	-2514
420.565	-952
420.640	-2721
420.716	-1636
420.792	-3648
420.867	-1348
420.943	-2806
421.019	-2863
421.094	-3126
421.170	-2239
421.245	-3435
421.321	-2413
421.397	-3288
421.472	-373
421.548	398
421.623	195
421.699	-2887
421.774	-2102
421.850	-3147
421.925	-1935
422.001	-2209
422.076	-2121
422.152	-3158
422.227	-1871
422.302	-1699
422.378	-2068
422.453	-1085
422.529	3275
422.604	28717
422.679	61697
422.755	21297
422.830	1493
422.905	-1125
422.981	-2361
423.056	-2648
423.131	-1450
423.207	-2540
423.282	-2071
423.357	-1827
423.432	-2208
423.508	-2085
423.583	-2546
423.658	-2300
423.733	-2042
423.808	-2894
423.883	-1272
423.959	-2971
424.034	-2678
424.109	-2591
424.184	-2582
424.259	-3236
424.334	-2350
424.409	-3009
424.484	-2276
424.559	-3221
424.634	-2252
424.709	-2556
424.784	-2001
424.859	-3244
424.934	-1861
425.009	-1492
425.084	-108
425.159	-2763
425.234	-1579
425.309	-3077
425.384	-2811
425.459	-3699
425.534	-2484
425.609	-3068
425.683	-2634
425.758	-3294
425.833	-2459
425.908	-2571
425.983	-2499
426.058	-584
426.132	-1866
426.207	-2734
426.282	-1133
426.357	-3677
426.431	-2308
426.506	-2709
426.581	-2871
426.655	-2278
426.730	-2536
426.805	-3423
426.879	-2385
426.954	-3396
427.029	-2184
427.103	481
427.178	4969
427.253	-66
427.327	-2063
427.402	-3577
427.476	-2777
427.551	-3528
427.625	-2781
427.700	-2694
427.774	-2467
427.849	-3232
427.923	-3273
427.998	-3036
428.072	-2570
428.147	-2581
428.221	-2044
428.296	633
428.370	-247
428.444	-3099
428.519	-3029
428.593	-3853
428.667	-2255
428.742	-3075
428.816	-2369
428.890	-1049
428.965	218
429.039	-2367
429.113	-3021
429.188	-2744
429.262	-2174
429.336	-2180
429.410	-2097
429.485	-2274
429.559	-2501
429.633	-3186
429.707	-2908
429.781	-2991
429.855	-1300
429.930	40
430.004	-2166
430.078	-1964
430.152	-1256
430.226	4475
430.300	5526
430.374	-2907
430.448	-1922
430.522	-3021
430.596	-2745
430.670	-1931
430.744	4710
430.818	6407
430.892	-413
430.966	-2902
431.040	-2425
431.114	-3799
431.188	-3261
431.262	-3226
431.336	-2942
431.410	-2167
431.484	-3392
431.557	-2361
431.631	-2737
431.705	-3215
431.779	-2744
431.853	428
431.927	-1186
432.000	-2660
432.074	-2279
432.148	-3214
432.222	-2654
432.295	-3016
432.369	-2233
432.443	-2705
432.516	1102
432.590	4917
432.664	752
432.737	-2933
432.811	-2355
432.885	-3366
432.958	-1659
433.032	-3907
433.106	-2840
433.179	-3182
433.253	-2594
433.326	-2526
433.400	-3283
433.473	-3024
433.547	-3859
433.620	-2655
433.694	-3441
433.767	-2369
433.841	-3200
433.914	-3402
433.988	-3169
434.061	-2536
434.134	-2906
434.208	-3425
434.281	-2281
434.355	-3644
434.428	-2192
434.501	-3095
434.575	-2190
434.648	-2787
434.721	-3228
434.795	-3176
434.868	-3063
434.941	-3567
435.014	-2695
435.088	-3357
435.161	-2699
435.234	-2721
435.307	-1843
435.381	-2643
435.454	-3177
435.527	-2434
435.600	-2850
435.673	-2781
435.746	-2892
435.819	-2733
435.892	-2609
435.966	-3033
436.039	-3259
436.112	-2905
436.185	-2560
436.258	-2688
436.331	-3427
436.404	-2671
436.477	-2578
436.550	-3332
436.623	-2499
436.696	-2943
436.769	-2860
436.842	-2641
436.915	-2436
436.987	-2819
437.060	-2554
437.133	-2452
437.206	-2481
437.279	-2447
437.352	-2892
437.425	-2844
437.498	-2590
437.570	-2206
437.643	-2628
437.716	-2537
437.789	-2787
437.861	-2326
437.934	-2884
438.007	-1996
438.080	-2764
438.152	-2396
438.225	-1490
438.298	3724
438.370	13984
438.443	3617
438.516	-2203
438.588	-3140
438.661	-2773
438.734	-2643
438.806	-2390
438.879	-1926
438.951	-2186
439.024	-2604
439.096	-1743
439.169	-2945
439.241	-1762
439.314	-2882
439.386	-2593
439.459	-2117
439.531	-1595
439.604	-2954
439.676	-2062
439.749	-2339
439.821	-3156
439.893	-2861
439.966	-2788
440.038	-3158
440.110	-1985
440.183	-2751
440.255	-2262
440.327	-2453
440.400	-176
440.472	5252
440.544	3395
440.617	-2325
440.689	-1745
440.761	-2702
440.833	-1948
440.905	-2660
440.978	-2482
441.050	-2530
441.122	-1961
441.194	-2896
441.266	-2815
441.338	-2547
441.411	-2162
441.483	-1286
441.555	181
441.627	-1601
441.699	-2264
441.771	-2848
441.843	-2284
441.915	-2733
441.987	-2207
442.059	-2349
442.131	-2204
442.203	-2696
442.275	-2031
442.347	-2178
442.419	-2595
442.491	-832
442.563	1908
442.635	-1469
442.706	-2911
442.778	-2607
442.850	-1935
442.922	-2023
442.994	-2074
443.066	-3024
443.137	-2050
443.209	-2744
443.281	-2002
443.353	-1786
443.425	-333
443.496	3592
443.568	3239
443.640	-422
443.711	-1421
443.783	-2592
443.855	-2106
443.926	-2593
443.998	-2195
444.070	-2240
444.141	-2764
444.213	-2309
444.285	-1671
444.356	-2486
444.428	-2310
444.499	-2439
444.571	-2775
444.642	-2898
444.714	-2057
444.785	-2489
444.857	-2000
444.928	-3213
445.000	-1329
445.071	-1711
445.143	-2547
445.214	-2364
445.285	-1171
445.357	-1340
445.428	2856
445.500	10309
445.571	4669
445.642	69
445.714	-1731
445.785	-2057
445.856	-2311
445.928	-2135
445.999	-1817
446.070	-2583
446.141	-1189
446.213	-1995
446.284	-2304
446.355	-2903
446.426	-2430
446.497	-2157
446.569	-2240
446.640	-2426
446.711	-2342
446.782	-2182
446.853	-2142
446.924	-1944
446.995	-1976
447.066	-2127
447.138	-2289
447.209	-1726
447.280	-1926
447.351	-2323
447.422	-2176
447.493	-2329
447.564	-2130
447.635	-2593
447.706	-1680
447.777	-2325
447.847	-2189
447.918	-3261
447.989	-2111
448.060	-2810
448.131	-1447
448.202	-2743
448.273	-2225
448.344	-1719
448.414	-1016
448.485	-2367
448.556	-1462
448.627	-2386
448.698	-1307
448.768	-2365
448.839	-2765
448.910	-3277
448.981	-2020
449.051	-2108
449.122	-1981
449.193	-2442
449.263	-1667
449.334	-2482
449.405	-1846
449.475	-2084
449.546	-1910
449.616	-2058
449.687	-2222
449.758	-2357
449.828	-2079
449.899	-2383
449.969	-2193
450.040	-2219
450.110	-2069
450.181	-1961
450.251	-2016
450.322	-2252
450.392	-1721
450.463	-2739
450.533	-2461
450.604	-2324
450.674	-2488
450.744	-2367
450.815	-2263
450.885	-1972
450.955	-2456
451.026	-2244
451.096	-2568
451.166	-3121
451.237	-2160
451.307	-2500
451.377	-2445
451.447	-2894
451.518	-2436
451.588	-2509
451.658	-1618
451.728	-2727
451.799	-2459
451.869	-2516
451.939	-2458
452.009	-2732
452.079	-2267
452.149	-2660
452.219	-2757
452.289	-2401
452.360	-1469
452.430	-2749
452.500	-1877
452.570	-1602
452.640	-1734
452.710	-2714
452.780	-1324
452.850	-1803
452.920	-1248
452.990	-2701
453.060	-2144
453.129	-2513
453.199	-2454
453.269	-1986
453.339	-2195
453.409	-2425
453.479	-1903
453.549	-1772
453.619	-2437
453.688	-3177
453.758	-2331
453.828	-2499
453.898	-2043
453.968	-2569
454.037	-2046
454.087	-2725
454.107	-3015
454.168	-2763
454.177	-2741
454.247	-2519
454.249	-2511
454.316	-2569
454.330	-2571
454.386	-2665
454.411	-2544
454.456	-2413
454.492	-2657
454.525	-2866
454.574	-2276
454.595	-2043
454.655	-3065
454.665	-3242
454.734	-2252
454.736	-2253
454.804	-2883
454.817	-2636
454.873	-1647
454.898	-1961
454.943	-2558
454.979	-2271
455.013	-2064
455.060	-2252
455.082	-2340
455.141	-1922
455.152	-1801
455.221	-1046
455.222	-992
455.291	2936
455.303	4929
455.360	12309
455.384	22265
455.430	37931
455.465	30176
455.499	23675
455.546	8581
455.569	1690
455.627	-703
455.638	-1166
455.707	-1580
455.708	-1571
455.777	-2175
455.789	-2112
455.846	-1845
455.869	-1873
455.916	-1999
455.950	-1702
455.985	-1409
456.031	-1938
456.054	-2224
456.112	-2223
456.124	-2223
456.193	-1966
456.193	-1977
456.262	-1848
456.274	-1811
456.332	-1683
456.355	-1788
456.401	-2003
456.436	-2141
456.470	-2311
456.516	-2095
456.540	-2031
456.597	-2751
456.609	-2902
456.678	-1886
456.678	-1893
456.747	-1693
456.759	-1706
456.817	-1646
456.840	-1629
456.886	-1736
456.920	-1830
456.955	-1864
457.001	-1908
457.024	-2050
457.082	-2068
457.093	-2022
457.162	-1790
457.163	-1779
457.232	-1454
457.243	-1479
457.301	-1647
457.324	-1752
457.370	-1956
457.405	-2164
457.439	-2213
457.485	-1791
457.508	-1764
457.566	-1642
457.577	-1591
457.646	-1210
457.647	-1207
457.715	-1584
457.727	-1500
457.784	-962
457.808	-644
457.853	-452
457.889	-372
457.922	-483
457.969	-951
457.991	-934
458.050	-886
458.060	-833
458.129	427
458.130	464
458.198	-212
458.211	-482
458.267	-1538
458.292	-1562
458.336	-1201
458.372	-1449
458.405	-1337
458.453	-704
458.474	-443
458.533	606
458.543	796
458.611	1920
458.614	1970
458.680	-432
458.694	-919
458.749	-854
458.775	-997
458.818	-1530
458.855	-1298
458.887	-972
458.936	-1533
458.955	-1864
459.016	-1604
459.024	-1478
459.093	-821
459.097	-792
459.162	-1125
459.177	-1109
459.230	-655
459.257	-597
459.299	-814
459.338	-958
459.368	-1038
459.418	-951
459.437	-986
459.499	-1283
459.505	-1271
459.574	-473
459.579	-504
459.643	-1235
459.659	-1101
459.711	-722
459.740	-932
459.780	-1401
459.820	-1439
459.849	-1207
459.900	-852
459.917	-824
459.981	-721
459.986	-730
460.054	-1383
460.061	-1360
460.123	-530
460.141	-461
460.191	-182
460.222	189
460.260	304
460.302	242
460.328	71
460.382	370
460.397	404
460.462	-929
460.465	-969
460.534	-174
460.543	-179
460.602	3422
460.623	5082
460.671	10095
460.703	13660
460.739	11693
460.783	8825
460.808	6994
460.864	700
460.876	364
460.944	-388
460.945	-402
461.013	-552
461.024	-622
461.081	-131
461.104	104
461.150	-193
461.184	-170
461.218	-110
461.264	-460
461.286	-547
461.345	-368
461.355	-379
461.423	-518
461.425	-523
461.491	-320
461.505	-303
461.559	-445
461.585	-366
461.628	17
461.665	169
461.696	170
461.745	462
461.764	410
461.825	-551
461.832	-555
461.901	96
461.905	119
461.969	-780
461.985	-873
462.037	177
462.065	457
462.105	-273
462.145	-647
462.173	-385
462.225	-419
462.241	-574
462.305	-660
462.310	-621
462.378	-51
462.385	-11
462.446	-336
462.465	-553
462.514	-408
462.545	90
462.582	-107
462.625	-464
462.650	-244
462.705	-0
462.718	-92
462.785	-734
462.786	-731
462.854	-249
462.865	-192
462.922	-96
462.945	71
462.990	469
463.025	273
463.058	25
463.104	214
463.126	141
463.184	-258
463.194	-160
463.262	461
463.264	480
463.330	553
463.344	589
463.398	671
463.424	652
463.466	198
463.504	-53
463.533	255
463.583	315
463.601	325
463.663	1064
463.669	1049
463.737	339
463.743	266
463.805	455
463.823	583
463.873	719
463.903	752
463.940	909
463.982	941
464.008	673
464.062	531
464.076	607
464.142	469
464.144	457
464.211	-279
464.221	-323
464.279	244
464.301	461
464.347	572
464.381	424
464.414	100
464.461	-153
464.482	-37
464.540	232
464.550	270
464.617	604
464.620	605
464.685	692
464.699	756
464.753	1092
464.779	1128
464.820	1253
464.859	1442
464.888	1175
464.938	706
464.956	886
465.018	1585
465.023	1607
465.091	1532
465.098	1559
465.158	1209
465.177	989
465.226	1316
465.257	1617
465.293	1541
465.336	1340
465.361	1615
465.416	2310
465.428	2279
465.495	1995
465.496	1999
465.563	1420
465.575	1327
465.631	2229
465.654	2654
465.698	1970
465.734	1319
465.765	1334
465.813	1274
465.833	1200
465.893	1033
465.900	1103
465.968	1679
465.972	1703
466.035	1111
466.052	986
466.102	1195
466.131	1237
466.170	1102
466.210	1002
466.237	1335
466.290	1937
466.304	1826
466.369	1268
466.372	1266
466.439	989
466.449	942
466.506	1657
466.528	1915
466.573	2364
466.607	2698
466.641	3006
466.687	3404
466.708	3901
466.766	5221
466.775	4957
466.842	2868
466.845	2759
466.909	1774
466.925	1522
466.977	1881
467.004	2069
467.044	2138
467.083	2189
467.111	2378
467.163	2705
467.178	2694
467.242	2610
467.245	2618
467.312	2618
467.321	2611
467.379	2416
467.400	2337
467.446	2427
467.480	2482
467.559	2385
467.638	1912
467.717	2410
467.796	3380
467.875	3537
467.955	2352
468.034	2122
468.113	2453
468.192	3833
468.271	1993
468.350	1986
468.429	1687
468.508	3053
468.588	2097
468.667	2405
468.746	1269
468.825	1207
468.904	2446
468.983	1355
469.062	1958
469.141	4060
469.220	1933
469.299	2461
469.378	1519
469.456	3542
469.535	2999
469.614	1927
469.693	1952
469.772	3868
469.851	2286
469.930	3147
470.009	1981
470.088	2783
470.166	3914
470.245	5872
470.324	6297
470.403	2824
470.482	2076
470.560	2434
470.639	2459
470.718	4736
470.797	2273
470.875	2938
470.954	2454
471.033	3109
471.111	1599
471.190	1279
471.269	2366
471.347	2048
471.426	1840
471.505	1891
471.583	2175
471.662	1807
471.740	2675
471.819	1991
471.898	1509
471.976	2335
472.055	2084
472.133	2078
472.212	3100
472.290	2471
472.369	1499
472.447	2510
472.526	1909
472.604	2669
472.683	3192
472.761	3364
472.839	1925
472.918	2489
472.996	2613
473.075	2569
473.153	2321
473.231	1897
473.310	2327
473.388	2359
473.466	2120
473.545	3012
473.623	4458
473.701	4154
473.780	2951
473.858	1529
473.936	4415
474.014	2201
474.093	2129
474.171	2692
474.249	3220
474.327	2496
474.405	1586
474.484	3039
474.562	2266
474.640	2317
474.718	2157
474.796	3014
474.874	2390
474.952	2216
475.030	2158
475.108	2024
475.187	2861
475.265	3781
475.343	5471
475.421	7058
475.499	2089
475.577	2275
475.655	3039
475.733	3332
475.811	3214
475.889	1415
475.966	2707
476.044	2837
476.122	4202
476.200	5789
476.278	4376
476.356	1693
476.434	2728
476.512	3438
476.590	4091
476.667	3321
476.745	2572
476.823	2142
476.901	2581
476.979	1885
477.056	1505
477.134	1299
477.212	2228
477.290	2542
477.367	1155
477.445	1981
477.523	2011
477.601	1304
477.678	2163
477.756	2057
477.834	2525
477.911	2450
477.989	2337
478.066	1941
478.144	1013
478.222	3468
478.299	7988
478.377	6529
478.454	2414
478.532	2223
478.609	1416
478.687	2333
478.764	1595
478.842	2294
478.919	2381
478.997	2953
479.074	1730
479.152	1715
479.229	2373
479.307	1045
479.384	1582
479.461	2192
479.539	1419
479.616	1637
479.694	1500
479.771	2300
479.848	1891
479.926	455
480.003	2727
480.080	1468
480.157	2330
480.235	1379
480.312	1195
480.389	1479
480.467	1236
480.544	1736
480.621	1386
480.698	1644
480.775	1432
480.853	1526
480.930	964
481.007	2319
481.084	2459
481.161	1803
481.238	2392
481.315	1379
481.392	1852
481.470	1003
481.547	1504
481.624	491
481.701	777
481.778	1569
481.855	717
481.932	1916
482.009	1639
482.086	2103
482.163	1283
482.240	5313
482.317	9847
482.393	5638
482.470	1786
482.547	2012
482.624	816
482.701	1375
482.778	1135
482.855	1259
482.932	901
483.009	1422
483.085	1833
483.162	335
483.239	1657
483.316	621
483.393	1642
483.469	1167
483.546	1326
483.623	1689
483.699	934
483.776	1250
483.853	1187
483.930	2462
484.006	1844
484.083	3463
484.160	3425
484.236	6909
484.313	4912
484.389	3067
484.466	4195
484.543	2321
484.619	2484
484.696	4625
484.772	3704
484.849	3330
484.925	3031
485.002	3008
485.078	3511
485.155	2706
485.231	2301
485.308	2983
485.384	3387
485.461	3364
485.537	3074
485.614	4176
485.690	2934
485.766	3166
485.843	3639
485.919	7209
485.995	7667
486.072	3078
486.148	2226
486.224	2261
486.301	2781
486.377	2848
486.453	1887
486.530	3444
486.606	4542
486.682	4310
486.758	4129
486.835	4285
486.911	3497
486.987	6996
487.063	13793
487.139	22547
487.215	13705
487.292	4409
487.368	3208
487.444	2570
487.520	4175
487.596	3355
487.672	5159
487.748	13167
487.824	18745
487.900	5934
487.976	3071
488.052	2848
488.128	3128
488.204	2947
488.280	2964
488.356	3367
488.432	3935
488.508	4483
488.584	3029
488.660	3565
488.736	4190
488.812	3616
488.888	6049
488.964	7194
489.039	21461
489.115	35887
489.191	18224
489.267	3095
489.343	2423
489.418	2784
489.494	2132
489.570	1283
489.646	4010
489.722	2861
489.797	2266
489.873	3208
489.949	4066
490.024	3819
490.100	2596
490.176	3267
490.251	3672
490.327	6544
490.403	2777
490.478	1883
490.554	2026
490.629	2452
490.705	1965
490.781	3162
490.856	1652
490.932	3362
491.007	3046
491.083	2416
491.158	2099
491.234	2892
491.309	3052
491.385	3235
491.460	2307
491.536	3486
491.611	2335
491.686	3743
491.762	6254
491.837	14211
491.913	22237
491.988	33468
492.063	43742
492.139	5925
492.214	2254
492.289	2997
492.365	3110
492.440	3986
492.515	1726
492.590	2031
492.666	2278
492.741	2742
492.816	2435
492.891	2720
492.967	4056
493.042	3456
493.117	4835
493.192	6020
493.267	12424
493.342	58588
493.418	86032
493.493	10134
493.568	2066
493.643	2384
493.718	2877
493.793	4024
493.868	6086
493.943	4415
494.018	3335
494.093	1732
494.168	2043
494.243	2577
494.318	2738
494.393	2288
494.468	1836
494.543	2334
494.618	3390
494.693	2417
494.768	1085
494.842	2308
494.917	2312
494.992	2529
495.067	1592
495.142	2502
495.217	2080
495.292	2966
495.366	3207
495.441	2958
495.516	5400
495.591	7660
495.665	30835
495.740	85052
495.815	24280
495.890	3456
495.964	-170
496.039	4113
496.114	2507
496.188	2462
496.263	1830
496.338	1133
496.412	1771
496.487	2546
496.561	4009
496.636	4268
496.710	2624
496.785	1892
496.860	2379
496.934	1594
497.009	1741
497.083	2508
497.158	1396
497.232	2109
497.307	2463
497.381	1768
497.455	1624
497.530	3145
497.604	2422
497.679	2575
497.753	3241
497.827	4466
497.902	3235
497.976	3500
498.050	5627
498.125	16364
498.199	17636
498.273	9597
498.348	8368
498.422	5199
498.496	5237
498.570	5592
498.645	2217
498.719	641
498.793	2952
498.867	3712
498.941	2535
499.016	5554
499.090	14605
499.164	5744
499.238	2886
499.312	2109
499.386	3486
499.460	2702
499.534	1966
499.609	2213
499.683	1941
499.757	1957
499.831	2804
499.905	8604
499.979	8032
500.053	2195
500.127	4082
500.201	5030
500.275	2526
500.349	2260
500.422	2026
500.496	4969
500.570	12556
500.644	11800
500.718	10101
500.792	3303
500.866	1574
500.940	1760
501.013	2218
501.087	3294
501.161	6599
501.235	5623
501.309	4893
501.382	6659
501.456	8917
501.530	3155
501.603	2139
501.677	1339
501.751	-344
501.825	2940
501.898	2011
501.972	2604
502.046	2022
502.119	903
502.193	3388
502.266	3848
502.340	2824
502.413	2741
502.487	2850
502.561	757
502.634	1581
502.708	2470
502.781	1835
502.855	2305
502.928	375
503.002	1544
503.075	444
503.149	638
503.222	948
503.295	1300
503.369	1081
503.442	919
503.516	2434
503.589	3686
503.662	2666
503.736	2524
503.809	3050
503.882	2526
503.956	4171
504.029	4315
504.102	9330
504.175	12007
504.249	2508
504.322	1088
504.395	546
504.468	1388
504.542	1167
504.615	-439
504.688	1291
504.761	139
504.834	3050
504.907	3532
504.980	6181
505.053	2643
505.127	3174
505.200	5629
505.273	755
505.346	668
505.419	-120
505.492	1634
505.565	635
505.638	1427
505.711	712
505.784	398
505.857	525
505.930	2012
506.003	-265
506.076	3434
506.149	1331
506.221	-803
506.294	3043
506.367	602
506.440	4397
506.513	3835
506.586	1882
506.659	1237
506.731	1852
506.804	1508
506.877	3340
506.950	1986
507.022	1851
507.095	-65
507.168	2163
507.241	2063
507.313	668
507.386	485
507.459	5202
507.531	1986
507.604	585
507.677	1463
507.749	-639
507.822	3164
507.894	4019
507.967	5547
508.040	1100
508.112	2750
508.185	1886
508.257	1078
508.330	5349
508.402	1690
508.475	1133
508.547	2588
508.620	1337
508.692	2119
508.765	1655
508.837	1222
508.909	1643
508.982	1374
509.054	3055
509.127	882
509.199	1506
509.271	465
509.344	585
509.416	933
509.488	1098
509.560	1182
509.633	1274
509.705	2429
509.777	1811
509.849	4096
509.922	1099
509.994	1670
510.066	1581
510.138	823
510.210	4137
510.283	2202
510.355	1915
510.427	2861
510.499	2236
510.571	1865
510.643	1633
510.715	6227
510.787	2408
510.859	3286
510.931	2321
511.003	5085
511.076	3683
511.148	949
511.219	279
511.291	1521
511.363	1877
511.435	1556
511.507	-66
511.579	1363
511.651	2513
511.723	1678
511.795	1117
511.867	217
511.939	1152
512.010	1154
512.082	2376
512.154	694
512.226	2162
512.298	3847
512.369	4291
512.441	3205
512.513	4444
512.585	747
512.656	2549
512.728	2592
512.800	1456
512.871	2674
512.943	1858
513.015	467
513.086	2303
513.158	1818
513.230	1339
513.301	2516
513.373	6716
513.444	1924
513.516	784
513.588	1753
513.659	1773
513.731	3044
513.802	2106
513.874	8025
513.945	15365
514.016	1869
514.088	909
514.159	1008
514.231	3194
514.302	3620
514.374	2605
514.445	-377
514.516	3004
514.588	1217
514.659	1097
514.730	976
514.802	3660
514.873	99
514.944	5046
515.016	1845
515.087	2642
515.158	2095
515.229	1965
515.301	722
515.372	2427
515.443	740
515.514	709
515.585	1483
515.656	2302
515.728	2013
515.799	215
515.870	1777
515.941	1853
516.012	707
516.083	2352
516.154	2242
516.225	6454
516.296	4988
516.367	3641
516.438	4650
516.509	7268
516.580	9837
516.651	34309
516.722	137205
516.793	48104
516.864	9304
516.935	9074
517.006	10925
517.077	14525
517.148	36702
517.219	144590
517.289	196722
517.360	16962
517.431	6099
517.502	1864
517.573	3082
517.643	2713
517.714	2479
517.785	4295
517.856	4362
517.926	7155
517.997	8802
518.068	10476
518.138	16766
518.209	21165
518.280	85801
518.350	372605
518.421	94817
518.492	9235
518.562	3727
518.633	3025
518.703	1254
518.774	5051
518.845	9509
518.915	8566
518.986	1811
519.056	3988
519.127	9412
519.197	11676
519.268	9535
519.338	5133
519.408	2513
519.479	7910
519.549	3093
519.620	3408
519.690	1877
519.760	1025
519.831	1557
519.901	1089
519.971	1004
520.042	742
520.112	448
520.182	3004
520.253	3501
520.323	16
520.393	616
520.463	3916
520.534	-1984
520.604	4495
520.674	1988
520.744	661
520.814	1651
520.885	3949
520.955	1169
521.025	4539
521.095	1906
521.165	1683
521.235	721
521.305	-84
521.375	1579
521.445	2238
521.515	2393
521.585	3961
521.655	2285
521.725	3328
521.795	1499
521.865	-540
521.935	2600
522.005	883
522.075	622
522.145	2171
522.215	480
522.285	1819
522.355	1230
522.424	3261
522.494	1710
522.564	3388
522.634	10441
522.704	39980
522.774	9802
522.843	2882
522.913	2356
522.983	3009
523.053	2091
523.122	1874
523.192	2679
523.262	18683
523.331	13422
523.401	2237
523.471	1344
523.540	1524
523.610	394
523.680	917
523.749	-121
523.819	1647
523.888	203
523.958	1617
524.027	1535
524.097	1172
524.166	878
524.236	294
524.305	3206
524.375	111
524.444	-178
524.514	3335
524.583	-451
524.653	-474
524.722	1418
524.791	-1100
524.861	2628
524.930	-318
524.999	801
525.069	3156
525.138	1087
525.207	237
525.277	1497
525.346	1423
525.415	1100
525.484	1780
525.554	-384
525.623	1385
525.692	1187
525.761	569
525.830	1744
525.900	861
525.969	2458
526.038	3071
526.107	3802
526.176	17020
526.245	11001
526.314	6795
526.383	10328
526.452	9642
526.522	23445
526.591	21826
526.660	15173
526.729	8266
526.797	9549
526.867	22372
526.935	124183
527.004	98095
527.073	33113
527.142	3315
527.211	2849
527.280	3097
527.349	2811
527.418	-422
527.487	1835
527.555	31
527.624	891
527.693	-718
527.762	1248
527.831	-159
527.899	1172
527.968	1127
528.037	-502
528.106	2106
528.174	4211
528.243	1643
528.312	3093
528.380	4931
528.449	-1103
528.518	2000
528.586	-931
528.655	1094
528.723	1178
528.792	-586
528.861	-868
528.929	-1165
528.998	1590
529.066	104
529.135	649
529.203	-421
529.272	-1097
529.340	886
529.409	1856
529.477	13
529.545	-1101
529.614	2488
529.682	-1482
529.751	-7
529.819	3007
529.887	-104
529.956	-272
530.024	1051
530.092	-272
530.161	1659
530.229	2610
530.297	-197
530.365	1380
530.434	759
530.502	-344
530.570	380
530.638	-696
530.707	159
530.775	1537
530.843	-1093
530.911	-339
530.979	730
531.047	-1105
531.115	678
531.183	-423
531.252	764
531.320	291
531.388	-222
531.456	447
531.524	-1726
531.592	842
531.660	2021
531.728	-669
531.796	-463
531.864	1007
531.932	-67
532.000	-31
532.067	-376
532.135	617
532.203	2185
532.271	113
532.339	3983
532.407	13358
532.475	5713
532.542	3650
532.610	4953
532.678	4099
532.746	32363
532.814	83923
532.881	13487
532.949	1997
533.017	1233
533.084	272
533.152	260
533.220	421
533.287	599
533.355	778
533.423	408
533.490	-114
533.558	-349
533.625	16
533.693	-304
533.761	605
533.828	706
533.896	47
533.963	3704
534.031	3841
534.098	7659
534.166	1426
534.233	-823
534.300	1250
534.368	990
534.435	-624
534.503	334
534.570	293
534.637	-425
534.705	-266
534.772	237
534.840	650
534.907	8233
534.974	7511
535.041	371
535.109	-1092
535.176	364
535.243	958
535.310	540
535.378	103
535.445	385
535.512	1071
535.579	224
535.646	-1386
535.714	546
535.781	237
535.848	760
535.915	907
535.982	218
536.049	-539
536.116	1209
536.183	532
536.250	-190
536.317	-495
536.384	907
536.451	2364
536.518	2565
536.585	-291
536.652	3003
536.719	4109
536.786	1794
536.853	1775
536.920	3923
536.987	7715
537.053	5289
537.120	40769
537.187	29611
537.254	735
537.321	374
537.388	2311
537.454	-307
537.521	73
537.588	-608
537.654	676
537.721	-101
537.788	1150
537.855	-411
537.921	1028
537.988	-260
538.055	1518
538.121	-35
538.188	536
538.254	1595
538.321	7322
538.388	3476
538.454	1089
538.521	34
538.587	298
538.654	492
538.720	438
538.787	-257
538.853	534
538.920	106
538.986	327
539.053	13
539.119	965
539.185	288
539.252	2058
539.318	3437
539.385	2759
539.451	600
539.517	1473
539.583	1867
539.650	8156
539.716	26027
539.782	3823
539.849	218
539.915	1630
539.981	-90
540.047	1600
540.114	1273
540.180	2508
540.246	67
540.312	1588
540.378	5734
540.444	7398
540.510	8613
540.576	31793
540.643	5025
540.709	-51
540.775	940
540.841	345
540.907	1254
540.973	2182
541.039	1618
541.105	3050
541.171	892
541.237	-442
541.303	584
541.369	3199
541.435	1389
541.500	5702
541.566	1135
541.632	168
541.698	707
541.764	805
541.830	-520
541.896	-723
541.961	1009
542.027	-117
542.093	671
542.159	1066
542.224	175
542.290	1698
542.356	4249
542.421	6322
542.487	2591
542.553	184
542.618	152
542.684	1080
542.750	826
542.815	2199
542.881	3911
542.947	26008
543.012	15692
543.078	1033
543.143	-577
543.209	1290
543.274	-106
543.340	2280
543.405	8182
543.471	13119
543.536	744
543.602	-321
543.667	-580
543.732	657
543.798	-847
543.863	223
543.928	-495
543.994	-575
544.059	-36
544.124	359
544.190	76
544.255	415
544.320	485
544.386	-174
544.451	2369
544.516	3188
544.581	1909
544.646	13502
544.712	22371
544.777	2219
544.842	436
544.907	-387
544.972	-448
545.037	231
545.102	775
545.168	-251
545.233	608
545.298	917
545.363	690
545.428	1058
545.493	6027
545.558	17830
545.623	3669
545.688	-59
545.753	-126
545.818	-1176
545.883	368
545.947	-655
546.012	125
546.077	-685
546.142	1221
546.207	-634
546.272	1486
546.337	580
546.401	243
546.466	181
546.531	-680
546.596	743
546.661	-813
546.725	1586
546.790	195
546.855	408
546.919	-1082
546.984	368
547.049	275
547.113	962
547.178	426
547.243	1941
547.307	1705
547.372	1979
547.436	773
547.501	1197
547.565	1384
547.630	2557
547.695	1897
547.759	1753
547.823	1471
547.888	2079
547.952	1374
548.017	1294
548.081	2006
548.146	2064
548.210	2294
548.274	1057
548.339	834
548.403	1675
548.468	1259
548.532	534
548.596	1926
548.660	1702
548.725	2263
548.789	2065
548.853	2734
548.917	1828
548.982	1463
549.046	2000
549.110	310
549.174	1557
549.238	1562
549.303	820
549.367	2881
549.431	1309
549.495	1399
549.559	1242
549.623	1850
549.687	3337
549.751	4952
549.815	2889
549.879	2504
549.943	1534
550.007	3303
550.071	2393
550.135	4899
550.199	2797
550.263	1528
550.327	3149
550.391	1714
550.455	2420
550.519	2780
550.582	3548
550.646	4360
550.710	4760
550.774	3070
550.838	3451
550.901	3479
550.965	3687
551.029	3385
551.093	4352
551.156	3792
551.220	4647
551.284	6171
551.347	5074
551.411	4220
551.475	4105
551.538	3171
551.602	2392
551.666	2737
551.729	2282
551.793	2581
551.856	3206
551.920	2599
551.983	2490
552.047	2264
552.110	2870
552.174	1988
552.237	2715
552.301	2339
552.364	2557
552.428	1904
552.491	2703
552.554	2987
552.618	1880
552.681	3157
552.745	1572
552.808	6059
552.871	7050
552.934	3585
552.998	2098
553.061	3022
553.124	2709
553.187	3009
553.251	3227
553.314	3365
553.377	2729
553.440	6338
553.503	25129
553.567	37712
553.630	5623
553.693	2705
553.756	2925
553.819	2277
553.882	1832
553.945	1716
554.008	2328
554.071	1804
554.134	2523
554.197	1727
554.260	2051
554.323	3607
554.386	2861
554.449	1246
554.512	1824
554.575	1753
554.638	2505
554.701	1336
554.764	1986
554.827	1265
554.889	2024
554.952	1229
555.015	1645
555.078	1062
555.141	1523
555.203	1214
555.266	1771
555.329	1587
555.391	1475
555.454	1228
555.517	1533
555.580	1275
555.642	331
555.705	-12
555.768	1658
555.830	1319
555.893	1767
555.955	1328
556.018	997
556.080	504
556.143	1615
556.206	782
556.268	1436
556.330	1369
556.393	1456
556.455	328
556.518	896
556.580	985
556.643	939
556.705	2114
556.767	-411
556.830	849
556.892	1866
556.955	3224
557.017	1021
557.079	369
557.142	1083
557.204	886
557.266	5707
557.328	2184
557.391	250
557.453	-57
557.515	723
557.577	1571
557.639	1662
557.701	232
557.764	324
557.826	186
557.888	915
557.950	-133
558.012	-511
558.074	828
558.136	3938
558.198	9124
558.260	2612
558.322	513
558.384	1484
558.446	1965
558.508	2673
558.570	2865
558.632	7594
558.694	10121
558.756	6542
558.818	24268
558.880	60507
558.942	11593
559.003	8315
559.065	4101
559.127	2493
559.189	1466
559.251	1335
559.312	2383
559.374	8841
559.436	33787
559.498	13293
559.559	1595
559.621	1698
559.683	2097
559.744	3208
559.806	14513
559.868	19240
559.929	1883
559.991	831
560.052	1596
560.114	8667
560.176	4262
560.237	4922
560.299	7419
560.360	-85
560.422	-614
560.483	646
560.545	-819
560.606	-1076
560.667	-1184
560.729	-669
560.790	-368
560.852	304
560.913	-982
560.974	537
561.036	-1332
561.097	-495
561.158	-13
561.220	323
561.281	-569
561.342	-108
561.403	1192
561.465	1272
561.526	7557
561.587	8124
561.648	-120
561.709	-149
561.771	-116
561.832	-431
561.893	-406
561.954	-334
562.015	-416
562.076	-10
562.137	-40
562.198	-704
562.259	821
562.320	29
562.381	192
562.442	725
562.503	910
562.564	-27
562.625	-340
562.686	-849
562.747	-751
562.808	-267
562.869	-285
562.930	-442
562.991	-746
563.051	-410
563.112	76
563.173	-457
563.234	-707
563.294	50
563.355	-591
563.416	94
563.477	178
563.537	6
563.598	-339
563.659	-803
563.720	-664
563.780	-86
563.841	-719
563.901	-343
563.962	-633
564.023	321
564.083	-382
564.144	-425
564.204	-956
564.265	-747
564.325	-293
564.386	111
564.446	-102
564.507	-183
564.567	219
564.628	-430
564.688	-266
564.749	-1003
564.809	12
564.869	-399
564.930	-1103
564.990	655
565.050	-178
565.111	75
565.171	-176
565.231	-637
565.292	607
565.352	-1508
565.412	651
565.472	-196
565.532	-271
565.593	307
565.653	-302
565.713	-903
565.773	-421
565.833	466
565.893	1632
565.953	70
566.013	221
566.074	472
566.134	990
566.194	267
566.254	946
566.314	-701
566.374	-1011
566.434	-336
566.494	949
566.554	-765
566.614	214
566.673	40
566.733	396
566.793	169
566.853	-651
566.913	-252
566.973	186
567.033	-96
567.092	-38
567.152	202
567.212	127
567.272	429
567.331	149
567.391	266
567.451	-236
567.511	200
567.570	538
567.630	-347
567.690	188
567.749	1238
567.809	-152
567.868	598
567.928	474
567.988	595
568.047	1181
568.107	1647
568.166	2353
568.226	5656
568.285	8177
568.345	3973
568.404	2414
568.464	2886
568.523	2069
568.582	1661
568.642	2211
568.701	3911
568.761	7759
568.820	16337
568.879	11016
568.939	3555
568.998	2156
569.057	1254
569.116	1191
569.176	114
569.235	70
569.294	-719
569.353	433
569.413	-331
569.472	-1204
569.531	83
569.590	-798
569.649	104
569.708	-484
569.767	623
569.827	-116
569.886	-175
569.945	-593
570.004	162
570.063	-346
570.122	-366
570.181	-429
570.240	-454
570.299	-525
570.358	-374
570.417	-1006
570.475	84
570.534	210
570.593	-8
570.652	-715
570.711	-369
570.770	-625
570.829	1006
570.887	959
570.946	450
571.005	-1033
571.064	201
571.122	-106
571.181	-1103
571.240	-248
571.299	-216
571.357	-447
571.416	-699
571.475	-1007
571.533	-1072
571.592	-749
571.650	-595
571.709	-620
571.768	-651
571.826	-72
571.885	-1010
571.943	-729
572.002	-541
572.060	-523
572.119	-813
572.177	-688
572.236	-545
572.294	-971
572.352	-44
572.411	-996
572.469	-226
572.528	-901
572.586	-140
572.644	-1124
572.703	-351
572.761	-1093
572.819	-243
572.877	-680
572.936	-960
572.994	-948
573.052	-850
573.110	-1587
573.169	-634
573.227	-1422
573.285	-1427
573.343	-1271
573.401	-1076
573.459	-653
573.517	-1254
573.576	-960
573.634	-992
573.692	-443
573.750	-1253
573.808	-819
573.866	-564
573.924	-1344
573.982	-916
574.040	-1013
574.098	-387
574.155	-849
574.213	-549
574.271	-455
574.329	-1000
574.387	-1177
574.445	-622
574.503	138
574.560	-1130
574.618	-905
574.676	-476
574.734	-858
574.792	-717
574.849	-1118
574.907	-817
574.965	-1001
575.022	-111
575.080	-1079
575.138	-1131
575.195	-1441
575.253	-899
575.311	-103
575.368	-1141
575.426	-861
575.483	-56
575.541	-398
575.598	-831
575.656	-1746
575.713	-1153
575.771	-1202
575.828	-809
575.886	-869
575.943	144
576.001	-1112
576.058	-1280
576.115	-1162
576.173	-657
576.230	-844
576.287	-401
576.345	-516
576.402	-1004
576.459	-1796
576.517	-820
576.574	-1012
576.631	-874
576.688	-1132
576.746	-1275
576.803	-683
576.860	-1542
576.917	-270
576.974	-251
577.031	-907
577.089	-405
577.146	-486
577.203	-808
577.260	-455
577.317	-609
577.374	-1008
577.431	-941
577.488	-418
577.545	-1043
577.602	-631
577.659	-1158
577.716	-911
577.773	326
577.830	-992
577.886	-924
577.943	-768
578.000	-1247
578.057	-1237
578.114	-236
578.171	-609
578.227	-490
578.284	-1247
578.341	-525
578.398	-801
578.454	-141
578.511	-746
578.568	-709
578.625	-1292
578.681	-1048
578.738	-887
578.794	-291
578.851	-710
578.908	-1298
578.964	-482
579.021	-425
579.077	-822
579.134	-1035
579.190	-626
579.247	197
579.303	-27
579.360	-1108
579.416	-740
579.473	-857
579.529	-621
579.586	-312
579.642	-283
579.698	-1294
579.755	-569
579.811	-28
579.867	-787
579.924	-1434
579.980	-388
580.036	-899
580.093	-822
580.149	-51
580.205	-501
580.261	-417
580.317	-562
580.374	-1419
580.430	35
580.486	-1421
580.542	-986
580.598	-742
580.619	-704
580.654	-639
580.692	-655
580.710	-665
580.765	-718
580.767	-720
580.823	-221
580.838	-306
580.879	-530
580.911	-573
580.935	-612
580.984	-1033
580.991	-1093
581.047	-187
581.057	-203
581.103	-272
581.130	-100
581.159	74
581.203	-16
581.215	-35
581.270	-595
581.276	-636
581.326	-1085
581.349	-688
581.382	-118
581.422	-949
581.438	-1281
581.494	-926
581.494	-920
581.550	-452
581.567	-286
581.606	23
581.640	-722
581.661	-1157
581.713	84
581.717	177
581.773	-551
581.786	-788
581.829	-1528
581.859	-995
581.885	-539
581.932	-818
581.940	-859
581.996	10
582.004	-69
582.052	-631
582.077	-597
582.107	-554
582.150	-316
582.163	-245
582.219	-877
582.223	-833
582.274	-253
582.296	-545
582.330	-1055
582.368	-716
582.386	-478
582.441	-112
582.441	-113
582.497	-485
582.514	-612
582.552	-718
582.587	29
582.608	411
582.659	-900
582.663	-999
582.719	-515
582.732	-447
582.774	-208
582.805	-213
582.830	-216
582.877	-264
582.885	-259
582.941	-465
582.950	-370
582.996	-90
583.023	-263
583.052	-221
583.095	-212
583.107	-279
583.162	-473
583.168	-428
583.218	-207
583.240	-421
583.273	-555
583.313	-769
583.328	-796
583.384	-11
583.385	-33
583.439	-975
583.458	-1011
583.494	-972
583.531	-417
583.549	-134
583.603	-543
583.605	-560
583.660	-196
583.676	-211
583.715	-308
583.748	-305
583.770	-185
583.820	20
583.825	28
583.881	108
583.893	-38
583.936	-463
583.965	-625
583.991	-878
584.038	-450
584.046	-341
584.101	-387
584.110	-330
584.156	-258
584.183	-424
584.211	-410
584.255	-213
584.266	-193
584.321	-296
584.328	-298
584.376	-351
584.400	-414
584.431	-426
584.472	-136
584.486	-96
584.541	120
584.545	110
584.596	31
584.617	-241
584.651	-486
584.689	184
584.706	282
584.761	-757
584.762	-762
584.816	-796
584.834	-442
584.871	278
584.906	-81
584.926	-349
584.978	-93
584.980	-76
585.035	213
585.051	290
585.090	638
585.123	743
585.145	643
585.195	632
585.200	695
585.254	1450
585.267	1975
585.309	4025
585.340	5403
585.364	5621
585.412	2763
585.419	2372
585.473	1402
585.484	1181
585.528	982
585.556	1238
585.583	1723
585.628	2699
585.637	3000
585.692	7567
585.700	8312
585.747	11267
585.772	8425
585.801	4297
585.845	1007
585.856	535
585.910	919
585.917	812
585.965	150
585.989	295
586.019	431
586.061	72
586.074	-46
586.128	364
586.133	350
586.183	449
586.205	468
586.237	483
586.277	456
586.292	321
586.346	-234
586.349	-229
586.401	535
586.421	728
586.455	642
586.493	609
586.509	742
586.564	389
586.565	393
586.618	352
586.637	269
586.672	443
586.709	766
586.727	762
586.781	632
586.781	633
586.835	545
586.853	474
586.889	347
586.925	114
586.944	188
586.996	1080
586.998	1090
587.052	641
587.068	613
587.106	735
587.140	652
587.161	596
587.212	591
587.215	606
587.269	1081
587.284	1136
587.323	830
587.356	658
587.377	727
587.427	1411
587.431	1451
587.485	994
587.499	980
587.539	728
587.571	302
587.593	277
587.643	752
587.648	798
587.702	1547
587.715	1664
587.755	1691
587.786	1407
587.810	1271
587.858	1688
587.864	1762
587.917	2080
587.930	2283
587.971	2862
588.001	2967
588.025	3085
588.073	3709
588.079	3840
588.133	4836
588.145	5156
588.187	5908
588.217	6114
588.241	6422
588.288	7976
588.295	8180
588.348	10312
588.360	10755
588.402	12748
588.431	14268
588.456	15458
588.503	18107
588.510	18472
588.564	22961
588.575	23945
588.617	27849
588.646	31336
588.671	34985
588.718	43608
588.725	45549
588.778	65841
588.789	72249
588.832	118520
588.861	160623
588.886	218877
588.932	366122
588.939	378324
588.993	432098
589.004	417460
589.047	247862
589.075	151103
589.100	102542
589.147	53535
589.154	50498
589.207	38089
589.218	36300
589.261	35139
589.290	35718
589.314	37178
589.361	42982
589.368	45254
589.421	70593
589.433	78363
589.475	140758
589.504	199767
589.528	253893
589.576	362836
589.582	356408
589.635	190277
589.647	158383
589.689	72962
589.718	34166
589.742	25908
589.790	15102
589.795	14452
589.849	10351
589.861	9670
589.902	7788
589.932	6426
589.955	5881
590.004	5226
590.009	5192
590.062	4841
590.075	4842
590.115	4131
590.146	3516
590.168	3269
590.218	2864
590.222	2828
590.275	2344
590.289	2198
590.328	2365
590.360	2583
590.381	2446
590.431	2190
590.435	2159
590.488	1654
590.503	1473
590.541	1230
590.574	1149
590.594	1299
590.645	1736
590.647	1732
590.700	1419
590.716	1401
590.753	1500
590.787	1547
590.806	1446
590.859	1158
590.859	1172
590.912	2124
590.930	2456
590.965	1996
591.001	1563
591.018	1458
591.071	974
591.072	971
591.124	1300
591.143	1407
591.177	1095
591.214	775
591.230	964
591.283	1692
591.285	1715
591.336	1500
591.356	1499
591.389	1659
591.427	1621
591.442	1471
591.495	1132
591.498	1097
591.547	986
591.569	997
591.600	1096
591.640	1247
591.653	1214
591.706	994
591.711	977
591.759	654
591.782	495
591.811	660
591.853	842
591.864	790
591.917	620
591.924	597
591.969	1353
591.995	1791
592.022	1104
592.066	-50
592.075	21
592.127	535
592.137	635
592.180	805
592.208	924
592.233	908
592.279	902
592.285	948
592.338	1378
592.350	1472
592.390	872
592.421	461
592.443	880
592.491	1796
592.495	1736
592.548	960
592.562	749
592.600	400
592.633	137
592.653	253
592.704	590
592.705	593
592.775	602
592.846	1176
592.916	1287
592.987	1259
593.058	526
593.128	13
593.199	1221
593.270	805
593.341	296
593.411	1218
593.482	260
593.553	1327
593.623	1176
593.694	511
593.764	696
593.835	692
593.906	249
593.976	388
594.047	311
594.117	868
594.188	466
594.258	1479
594.329	851
594.399	37
594.470	1100
594.540	1225
594.611	934
594.681	878
594.751	1056
594.822	2725
594.892	1357
594.963	775
595.033	1229
595.103	403
595.174	986
595.244	1511
595.314	647
595.384	514
595.455	576
595.525	1188
595.595	533
595.665	615
595.736	878
595.806	514
595.876	925
595.946	1063
596.016	387
596.087	828
596.157	1295
596.227	350
596.297	871
596.367	1383
596.437	1553
596.507	2003
596.577	1058
596.647	642
596.717	397
596.787	1514
596.857	1016
596.927	1206
596.997	1061
597.067	1403
597.137	2103
597.207	1221
597.277	1024
597.347	1389
597.417	874
597.487	1787
597.557	703
597.626	967
597.696	1844
597.766	1017
597.836	1907
597.906	2136
597.975	1495
598.045	736
598.115	1091
598.185	1241
598.254	2154
598.324	1586
598.394	988
598.464	1539
598.533	1421
598.603	1045
598.672	1393
598.742	1010
598.812	1449
598.881	1400
598.951	1361
599.020	1247
599.090	2236
599.159	1883
599.229	1747
599.299	1488
599.368	1494
599.437	1726
599.507	806
599.576	1751
599.646	2131
599.715	1472
599.785	1190
599.854	327
599.924	957
599.993	1341
600.062	1291
600.132	1515
600.201	862
600.270	1527
600.340	1106
600.409	1429
600.478	1039
600.547	1224
600.617	1084
600.686	874
600.755	280
600.824	538
600.894	695
600.963	1303
601.032	1340
601.101	1121
601.170	523
601.239	590
601.308	795
601.378	340
601.447	1439
601.516	957
601.585	1298
601.654	1098
601.723	1283
601.792	854
601.861	807
601.930	2315
601.999	1586
602.068	1998
602.137	119
602.206	1137
602.275	1338
602.343	1210
602.412	741
602.481	545
602.550	342
602.619	1044
602.688	1030
602.756	1076
602.825	1096
602.894	1295
602.963	741
603.032	1038
603.100	990
603.169	1815
603.238	204
603.307	1334
603.375	1309
603.444	1404
603.513	1296
603.581	1361
603.650	1582
603.719	21
603.787	1098
603.856	601
603.924	594
603.993	849
604.061	886
604.130	1181
604.198	1749
604.267	2042
604.335	802
604.404	1073
604.472	1279
604.541	980
604.609	1805
604.678	1556
604.746	1682
604.815	2028
604.883	1126
604.951	2048
605.020	1800
605.088	1802
605.156	1296
605.225	1971
605.293	1333
605.361	1397
605.429	1017
605.498	1387
605.566	903
605.634	2567
605.702	1932
605.771	1794
605.839	2749
605.907	2050
605.975	2129
606.043	1718
606.111	1512
606.180	2193
606.248	2734
606.316	3781
606.384	1456
606.452	1820
606.520	1074
606.588	1650
606.656	1106
606.724	1517
606.792	1921
606.860	1665
606.928	1182
606.996	1130
607.064	1700
607.132	1102
607.200	1783
607.267	1501
607.335	1112
607.403	2470
607.471	1381
607.539	1885
607.607	2078
607.674	1620
607.742	1458
607.810	1127
607.878	1587
607.946	660
608.013	1103
608.081	750
608.149	698
608.216	1303
608.284	2219
608.352	1563
608.419	1147
608.487	1801
608.555	1173
608.622	1080
608.690	1063
608.757	1891
608.825	1628
608.893	1223
608.960	1182
609.028	2165
609.095	1810
609.163	1169
609.230	1853
609.298	2005
609.365	1017
609.432	976
609.500	1620
609.567	2103
609.635	1910
609.702	1450
609.769	2441
609.837	2123
609.904	896
609.971	734
610.039	2494
610.106	2979
610.173	3650
610.241	15012
610.308	6004
610.375	2232
610.442	313
610.509	1003
610.577	2609
610.644	1537
610.711	1160
610.778	2049
610.845	1560
610.912	1647
610.980	2693
611.047	5062
611.114	3150
611.181	1970
611.248	862
611.315	3491
611.382	1336
611.449	1859
611.516	2095
611.583	1221
611.650	1928
611.717	2286
611.784	1397
611.851	2106
611.918	2767
611.984	2585
612.051	5421
612.118	13998
612.185	36139
612.252	16178
612.319	2491
612.386	2709
612.452	1932
612.519	2456
612.586	2431
612.653	2463
612.719	2730
612.786	1575
612.853	1682
612.919	1887
612.986	2428
613.053	1621
613.120	1759
613.186	1101
613.253	3776
613.319	1750
613.386	1483
613.453	908
613.519	2299
613.586	1347
613.652	2560
613.719	3257
613.785	1491
613.852	2862
613.918	2942
613.985	7265
614.051	16040
614.118	49653
614.184	40678
614.250	4206
614.317	2445
614.383	2637
614.449	2029
614.516	2233
614.582	2226
614.648	1099
614.715	1939
614.781	1291
614.847	1378
614.914	1700
614.980	1343
615.046	3106
615.112	2816
615.179	1504
615.245	1522
615.311	2376
615.377	2561
615.443	3332
615.509	1614
615.575	2971
615.642	1989
615.708	2210
615.774	2130
615.840	2213
615.906	3131
615.972	4738
616.038	8831
616.104	19818
616.170	49530
616.236	31899
616.302	6189
616.368	2493
616.434	2140
616.500	3726
616.565	2592
616.631	3139
616.697	1502
616.763	2508
616.829	4759
616.895	8736
616.961	6858
617.026	2638
617.092	1579
617.158	2400
617.224	1413
617.289	1666
617.355	1041
617.421	-210
617.487	1922
617.552	1009
617.618	942
617.684	586
617.749	3183
617.815	787
617.880	979
617.946	705
618.012	1307
618.077	1219
618.143	2414
618.208	1698
618.274	1460
618.339	1130
618.405	-240
618.470	2047
618.536	715
618.601	174
618.667	5
618.732	1321
618.798	875
618.863	961
618.928	892
618.994	1072
619.059	1430
619.124	794
619.190	922
619.255	553
619.320	1125
619.386	1360
619.451	128
619.516	1626
619.581	1511
619.647	627
619.712	547
619.777	1296
619.842	782
619.907	743
619.972	767
620.038	636
620.103	1578
620.168	-256
620.233	1371
620.298	386
620.363	323
620.428	787
620.493	723
620.558	808
620.623	906
620.688	1049
620.753	245
620.818	892
620.883	687
620.948	387
621.013	1383
621.078	635
621.143	-219
621.207	2699
621.272	675
621.337	-354
621.402	1273
621.467	854
621.532	553
621.596	29
621.661	605
621.726	1140
621.791	195
621.855	1800
621.920	811
621.985	611
622.049	1071
622.114	-4
622.179	1439
622.243	582
622.308	654
622.373	1974
622.437	1537
622.502	732
622.566	546
622.631	-758
622.695	1310
622.760	1457
622.824	244
622.889	1147
622.953	-37
623.018	1544
623.082	1371
623.147	1183
623.211	-28
623.276	-167
623.340	-191
623.404	1290
623.469	933
623.533	1273
623.597	394
623.662	499
623.726	-108
623.790	273
623.854	615
623.919	1220
623.983	342
624.047	995
624.111	678
624.176	1085
624.240	6
624.304	1775
624.368	454
624.432	1422
624.496	1518
624.560	1222
624.625	630
624.689	1570
624.753	220
624.817	372
624.881	790
624.945	1318
625.009	754
625.073	824
625.137	-103
625.201	657
625.265	1364
625.329	650
625.393	1443
625.456	1300
625.520	858
625.584	-271
625.648	1345
625.712	559
625.776	875
625.839	1292
625.903	187
625.967	-442
626.031	2726
626.095	940
626.158	654
626.222	-332
626.286	948
626.349	-102
626.413	-504
626.477	1598
626.540	101
626.604	61
626.668	1608
626.731	633
626.795	-960
626.858	-42
626.922	40
626.986	528
627.049	-1741
627.113	807
627.176	1578
627.240	-71
627.303	682
627.366	-87
627.430	-148
627.493	437
627.557	-1058
627.620	1906
627.684	-48
627.747	492
627.810	-2348
627.874	-174
627.937	-733
628.000	1757
628.064	530
628.127	-692
628.190	721
628.253	772
628.317	-615
628.380	396
628.443	131
628.506	-237
628.569	22
628.632	-632
628.696	521
628.759	-623
628.822	391
628.885	-665
628.948	37
629.011	-532
629.074	-455
629.137	-418
629.200	-434
629.263	1550
629.326	-619
629.389	-817
629.452	276
629.515	-61
629.578	-194
629.641	838
629.704	-421
629.767	101
629.830	601
629.892	-74
629.955	-52
630.018	1785
630.081	-1140
630.144	157
630.207	-1063
630.269	1424
630.332	-896
630.395	-107
630.458	146
630.520	-395
630.583	830
630.646	653
630.708	-111
630.771	-1387
630.834	1184
630.896	-882
630.959	-513
631.021	-560
631.084	356
631.146	47
631.209	1531
631.272	-439
631.334	-493
631.397	-138
631.459	-1030
631.522	-417
631.584	-350
631.646	426
631.709	279
631.771	-424
631.834	136
631.896	331
631.958	-793
632.021	741
632.083	-464
632.145	579
632.208	-623
632.270	829
632.332	-382
632.395	-30
632.457	384
632.519	-492
632.581	991
632.643	-861
632.706	204
632.768	-1461
632.830	607
632.892	-658
632.954	-454
633.016	526
633.078	-166
633.141	-366
633.203	-262
633.265	518
633.327	667
633.389	-471
633.451	171
633.513	300
633.575	-310
633.637	-923
633.698	-325
633.760	299
633.822	753
633.884	-48
633.946	425
634.008	-723
634.070	1044
634.132	268
634.193	102
634.255	676
634.317	-391
634.379	783
634.441	-144
634.502	-438
634.564	394
634.626	334
634.687	853
634.749	241
634.811	-13
634.873	-209
634.934	345
634.996	864
635.057	-747
635.119	-1027
635.181	-114
635.242	1183
635.304	-1716
635.365	1858
635.427	-312
635.488	33
635.550	-1095
635.611	710
635.673	-1725
635.734	1005
635.796	-694
635.857	1111
635.918	-1393
635.980	1086
636.041	-481
636.102	-21
636.164	-351
636.225	1572
636.286	-1320
636.348	663
636.409	-154
636.470	-1326
636.531	22
636.593	-486
636.654	527
636.715	366
636.776	-487
636.838	-329
636.899	469
636.960	-986
637.021	-190
637.082	-1124
637.143	-104
637.204	-220
637.265	-578
637.326	-108
637.387	-288
637.448	-1376
637.509	-495
637.570	-923
637.631	787
637.692	-1306
637.753	-494
637.814	-458
637.875	69
637.936	198
637.997	-169
638.058	-456
638.119	785
638.179	-156
638.240	-1047
638.301	-485
638.362	-691
638.423	75
638.483	390
638.544	-1176
638.605	106
638.666	-612
638.726	-236
638.787	596
638.848	-541
638.908	-753
638.969	1193
639.030	-41
639.090	-1497
639.151	-1117
639.211	183
639.272	512
639.332	-295
639.393	-41
639.453	-1433
639.514	-121
639.574	381
639.635	-440
639.695	-201
639.756	-1216
639.816	495
639.877	-1023
639.937	791
639.997	318
640.058	-1298
640.118	-1030
640.178	1345
640.239	-107
640.299	-611
640.359	-1398
640.420	-840
640.480	278
640.540	-592
640.600	-667
640.661	518
640.721	-948
640.781	1087
640.841	-1060
640.901	522
640.961	-293
641.021	546
641.082	-835
641.142	-273
641.202	562
641.262	-1877
641.322	417
641.382	-691
641.442	589
641.502	257
641.562	11
641.622	-165
641.682	-401
641.742	-557
641.802	-245
641.861	500
641.921	-221
641.981	354
642.041	704
642.101	-170
642.161	-1400
642.221	-696
642.280	-484
642.340	-1076
642.400	-369
642.460	572
642.519	188
642.579	-616
642.639	416
642.698	-2545
642.758	1834
642.818	-592
642.877	-760
642.937	-706
642.997	-290
643.056	-920
643.116	-1410
643.175	1587
643.235	-398
643.294	-1149
643.354	-444
643.414	-153
643.473	838
643.532	-54
643.592	-406
643.651	526
643.711	3783
643.770	5862
643.830	15058
643.889	33001
643.948	4670
644.008	207
644.067	-258
644.126	-902
644.186	161
644.245	166
644.304	-1748
644.363	1058
644.423	-2018
644.482	-163
644.541	346
644.600	-2963
644.659	-143
644.719	-807
644.778	-533
644.837	122
644.896	2315
644.955	4450
645.014	877
645.073	690
645.132	-6
645.191	-484
645.250	-2
645.309	-97
645.368	-419
645.427	378
645.486	-1910
645.545	712
645.604	-972
645.663	279
645.722	-1288
645.781	457
645.840	-428
645.898	-757
645.957	1036
646.016	-149
646.075	2422
646.134	4877
646.192	14918
646.251	19045
646.310	613
646.369	-465
646.427	268
646.486	-1577
646.545	54
646.603	-395
646.662	35
646.721	224
646.779	-309
646.838	-1645
646.896	866
646.955	297
647.014	174
647.072	341
647.131	2605
647.189	1153
647.248	-565
647.306	417
647.365	389
647.423	-2039
647.481	971
647.540	-1193
647.598	244
647.657	-913
647.715	-169
647.773	-810
647.832	645
647.890	-1183
647.948	-664
648.007	64
648.065	-1544
648.123	-1128
648.181	1052
648.240	854
648.298	-459
648.356	-1115
648.414	572
648.472	-681
648.531	-238
648.589	148
648.647	-128
648.705	-774
648.763	-778
648.821	-1076
648.879	-1409
648.937	-554
648.995	-206
649.053	-402
649.111	-888
649.169	-292
649.227	1302
649.285	2949
649.343	9893
649.401	4270
649.459	1710
649.516	4188
649.574	5067
649.632	20313
649.690	21212
649.748	2456
649.806	1159
649.863	3196
649.921	3061
649.979	-164
650.037	466
650.094	-1310
650.152	-299
650.210	-458
650.268	-142
650.325	-1055
650.383	170
650.440	-1208
650.498	336
650.556	41
650.613	-851
650.671	-256
650.728	-813
650.786	-799
650.843	191
650.901	-1727
650.958	-292
651.016	-409
651.073	-632
651.131	-1406
651.188	-855
651.246	-829
651.303	-1060
651.360	709
651.418	-1039
651.475	-910
651.532	-1378
651.590	124
651.647	-618
651.704	-1112
651.762	-1229
651.819	-271
651.876	-845
651.933	-114
651.990	0
652.048	-1768
652.105	-1269
652.162	-128
652.219	-1109
652.276	74
652.333	-149
652.390	-1260
652.448	-10
652.505	-671
652.562	-178
652.619	-214
652.676	220
652.733	1268
652.790	-719
652.847	-1267
652.904	8
652.961	-578
653.017	-1209
653.074	-693
653.131	-137
653.188	-1531
653.245	-157
653.302	-227
653.359	-1021
653.415	228
653.472	-981
653.529	-415
653.586	-1143
653.642	-1131
653.699	608
653.756	-1248
653.813	-994
653.869	-500
653.926	-947
653.983	-1108
654.039	255
654.096	-1079
654.152	640
654.209	-1589
654.266	-724
654.322	-1869
654.379	33
654.435	-404
654.492	-352
654.548	-886
654.605	-976
654.661	-311
654.717	-300
654.774	-306
654.830	-332
654.887	-370
654.943	-669
655.000	-249
655.056	-809
655.112	-694
655.168	-2029
655.225	-298
655.281	-533
655.337	-1650
655.394	-238
655.450	-334
655.506	-341
655.562	-1351
655.618	518
655.675	-900
655.731	-139
655.787	-1101
655.843	306
655.899	-669
655.955	-174
656.011	-120
656.067	-930
656.123	-38
656.179	-223
656.235	906
656.291	-809
656.347	43
656.403	-860
656.459	-1149
656.515	-835
656.571	-669
656.627	-228
656.683	-909
656.739	93
656.795	-181
656.850	-666
656.906	-1105
656.962	-628
657.018	-649
657.074	-600
657.129	-776
657.185	-453
657.241	-292
657.297	-513
657.352	-552
657.408	-1403
657.464	-238
657.519	-641
657.575	-1364
657.630	-826
657.686	-984
657.742	-188
657.797	-639
657.853	-689
657.908	-156
657.964	-1362
658.019	-413
658.075	-1229
658.130	-542
658.186	-1239
658.241	-849
658.297	-1803
658.352	-950
658.407	286
658.463	-1704
658.518	-201
658.573	-897
658.629	-1303
658.684	-245
658.739	-651
658.795	-1527
658.850	-914
658.905	-665
658.960	-326
659.016	-449
659.071	-977
659.126	16
659.181	-1061
659.236	62
659.291	-345
659.346	-1464
659.401	-1046
659.457	-382
659.512	-9
659.567	599
659.622	-1091
659.677	-1183
659.732	-1785
659.787	-1087
659.842	-1097
659.897	-964
659.952	-302
660.007	-450
660.061	-483
660.116	-856
660.171	-1385
660.226	-659
660.281	46
660.336	-1430
660.391	-232
660.445	-1527
660.500	-409
660.555	-939
660.610	-1530
660.664	147
660.719	-1027
660.774	-991
660.828	-119
660.883	-316
660.938	-548
660.992	-1572
661.047	288
661.101	-527
661.156	-1197
661.211	-1555
661.265	-273
661.320	-726
661.374	-585
661.429	-1220
661.483	130
661.538	-1369
661.592	-981
661.647	-849
661.701	-541
661.755	-1299
661.810	-171
661.864	-1816
661.919	-896
661.973	-253
662.027	-734
662.081	-1739
662.136	-1017
662.190	-603
662.244	-230
662.299	-1047
662.353	-127
662.407	-921
662.461	-654
662.515	-975
662.569	-1704
662.624	-947
662.678	-848
662.732	-1032
662.786	-721
662.840	-1399
662.894	-1172
662.948	-586
663.002	-708
663.056	-141
663.110	-1977
663.164	-1390
663.218	-954
663.272	41
663.326	-190
663.380	-1039
663.434	-1195
663.488	-1204
663.542	26
663.595	-1017
663.649	-969
663.703	286
663.757	-1107
663.811	-1247
663.864	-1035
663.918	-248
663.972	-1650
664.026	-641
664.079	-896
664.133	-691
664.187	-845
664.240	-1151
664.294	-675
664.348	-910
664.401	-1343
664.455	-1028
664.508	-1084
664.562	-297
664.615	-800
664.669	-1404
664.722	-1391
664.776	-1064
664.829	-1183
664.883	-1308
664.936	-1464
664.990	-1204
665.043	-615
665.097	-1485
665.150	-633
665.203	-1494
665.257	-866
665.310	-971
665.363	-1632
665.417	-1017
665.470	-1156
665.523	-1179
665.576	-576
665.630	-1597
665.683	-1546
665.736	-382
665.789	-702
665.842	-390
665.895	-810
665.949	-1130
666.002	-933
666.055	-1075
666.108	-358
666.161	-1107
666.214	-587
666.267	-119
666.320	-493
666.373	-1055
666.426	-1033
666.479	-780
666.532	-914
666.585	-499
666.638	-693
666.691	-1325
666.744	-683
666.796	-1105
666.849	-1347
666.902	-910
666.955	-677
667.008	-1562
667.060	-1604
667.113	-898
667.166	-863
667.219	-1599
667.271	-658
667.324	-1590
667.377	-930
667.430	-1067
667.482	-318
667.535	-544
667.587	-870
667.640	-437
667.693	-733
667.745	-928
667.798	-751
667.850	-925
667.903	-740
667.955	-782
668.008	-1518
668.060	-1303
668.113	-846
668.165	-1675
668.218	-784
668.270	-799
668.322	-163
668.375	-1317
668.427	-966
668.479	-961
668.532	-683
668.584	-1445
668.636	-962
668.689	-1186
668.741	-1023
668.793	-899
668.845	-1885
668.898	-634
668.950	-1312
669.002	-1184
669.054	-1222
669.106	-529
669.158	-797
669.211	-939
669.263	-1014
669.315	-811
669.367	-1017
669.419	-1219
669.471	150
669.523	-593
669.575	-347
669.627	-1558
669.679	-1642
669.731	-1011
669.783	-1201
669.835	-1503
669.886	-746
669.938	-873
669.990	-811
670.042	-957
670.094	-1017
670.146	-783
670.197	-258
670.249	-957
670.301	-1085
670.353	-407
670.404	-387
670.456	-590
670.508	-164
670.560	889
670.611	907
670.663	3036
670.715	12114
670.766	24524
670.818	7127
670.869	-260
670.921	-711
670.972	-641
671.024	-1205
671.075	-1240
671.127	-450
671.178	-1133
671.230	-290
671.281	-1040
671.333	-1283
671.384	-1736
671.436	-1140
671.487	-669
671.538	-1276
671.590	-545
671.641	435
671.692	-1156
671.744	1021
671.795	-358
671.846	-433
671.897	-1739
671.949	-973
672.000	-828
672.051	-817
672.102	-672
672.153	-843
672.204	-1589
672.256	-159
672.307	-696
672.358	-1328
672.409	-1038
672.460	-1136
672.511	-878
672.562	-1166
672.613	-1094
672.664	-1398
672.715	-755
672.766	-1130
672.817	-1162
672.868	-1790
672.919	-955
672.970	-1403
673.021	-566
673.071	-1297
673.122	-1019
673.173	-236
673.224	-1055
673.275	-673
673.326	-874
673.376	-1065
673.427	-1763
673.478	-683
673.528	-565
673.579	-1480
673.630	-824
673.680	-610
673.731	-784
673.782	-1606
673.832	-1955
673.883	-282
673.934	-1764
673.984	-1173
674.035	-1385
674.085	-1265
674.136	-382
674.186	-874
674.237	-806
674.287	-1426
674.338	-1146
674.388	-1284
674.438	-1000
674.489	-1312
674.539	-1686
674.589	-1155
674.640	-720
674.690	-891
674.740	-1529
674.791	-1007
674.841	-1024
674.891	-606
674.942	-917
674.992	-860
675.042	-1474
675.092	-1170
675.142	-1193
675.193	-947
675.243	-1251
675.293	-1525
675.343	-1811
675.393	-670
675.443	-856
675.493	-1368
675.543	-1588
675.593	-720
675.643	-1184
675.693	-1253
675.743	-1040
675.793	-1451
675.843	-1498
675.893	-633
675.943	-1241
675.993	-849
676.043	-1442
676.093	-788
676.142	-2130
676.192	-757
676.242	-1277
676.292	-1123
676.341	-2069
676.391	-1550
676.441	-934
676.491	-1885
676.540	-1499
676.590	-1203
676.640	-852
676.689	-1680
676.739	-1158
676.789	-347
676.838	-1066
676.888	-535
676.937	-1651
676.987	-2687
677.037	-1194
677.086	-1165
677.136	-603
677.185	-1371
677.235	-1241
677.284	-1257
677.333	-1689
677.383	-719
677.432	-1766
677.482	-1445
677.531	-1355
677.580	-1668
677.630	-1015
677.679	-1513
677.728	-725
677.778	-457
677.827	-895
677.876	-873
677.925	-1458
677.975	-1497
678.024	-420
678.073	-883
678.122	-1029
678.171	-1610
678.220	-1650
678.269	-1359
678.319	-1236
678.368	-796
678.417	-1646
678.466	-948
678.515	-801
678.564	-1820
678.613	-1284
678.662	-1350
678.711	-1140
678.760	-724
678.809	-1585
678.857	-1744
678.906	-1356
678.955	-528
679.004	-1153
679.053	-1196
679.102	-1159
679.151	-1389
679.199	-1258
679.248	-976
679.297	-1065
679.346	-1386
679.394	-1454
679.443	-1378
679.492	-1515
679.540	-732
679.589	-1569
679.638	-1056
679.686	-510
679.735	-1069
679.784	-1320
679.832	-1432
679.881	-1341
679.929	-1198
679.978	-1726
680.026	-913
680.075	-1299
680.123	-932
680.172	-1251
680.220	-738
680.268	-956
680.317	-1491
680.365	-1754
680.414	-800
680.462	-1122
680.510	-757
680.559	-881
680.607	-1318
680.655	-1565
680.703	-1171
680.752	-1012
680.800	-726
680.848	-1734
680.896	-1840
680.945	-1458
680.993	-398
681.041	-1508
681.089	-1022
681.137	-625
681.185	-724
681.233	-1422
681.258	-1625
681.281	-1821
681.329	-1722
681.377	-1650
681.380	-1615
681.425	-1046
681.473	-541
681.502	-1020
681.521	-1360
681.569	-1526
681.617	-1061
681.624	-1122
681.665	-1528
681.713	-755
681.745	-1174
681.761	-1384
681.809	-370
681.857	-963
681.867	-1137
681.904	-1739
681.952	-1716
681.989	-1408
682.000	-1319
682.048	-1417
682.096	-1171
682.111	-1003
682.143	-671
682.191	-1544
682.233	-441
682.239	-279
682.286	-948
682.334	-587
682.354	-901
682.382	-1311
682.430	-727
682.476	-1366
682.477	-1383
682.525	-1142
682.572	-1465
682.598	-1402
682.620	-1355
682.667	-1294
682.715	-551
682.720	-561
682.763	-691
682.810	-1403
682.841	-1139
682.857	-1000
682.905	-1371
682.952	-612
682.963	-773
683.000	-1365
683.047	-1243
683.085	-511
683.095	-311
683.142	-988
683.190	-1107
683.206	-1083
683.237	-1054
683.284	-782
683.328	-705
683.332	-698
683.379	-424
683.426	-768
683.449	-1007
683.473	-1270
683.521	-1187
683.568	-556
683.571	-599
683.615	-1214
683.662	-389
683.693	-627
683.709	-759
683.757	-1570
683.804	-546
683.814	-682
683.851	-1148
683.898	-800
683.936	-1070
683.945	-1133
683.992	-945
684.039	-795
684.057	-891
684.086	-1041
684.133	-1484
684.179	-1011
684.180	-1001
684.227	-480
684.274	-399
684.300	-521
684.321	-586
684.368	-1349
684.415	-625
684.422	-728
684.462	-1406
684.509	-435
684.543	-865
684.556	-995
684.603	-487
684.649	-910
684.665	-881
684.696	-869
684.743	-162
684.786	-435
684.790	-460
684.837	-840
684.883	-1062
684.908	-1029
684.930	-1002
684.977	-745
685.023	-953
685.029	-929
685.070	-748
685.117	-771
685.150	-579
685.164	-505
685.210	-1226
685.257	-577
685.272	-693
685.303	-934
685.350	-568
685.393	-787
685.396	-808
685.443	-813
685.490	-418
685.514	-570
685.536	-695
685.583	-1133
685.629	-1489
685.636	-1389
685.675	-808
685.722	-711
685.757	-719
685.768	-727
685.815	-1096
685.861	-1617
685.878	-1446
685.908	-1121
685.954	-1330
686.000	-823
686.000	-816
686.047	-865
686.093	-1132
686.121	-785
686.139	-531
686.185	-446
686.232	-1039
686.242	-1021
686.278	-958
686.324	-488
686.363	-523
686.370	-543
686.416	-627
686.463	54
686.484	-217
686.509	-482
686.555	-586
686.601	-393
686.606	-434
686.647	-928
686.693	-594
686.727	-793
686.739	-831
686.785	-514
686.831	-582
686.848	-554
686.877	-581
686.923	-90
686.969	-466
686.969	-468
687.015	-1373
687.061	-673
687.090	-520
687.107	-383
687.153	59
687.199	-48
687.211	-109
687.245	-420
687.291	-535
687.332	-832
687.336	-853
687.382	-540
687.428	-829
687.453	-412
687.474	-57
687.520	-418
687.565	-115
687.574	-235
687.611	-658
687.657	-259
687.695	-162
687.702	-158
687.748	-58
687.794	187
687.816	-121
687.839	-500
687.885	-285
687.931	-220
687.937	-283
687.976	-557
688.022	-355
688.058	-451
688.067	-452
688.113	-487
688.158	80
688.179	10
688.204	-159
688.249	-383
688.295	-162
688.300	-188
688.340	-319
688.386	-350
688.421	-445
688.431	-486
688.477	-671
688.522	-324
688.542	-281
688.567	-121
688.613	-334
688.658	-284
688.663	-293
688.703	-556
688.749	-629
688.784	-644
688.794	-577
688.839	-473
688.884	197
688.905	248
688.930	86
688.975	-203
689.020	-502
689.026	-525
689.065	-366
689.110	-699
689.146	-181
689.155	-105
689.201	-446
689.246	-180
689.267	-163
689.291	-37
689.336	-287
689.381	-327
689.388	-353
689.426	-597
689.471	-18
689.509	-461
689.516	-526
689.561	-611
689.606	-596
689.630	-391
689.651	-228
689.696	-489
689.741	-338
689.750	-362
689.785	-377
689.830	109
689.871	-290
689.875	-347
689.920	-191
689.965	-150
689.992	-391
690.010	-418
690.054	-208
690.099	-94
690.112	153
690.144	538
690.189	132
690.233	-763
690.233	-765
690.278	-284
690.323	-299
690.354	-336
690.367	-334
690.412	-49
690.457	-529
690.474	-331
690.501	-60
690.546	88
690.590	255
690.595	205
690.635	-154
690.680	-327
690.716	117
690.724	182
690.769	-182
690.813	-74
690.836	-302
690.857	-232
690.902	200
690.946	533
690.957	688
690.991	1105
691.035	1367
691.077	1888
691.080	1892
691.124	1181
691.168	1241
691.198	659
691.213	379
691.257	660
691.301	147
691.318	37
691.346	-22
691.390	-131
691.434	-349
691.439	-337
691.478	-10
691.522	-33
691.559	63
691.567	39
691.611	169
691.655	-251
691.680	-255
691.699	-91
691.743	370
691.787	383
691.800	529
691.831	680
691.875	281
691.919	480
691.921	471
691.964	340
692.008	108
692.041	435
692.052	564
692.096	276
692.139	173
692.162	391
692.183	437
692.227	-3
692.271	-299
692.282	-331
692.315	-166
692.359	-296
692.402	147
692.403	155
692.447	359
692.490	1057
692.523	985
692.534	805
692.578	697
692.622	179
692.643	216
692.666	450
692.709	-123
692.753	374
692.763	386
692.797	482
692.840	838
692.884	1007
692.884	1011
692.928	1021
692.971	733
693.004	761
693.015	767
693.059	848
693.102	683
693.124	688
693.146	598
693.189	363
693.233	231
693.245	26
693.276	-210
693.320	177
693.363	172
693.365	176
693.407	216
693.450	90
693.485	9
693.493	73
693.537	352
693.580	661
693.605	904
693.624	1011
693.667	1342
693.710	1411
693.725	1411
693.753	2044
693.797	3111
693.840	4317
693.845	4448
693.883	3621
693.926	2533
693.966	1658
693.970	1627
694.013	1090
694.056	941
694.086	431
694.099	353
694.142	495
694.185	515
694.206	462
694.229	423
694.272	667
694.315	825
694.326	726
694.358	571
694.401	951
694.444	1043
694.446	1050
694.487	895
694.530	582
694.566	452
694.573	481
694.616	404
694.659	577
694.686	550
694.702	601
694.745	702
694.787	1074
694.806	1051
694.830	777
694.873	715
694.916	545
694.926	487
694.959	536
695.002	523
695.044	518
695.046	515
695.087	456
695.130	290
695.166	260
695.172	297
695.215	314
695.258	811
695.286	704
695.301	634
695.343	780
695.386	894
695.406	946
695.428	888
695.471	684
695.514	607
695.526	523
695.556	516
695.599	709
695.641	814
695.646	829
695.684	906
695.726	663
695.766	900
695.769	911
695.811	614
695.854	458
695.886	350
695.896	410
695.938	548
695.981	678
696.005	900
696.023	1056
696.065	1076
696.108	1291
696.125	1256
696.150	1029
696.192	1068
696.235	887
696.245	860
696.277	850
696.319	556
696.361	528
696.365	510
696.404	601
696.446	800
696.485	985
696.488	998
696.530	1021
696.572	1077
696.604	1101
696.614	1092
696.656	1158
696.698	952
696.724	971
696.740	949
696.783	730
696.825	671
696.844	545
696.867	666
696.909	963
696.951	1269
696.964	1397
696.992	1484
697.034	1383
697.076	1392
697.083	1395
697.118	1374
697.160	1304
697.202	1149
697.203	1138
697.244	1015
697.286	996
697.323	815
697.327	817
697.369	912
697.411	980
697.442	957
697.453	939
697.494	903
697.536	934
697.562	891
697.578	881
697.620	837
697.661	852
697.682	801
697.703	763
697.744	798
697.786	798
697.801	770
697.828	844
697.869	1022
697.911	1176
697.921	1203
697.952	1207
697.994	1219
698.035	1213
698.040	1210
698.077	1204
698.118	1129
698.160	1098
698.160	1091
698.201	1005
698.243	915
698.279	895
698.284	920
698.325	1063
698.367	1196
698.399	1280
698.408	1265
698.449	1196
698.491	1116
698.518	1050
698.532	1148
698.573	1461
698.614	1766
698.638	1901
698.656	1876
698.697	1875
698.738	1836
698.757	1808
698.779	1698
698.820	1478
698.862	1269
698.877	1183
698.903	1316
698.944	1525
698.985	1732
698.996	1784
699.026	1662
699.067	1487
699.116	1274
699.235	952
699.354	1490
699.474	1492
699.593	1137
699.713	1669
699.832	2147
699.951	1423
700.070	2266
700.190	1433
700.309	1960
700.428	933
700.547	1521
700.667	1824
700.786	2107
700.905	1945
701.024	970
701.143	1117
701.262	1056
701.381	965
701.500	1532
701.619	1077
701.738	1269
701.857	1536
701.976	641
702.095	1091
702.214	1918
702.333	1012
702.452	590
702.571	1293
702.690	1340
702.809	1217
702.928	2054
703.047	1162
703.165	1731
703.284	1715
703.403	1305
703.522	1137
703.640	1669
703.759	2403
703.878	1038
703.997	1492
704.115	1556
704.234	1092
704.353	955
704.471	589
704.590	1285
704.708	1681
704.827	1101
704.946	620
705.064	28
705.183	1170
705.301	1569
705.420	924
705.538	1280
705.656	887
705.775	2773
705.893	8806
706.012	11412
706.130	691
706.249	1105
706.367	1139
706.485	1300
706.604	392
706.722	764
706.840	1123
706.958	2166
707.077	1356
707.195	982
707.313	1197
707.431	999
707.549	394
707.668	480
707.786	1080
707.904	410
708.022	351
708.140	967
708.258	1191
708.376	1300
708.494	719
708.612	612
708.730	415
708.848	1264
708.966	578
709.084	684
709.202	1116
709.320	484
709.438	716
709.556	925
709.674	1217
709.791	506
709.909	418
710.027	1602
710.145	587
710.263	1392
710.380	96
710.498	1431
710.616	842
710.733	-132
710.851	294
710.969	1080
711.086	795
711.204	748
711.322	306
711.439	494
711.557	421
711.674	1582
711.792	735
711.909	3015
712.027	2751
712.144	1026
712.262	1168
712.379	395
712.497	250
712.614	1232
712.732	770
712.849	1175
712.966	567
713.084	1081
713.201	621
713.318	1339
713.436	1374
713.553	481
713.670	1190
713.787	353
713.905	1167
714.022	288
714.139	628
714.256	1849
714.373	1724
714.490	1579
714.608	4406
714.725	19826
714.842	16540
714.959	723
715.076	991
715.193	899
715.310	252
715.427	878
715.544	600
715.661	422
715.778	-431
715.895	827
716.011	1058
716.128	1061
716.245	1246
716.362	2240
716.479	673
716.596	1315
716.713	1512
716.829	1217
716.946	867
717.063	876
717.180	10
717.296	321
717.413	1422
717.530	454
717.646	-262
717.763	466
717.880	432
717.996	980
718.113	-250
718.229	67
718.346	638
718.462	636
718.579	725
718.695	1057
718.812	912
718.928	373
719.045	581
719.161	340
719.277	393
719.394	949
719.510	1043
719.626	737
719.743	558
719.859	697
719.975	1721
720.092	4921
720.208	9084
720.324	975
720.440	581
720.557	91
720.673	1123
720.789	448
720.905	431
721.021	297
721.137	355
721.253	548
721.369	171
721.486	799
721.602	827
721.718	789
721.834	575
721.950	517
722.066	432
722.181	873
722.297	564
722.413	263
722.529	745
722.645	902
722.761	552
722.877	731
722.993	481
723.108	202
723.224	163
723.340	386
723.456	963
723.571	761
723.687	778
723.803	826
723.918	453
724.034	-183
724.150	692
724.265	-139
724.381	329
724.497	725
724.612	200
724.728	-3
724.843	512
724.959	544
725.074	87
725.190	131
725.305	122
725.421	567
725.536	-388
725.651	693
725.767	349
725.882	1290
725.997	276
726.113	49
726.228	315
726.343	706
726.459	99
726.574	184
726.689	-411
726.804	817
726.920	-437
727.035	324
727.150	436
727.265	509
727.380	948
727.495	1187
727.610	1563
727.725	302
727.841	1525
727.956	5743
728.071	3048
728.186	288
728.301	907
728.416	423
728.531	1162
728.645	-63
728.760	1456
728.875	3131
728.990	1301
729.105	830
729.220	800
729.335	411
729.449	130
729.564	396
729.679	112
729.794	515
729.908	103
730.023	552
730.138	-43
730.253	187
730.367	319
730.482	-97
730.596	249
730.711	730
730.826	215
730.940	492
731.055	225
731.169	277
731.284	-482
731.398	332
731.513	-319
731.627	145
731.742	-70
731.856	497
731.970	-225
732.085	441
732.199	278
732.313	736
732.428	1702
732.542	5315
732.656	2263
732.771	205
732.885	148
732.999	843
733.113	-115
733.227	524
733.342	-135
733.456	92
733.570	326
733.684	133
733.798	537
733.912	216
734.026	287
734.140	166
734.254	481
734.368	-151
734.482	175
734.596	172
734.710	312
734.824	568
734.938	-514
735.052	-186
735.166	308
735.280	728
735.393	-518
735.507	-271
735.621	-405
735.735	-761
735.849	-227
735.962	1406
736.076	-3
736.190	-133
736.303	12
736.417	71
736.531	-71
736.644	344
736.758	-580
736.872	-221
736.985	-248
737.099	116
737.212	-284
737.326	418
737.439	-493
737.553	-303
737.666	731
737.780	497
737.893	555
738.007	444
738.120	-640
738.233	98
738.347	443
738.460	238
738.573	837
738.687	313
738.800	-253
738.913	691
739.026	11
739.140	945
739.253	640
739.366	211
739.479	-365
739.592	-27
739.705	302
739.818	415
739.932	14
740.045	390
740.158	268
740.271	783
740.384	-559
740.497	464
740.610	740
740.723	598
740.836	908
740.949	761
741.062	462
741.174	-109
741.287	226
741.400	451
741.513	1071
741.626	1483
741.739	756
741.851	125
741.964	-233
742.077	154
742.189	758
742.302	2307
742.415	1002
742.527	85
742.640	-580
742.753	-318
742.865	368
742.978	-831
743.090	-18
743.203	192
743.316	245
743.428	378
743.541	575
743.653	-474
743.766	106
743.878	-16
743.990	-101
744.103	1026
744.215	370
744.327	719
744.440	97
744.552	411
744.664	-548
744.777	149
744.889	-651
745.001	1268
745.113	-604
745.226	369
745.338	-454
745.450	-744
745.562	-561
745.674	177
745.786	291
745.898	-159
746.010	-384
746.122	-356
746.234	-93
746.347	1068
746.459	-258
746.570	-19
746.682	525
746.794	1003
746.906	662
747.018	224
747.130	-246
747.242	707
747.354	-579
747.466	313
747.577	334
747.689	-83
747.801	175
747.913	-205
748.024	199
748.136	-24
748.248	-160
748.359	-191
748.471	-122
748.583	-88
748.694	515
748.806	1059
748.918	-337
749.029	-269
749.141	60
749.252	258
749.364	-54
749.475	420
749.587	-486
749.698	308
749.809	420
749.921	-274
750.032	114
750.144	567
750.255	33
750.366	-662
750.478	-299
750.589	-766
750.700	-422
750.811	165
750.923	69
751.034	39
751.145	283
751.256	0
751.367	-234
751.479	189
751.590	292
751.701	60
751.812	-338
751.923	403
752.034	-91
752.145	203
752.256	315
752.367	533
752.478	-417
752.589	566
752.700	-414
752.811	-219
752.922	-113
753.032	-974
753.143	-343
753.254	-387
753.365	108
753.476	-956
753.586	-281
753.697	38
753.808	-478
753.919	643
754.029	-53
754.140	175
754.251	-518
754.361	-310
754.472	-634
754.582	-632
754.693	-431
754.804	387
754.914	-109
755.025	-556
755.135	-88
755.246	453
755.356	-354
755.466	53
755.577	-19
755.687	-447
755.798	-493
755.908	-50
756.018	-385
756.129	73
756.239	-123
756.349	-9
756.460	-888
756.570	90
756.680	-642
756.790	64
756.900	132
757.011	147
757.121	-976
757.231	-460
757.341	-200
757.451	234
757.561	-396
757.671	-409
757.781	-843
757.891	1072
758.001	-131
758.111	-162
758.221	551
758.331	496
758.441	-431
758.551	-621
758.661	-328
758.771	197
758.880	-806
758.990	-560
759.100	-526
759.210	205
759.320	-151
759.429	-536
759.539	-133
759.649	-1005
759.758	-492
759.868	167
759.978	-765
760.087	-252
760.197	10
760.307	129
760.416	-339
760.526	-722
760.635	-276
760.745	-122
760.854	-462
760.964	-513
761.073	153
761.182	-419
761.292	-364
761.401	-517
761.511	-436
761.620	-300
761.729	-582
761.839	-719
761.948	39
762.057	585
762.166	-15
762.276	-1419
762.385	1031
762.494	-93
762.603	-40
762.712	-669
762.822	-608
762.931	273
763.040	-828
763.149	-444
763.258	-445
763.367	452
763.476	-446
763.585	-214
763.694	510
763.803	-185
763.912	-596
764.021	-227
764.130	304
764.238	390
764.347	-280
764.456	-422
764.565	-311
764.674	975
764.783	-679
764.891	-495
765.000	442
765.109	-157
765.217	18
765.326	658
765.435	732
765.543	831
765.652	703
765.761	1029
765.869	1779
765.978	4876
766.086	8291
766.195	19052
766.303	56785
766.412	150288
766.520	113386
766.629	27045
766.737	9458
766.846	4983
766.954	3080
767.062	2534
767.171	2940
767.279	2829
767.387	548
767.496	899
767.604	102
767.712	863
767.820	-92
767.928	968
768.037	16
768.145	1354
768.253	799
768.361	412
768.469	931
768.577	456
768.685	902
768.793	438
768.901	-141
769.009	943
769.117	821
769.225	936
769.333	1802
769.441	3435
769.549	6110
769.657	18762
769.765	64229
769.873	120494
769.981	35398
770.088	7172
770.196	3280
770.304	1325
770.412	882
770.519	345
770.627	268
770.735	627
770.842	466
770.950	98
771.058	-71
771.165	-226
771.273	-464
771.380	396
771.488	340
771.595	304
771.703	-148
771.810	321
771.918	-863
772.025	379
772.133	-1023
772.240	-161
772.348	215
772.455	198
772.562	-265
772.670	-320
772.777	-641
772.884	-666
772.991	-230
773.099	-316
773.206	-644
773.313	225
773.420	-377
773.528	-1163
773.635	-117
773.742	-204
773.849	299
773.956	-119
774.063	-495
774.170	-272
774.277	-554
774.384	-498
774.491	-1481
774.598	331
774.705	-601
774.812	-236
774.919	365
775.026	-56
775.133	-316
775.239	-652
775.346	-307
775.453	-382
775.560	-387
775.667	-344
775.773	-1214
775.880	-94
775.987	-301
776.093	218
776.200	-753
776.307	-865
776.413	266
776.520	-404
776.627	-248
776.733	-392
776.840	-1408
776.946	1312
777.053	526
777.159	2842
777.266	-189
777.372	3088
777.478	1123
777.585	864
777.691	-580
777.798	467
777.904	-52
778.010	308
778.117	-757
778.223	-864
778.329	-342
778.435	-659
778.542	-536
778.648	-1507
778.754	-995
778.860	-492
778.966	-792
779.072	-171
779.178	-533
779.284	-533
779.391	-607
779.497	-1633
779.603	914
779.708	-1645
779.815	706
779.920	208
780.026	681
780.132	-783
780.238	-1211
780.344	-1061
780.450	-203
780.556	-139
780.661	-1079
780.767	131
780.873	-841
780.979	-478
781.085	-1145
781.190	-619
781.296	-734
781.402	-1399
781.507	-764
781.613	-350
781.719	-1491
781.824	95
781.930	-568
782.035	-57
782.141	-536
782.246	-1025
782.352	-257
782.457	-964
782.563	-238
782.668	-625
782.773	-73
782.879	-705
782.984	-383
783.090	-121
783.195	-1127
783.300	94
783.405	227
783.511	-931
783.616	-355
783.721	-421
783.826	-318
783.932	-201
784.037	-881
784.142	-422
784.247	-405
784.352	-419
784.457	-362
784.562	-60
784.667	-263
784.772	-913
784.877	-958
784.982	-217
785.087	-1372
785.192	760
785.297	-887
785.402	-661
785.507	-319
785.611	-240
785.716	-529
785.821	-249
785.926	-680
786.031	-1067
786.135	-982
786.240	-295
786.345	-1481
786.450	19
786.554	-495
786.659	-437
786.763	-1455
786.868	-120
786.973	-405
787.077	-636
787.182	-815
787.286	-729
787.391	-698
787.495	-1101
787.600	-1015
787.704	-936
787.809	-1062
787.913	-918
788.017	-725
788.122	-235
788.226	-619
788.330	-1397
788.435	-862
788.539	-1098
788.643	-1119
788.747	-1274
788.852	-861
788.956	-653
789.060	-93
789.164	-20
789.268	-905
789.372	348
789.476	-1308
789.580	-1363
789.684	-1425
789.788	9
789.892	-963
789.996	-941
790.100	-1534
790.204	-470
790.308	-886
790.412	-1316
790.516	-416
790.620	-849
790.724	-538
790.828	-592
790.931	-859
791.035	1187
791.139	-1158
791.242	-947
791.346	-550
791.450	-630
791.554	-525
791.657	-1566
791.761	251
791.864	227
791.968	-702
792.072	-634
792.175	-637
792.279	-327
792.382	-1118
792.486	44
792.589	-1698
792.693	-565
792.796	-1159
792.899	-562
793.003	241
793.106	-1543
793.209	-1053
793.313	1442
793.416	-2373
793.519	211
793.623	-846
793.726	-1241
793.829	-929
793.932	-161
794.035	-1268
794.138	321
794.242	23
794.345	-134
794.448	-403
794.551	-1524
794.654	987
794.757	338
794.860	168
794.963	106
795.066	-792
795.169	927
795.272	-1797
795.375	-63
795.477	-1596
795.580	-530
795.683	-1817
795.786	-1341
795.889	-2045
795.991	379
796.094	51
796.197	-1542
796.300	-554
796.402	-791
796.505	-1247
796.608	-1367
796.710	107
796.813	-658
796.915	-1452
797.018	-740
797.120	-413
797.223	-1502
797.326	679
797.428	-1068
797.530	-1280
797.633	-352
797.735	-80
797.838	-640
797.940	53
798.042	-1674
798.145	-648
798.247	-171
798.349	-2341
798.452	48
798.554	-1344
798.656	-1437
798.758	646
798.860	-1566
798.962	-775
799.065	-576
799.167	-1250
799.269	-36
799.371	-376
799.473	11
799.575	-2428
799.677	-1528
799.779	117
799.881	-2008
799.983	-669
800.085	-303
800.187	-384
800.289	-1383
800.390	-1019
800.492	-445
800.594	610
800.696	-447
800.798	68
800.899	-821
801.001	-1451
801.103	-169
801.205	-1251
801.306	-1295
801.408	-1749
801.509	-1252
801.611	-733
801.713	-664
801.814	-1641
801.916	-657
802.017	-839
802.119	-1307
802.220	-292
802.322	-2041
802.423	223
802.525	-1011
802.626	-255
802.727	-654
802.829	-12
802.930	-3429
803.031	-384
803.133	-734
803.234	-1153
803.335	-218
803.436	-1647
803.538	-231
803.639	-2075
803.740	164
803.841	-1919
803.942	746
804.043	-838
804.144	-1517
804.245	-540
804.346	-353
804.447	-1554
804.548	-721
804.649	-551
804.750	-404
804.851	-897
804.952	-1194
805.053	-1114
805.154	-1331
805.255	509
805.355	-831
805.456	-841
805.557	-823
805.658	-1436
805.758	105
805.859	-730
805.960	-1166
806.061	-1677
806.161	-556
806.262	-941
806.362	-693
806.463	-1465
806.564	-586
806.664	-676
806.765	-646
806.865	-373
806.966	-439
807.066	-1729
807.166	-58
807.267	-203
807.367	-1633
807.468	-174
807.568	-1644
807.668	-179
807.769	247
807.869	-516
807.969	-893
808.069	-832
808.170	-573
808.270	-1271
808.370	111
808.470	-1082
808.570	-1555
808.670	-1970
808.770	-346
808.870	-1648
808.970	-726
809.070	-308
809.170	-1036
809.271	-668
809.370	-516
809.470	-685
809.570	-895
809.670	-1045
809.770	-418
809.870	-513
809.970	-1132
810.070	-1013
810.169	-679
810.269	-2556
810.369	60
810.469	-1519
810.568	-1606
810.668	-1390
810.768	-1649
810.867	-656
810.967	-1429
811.066	-1164
811.166	-979
811.265	327
811.365	-1025
811.464	-1097
811.564	-741
811.663	-492
811.763	-2242
811.862	-878
811.962	-276
812.061	-1167
812.160	-1354
812.260	-200
812.359	-1275
812.458	-1215
812.557	-576
812.657	-1931
812.756	-371
812.855	-969
812.954	-1157
813.053	-247
813.153	-40
813.252	-2166
813.351	-548
813.450	-1031
813.549	-1048
813.648	-211
813.747	-763
813.846	-644
813.945	-1254
814.044	-600
814.143	-767
814.242	-850
814.341	-1947
814.439	-253
814.538	-651
814.637	-862
814.736	-875
814.835	-229
814.933	-1249
815.032	-86
815.131	-1615
815.229	-1029
815.328	-780
815.427	-1788
815.525	-40
815.624	-1158
815.722	-987
815.821	-1040
815.919	-1113
816.018	-1745
816.116	-460
816.215	-876
816.313	-1302
816.412	-1505
816.510	-1198
816.609	-241
816.707	-884
816.805	-550
816.904	-1281
817.002	-1003
817.100	594
817.198	-654
817.296	-1445
817.395	-1191
817.493	773
817.591	-1018
817.689	-112
817.787	-1043
817.885	-150
817.983	557
818.081	3198
818.179	10077
818.277	32493
818.375	18200
818.473	2148
818.571	178
818.669	-105
818.767	264
818.865	404
818.963	285
819.061	869
819.158	1812
819.256	9267
819.354	24318
819.452	63267
819.549	23672
819.647	3476
819.745	364
819.842	980
819.940	25
820.038	-371
820.135	-1246
820.233	836
820.330	-1458
820.428	-1545
820.525	-557
820.623	-478
820.720	-1510
820.818	-450
820.915	-441
821.012	287
821.110	-2133
821.207	250
821.304	-675
821.402	79
821.499	-78
821.596	1200
821.693	-814
821.791	-883
821.888	-1162
821.985	-589
822.082	-884
822.179	-556
822.276	-1325
822.373	-954
822.470	-1072
822.567	-184
822.664	-1686
822.761	315
822.858	-2236
822.955	-528
823.052	-850
823.149	-1188
823.246	-986
823.343	-696
823.440	-739
823.536	-1121
823.633	-1951
823.730	-426
823.827	-926
823.923	-340
824.020	-291
824.117	-1762
824.213	-1870
824.310	-487
824.407	-893
824.503	-769
824.600	-71
824.696	-824
824.793	-163
824.889	-1332
824.986	-935
825.082	-1067
825.179	-908
825.275	-435
825.371	-1075
825.468	309
825.564	-1228
825.660	-670
825.757	-584
825.853	-76
825.949	-1844
826.045	-718
826.142	-1548
826.238	-717
826.334	-1367
826.430	-2183
826.526	-1024
826.622	-556
826.718	-891
826.814	-1340
826.910	3
827.006	-1764
827.102	-1376
827.198	-199
827.294	-745
827.390	-297
827.486	-451
827.582	-1864
827.678	-2096
827.774	66
827.869	-1704
827.965	-657
828.061	-2173
828.157	-1863
828.252	-575
828.348	-1552
828.444	-124
828.539	-1186
828.635	-1176
828.731	-534
828.826	-2007
828.922	-181
829.017	-1446
829.113	-596
829.208	-1055
829.304	-1841
829.399	84
829.495	-1060
829.590	485
829.685	-1392
829.781	-1168
829.876	-596
829.971	-1585
830.066	-1096
830.162	-1156
830.257	-1302
830.352	-829
830.447	-262
830.543	-1004
830.638	-2922
830.733	-509
830.828	-1663
830.923	220
831.018	-1298
831.113	-937
831.208	-1886
831.303	-929
831.398	-1032
831.493	-1287
831.588	-832
831.683	-2059
831.778	-1003
831.873	-1317
831.967	-500
832.062	-1674
832.157	-2021
832.252	-959
832.346	-1102
832.441	-462
832.536	-819
832.631	-847
832.725	-446
832.820	-1330
832.914	-1314
833.009	-1445
833.104	-710
833.198	-1171
833.293	-829
833.387	-736
833.482	-1098
833.576	-1128
833.670	-284
833.765	-1322
833.859	-1339
833.954	-600
834.048	-1256
834.142	-1100
834.237	-2093
834.331	-1494
834.425	-1467
834.519	-1208
834.613	-295
834.708	-1422
834.802	-1727
834.896	-1554
834.990	-756
835.084	-890
835.178	-997
835.272	-1372
835.366	-2031
835.460	-997
835.554	-404
835.648	-1116
835.742	-1313
835.836	-1293
835.930	-2572
836.024	-1223
836.117	-225
836.211	-1482
836.305	-564
836.399	-735
836.493	-1644
836.586	-508
836.680	-1634
836.774	-1074
836.867	-460
836.961	-1432
837.055	-1381
837.148	-1054
837.242	-590
837.335	-1785
837.429	-1126
837.522	-1295
837.616	-1723
837.709	-1428
837.803	-1197
837.896	-600
837.989	-1027
838.083	-357
838.176	-1377
838.269	-1801
838.363	-502
838.456	-1493
838.549	-375
838.642	-1165
838.735	-262
838.829	75
838.922	-1891
839.015	-1071
839.108	-1374
839.201	-245
839.294	-1071
839.387	-837
839.480	-2043
839.573	-866
839.666	-1077
839.759	-1077
839.852	-1887
839.945	-614
840.038	-1362
840.131	-871
840.223	-1444
840.316	-843
840.409	-934
840.502	-2117
840.594	-513
840.687	-1272
840.780	-496
840.873	-1203
840.965	-1785
841.058	-988
841.150	-560
841.243	-2079
841.336	-843
841.428	-1316
841.521	-769
841.613	-2330
841.706	-803
841.798	-791
841.890	-1290
841.983	-1970
842.075	-180
842.167	-1549
842.260	-1377
842.352	-572
842.444	-1162
842.537	-1830
842.629	-955
842.721	-1257
842.813	-1042
842.905	-2105
842.997	-1532
843.090	-1493
843.182	-648
843.274	-1911
843.366	-452
843.458	-1135
843.550	-997
843.642	-2066
843.734	-1048
843.826	-1743
843.918	-701
844.009	-984
844.101	-1164
844.193	-928
844.285	-490
844.377	-1171
844.469	96
844.560	-622
844.652	-702
844.744	-762
844.835	-721
844.927	-1025
845.019	-1614
845.110	-1122
845.202	-940
845.293	-960
845.385	-1464
845.476	-876
845.568	-107
845.659	-1561
845.751	-484
845.842	-1035
845.934	-1282
846.025	-1891
846.116	-1024
846.208	-720
846.299	-891
846.390	-2178
846.482	-775
846.573	-1401
846.664	-1262
846.755	-1263
846.846	-878
846.937	-1968
847.029	-1151
847.120	-1476
847.211	-1264
847.302	237
847.393	-2881
847.484	-553
847.575	-1456
847.666	-1132
847.757	-825
847.847	-1751
847.938	152
848.029	-1560
848.120	-1012
848.211	-1405
848.302	-1577
848.392	-1581
848.483	-910
848.574	-2125
848.664	-1407
848.755	-1191
848.846	-1076
848.936	-1711
849.027	-1737
849.118	-1069
849.208	-1979
849.299	-1199
849.389	-1510
849.480	-364
849.570	-674
849.661	924
849.751	2453
849.841	-252
849.932	-1735
850.022	-2188
850.112	-154
850.203	-1630
850.293	-1418
850.383	-1076
850.474	-1782
850.564	-1101
850.654	-1591
850.744	-1250
850.834	-1442
850.924	-1825
851.014	-145
851.104	-1476
851.194	-1913
851.284	-891
851.374	-1780
851.464	-1930
851.554	-1520
851.644	-1355
851.734	-946
851.824	-1173
851.914	-2206
852.004	-1450
852.094	-1615
852.183	-1896
852.273	-829
852.363	-2063
852.452	-1623
852.542	-928
852.632	-1934
852.721	-1441
852.811	-1562
852.901	-877
852.990	-912
853.080	-737
853.169	-1017
853.259	-1681
853.348	-1295
853.438	-1346
853.527	-860
853.617	-674
853.706	-691
853.795	482
853.885	4272
853.974	9351
854.063	19959
854.152	29845
854.242	7656
854.331	-263
854.420	-1332
854.509	-1354
854.598	-1048
854.687	-1221
854.777	-773
854.866	-1124
854.955	-670
855.044	-1918
855.133	-1143
855.222	-820
855.311	-1235
855.400	-1126
855.488	-1454
855.577	-1588
855.666	-1366
855.755	-357
855.844	-1065
855.933	-1331
856.021	-1620
856.110	-880
856.199	-2584
856.288	-1611
856.376	-986
856.465	-1903
856.554	-1326
856.642	-1290
856.731	-972
856.819	-1253
856.908	-1804
856.996	-1380
857.085	-1668
857.173	-1861
857.262	-1582
857.350	-1740
857.438	-1057
857.527	-876
857.615	-1651
857.703	-832
857.792	-1550
857.880	-1894
857.968	-1968
858.056	-1222
858.145	-364
858.233	-2322
858.321	-1561
858.409	-514
858.497	-2154
858.585	-1067
858.673	-450
858.761	-1628
858.849	-1593
858.937	-1235
859.025	-516
859.113	-1724
859.201	-2139
859.289	-755
859.377	-1439
859.465	-1047
859.552	-1300
859.640	-1876
859.728	-1069
859.816	-1332
859.903	-1097
859.991	-2143
860.079	-613
860.166	-1381
860.254	-1340
860.342	-507
860.429	-1499
860.517	-1659
860.604	-1205
860.692	-2225
860.779	-959
860.867	-1900
860.954	-587
861.042	-1642
861.129	-1759
861.216	-1560
861.304	-1850
861.391	-1185
861.478	-972
861.565	-1060
861.653	-1305
861.740	-1865
861.827	-1222
861.914	-1611
862.001	-1028
862.089	-945
862.176	-1026
862.263	-1833
862.350	-575
862.437	-1634
862.524	-1181
862.611	-869
862.698	-1471
862.785	-986
862.871	-213
862.958	-1676
863.045	-1488
863.132	-1832
863.219	-419
863.306	-2517
863.392	-717
863.479	-1313
863.566	-2053
863.652	-1420
863.739	-2129
863.826	-885
863.912	-1064
863.999	-2402
864.086	-1340
864.172	-1980
864.259	-1211
864.345	-1565
864.432	-1213
864.518	-941
864.604	-1800
864.691	-1500
864.777	-917
864.863	-1042
864.950	-665
865.036	-1528
865.122	-1180
865.209	-1360
865.295	-1572
865.381	-1795
865.467	-951
865.553	-1034
865.639	-1439
865.726	-923
865.812	-137
865.898	3884
865.984	5474
866.070	11497
866.156	12906
866.242	680
866.328	-242
866.414	-1645
866.499	-954
866.585	-1692
866.671	-1311
866.757	-1077
866.843	-1108
866.928	-1520
867.014	-1279
867.100	-1230
867.186	-1567
867.271	-2104
867.357	-776
867.442	-1407
867.528	-1485
867.614	-1813
867.699	-1332
867.785	-836
867.870	-1216
867.956	-715
868.041	-507
868.127	-1623
868.212	-1520
868.297	-972
868.383	-1425
868.468	-1015
868.553	-61
868.639	-1010
868.724	-1583
868.809	-646
868.894	-761
868.979	-889
869.065	-1582
869.150	-1424
869.235	-1113
869.320	-2065
869.405	-1326
869.490	-1912
869.575	-1384
869.660	-1366
869.745	-1266
869.830	-1436
869.915	-1734
870.000	-1268
870.085	-994
870.169	-1286
870.254	-1361
870.339	-1948
870.424	-2004
870.509	-1126
870.593	-1809
870.678	-1570
870.763	-1392
870.847	-1747
870.932	-1969
871.016	-1002
871.101	-1529
871.186	-1358
871.270	-813
871.355	-1700
871.439	-1120
871.523	-2159
871.608	-1705
871.692	-1381
871.777	-1103
871.861	-1227
871.945	-1313
872.030	-1343
872.114	-798
872.198	-1427
872.282	-913
872.367	-1970
872.451	-2272
872.535	-2129
872.619	-1693
872.703	-1589
872.787	-1322
872.871	-1435
872.955	-1537
873.039	-1482
873.123	-928
873.207	-758
873.291	-1849
873.375	-2155
873.459	-1782
873.543	-1240
873.627	-2061
873.711	-1883
873.794	-655
873.878	-1377
873.962	-1202
874.045	-591
874.129	-1317
874.137	-1348
874.213	-1661
874.245	-1499
874.296	-1233
874.352	-1446
874.380	-1552
874.460	-1219
874.464	-1206
874.547	-1293
874.568	-1081
874.631	-462
874.676	-747
874.714	-982
874.784	-1380
874.798	-1460
874.881	-789
874.892	-912
874.965	-1752
874.999	-1340
875.048	-760
875.107	-603
875.131	-541
875.215	-958
875.215	-958
875.298	-1360
875.323	-1413
875.381	-1461
875.430	-1165
875.465	-998
875.538	-1757
875.548	-1856
875.631	-1978
875.646	-1868
875.714	-1305
875.753	-1052
875.798	-807
875.861	-924
875.881	-949
875.964	-964
875.968	-962
876.047	-943
876.076	-1009
876.130	-1174
876.183	-991
876.213	-814
876.291	-1097
876.296	-1127
876.379	-1220
876.398	-1186
876.462	-1117
876.506	-1244
876.545	-1278
876.613	-1099
876.628	-1058
876.711	-1197
876.721	-1114
876.794	-661
876.828	-917
876.877	-1201
876.935	-1143
876.960	-1121
877.043	-1227
877.043	-1227
877.125	-1025
877.150	-911
877.208	-625
877.258	-797
877.291	-893
877.365	-1598
877.374	-1696
877.456	-723
877.472	-935
877.539	-1566
877.579	-1316
877.622	-1251
877.687	-1184
877.704	-1115
877.787	-1677
877.794	-1644
877.869	-1315
877.901	-1052
877.952	-704
878.008	-1159
878.034	-1318
878.115	-1242
878.117	-1240
878.199	-1399
878.222	-1111
878.282	-428
878.329	-593
878.364	-687
878.437	-534
878.447	-517
878.529	-1678
878.544	-1563
878.611	-1015
878.651	-955
878.694	-799
878.758	-843
878.776	-911
878.858	-592
878.865	-596
878.941	-763
878.972	-1207
879.023	-1667
879.078	-1285
879.105	-1056
879.185	-759
879.187	-760
879.269	-843
879.292	-1037
879.351	-1335
879.399	-988
879.433	-901
879.506	-1058
879.516	-1012
879.598	-601
879.613	-664
879.680	-1015
879.720	-737
879.762	-502
879.827	-798
879.844	-962
879.926	-946
879.933	-1007
880.007	-988
880.040	-905
880.089	-922
880.147	-769
880.171	-722
880.253	-774
880.254	-777
880.335	-849
880.360	-731
880.417	-247
880.467	-214
880.499	-55
880.574	714
880.580	662
880.662	-294
880.680	-603
880.744	-949
880.787	-968
880.825	-1189
880.893	-1137
880.907	-1000
880.989	-832
881.000	-759
881.070	-583
881.106	-513
881.152	-448
881.213	-543
881.233	-642
881.315	-1427
881.319	-1425
881.396	-860
881.426	-913
881.478	-955
881.532	-520
881.559	-458
881.639	-674
881.641	-670
881.722	-517
881.745	-599
881.803	-660
881.852	-447
881.885	-447
881.958	-722
881.966	-735
882.047	-425
882.064	-495
882.129	-586
882.171	-249
882.210	23
882.277	-47
882.291	-88
882.372	-28
882.383	-69
882.454	-416
882.489	-305
882.535	-201
882.596	-857
882.616	-1020
882.697	-680
882.702	-699
882.778	-410
882.808	-306
882.859	-611
882.914	-757
882.940	-776
883.020	-594
883.021	-589
883.102	-681
883.127	-647
883.183	-701
883.233	-837
883.264	-640
883.339	-27
883.345	-39
883.426	-439
883.445	-460
883.507	-302
883.551	-364
883.587	-495
883.657	-864
883.668	-849
883.749	-422
883.763	-348
883.830	-423
883.869	-658
883.910	-638
883.975	-369
883.991	-375
884.072	-393
884.081	-420
884.152	-386
884.187	-409
884.233	-646
884.292	-676
884.314	-547
884.394	-298
884.398	-290
884.475	-601
884.504	-729
884.555	-633
884.610	-385
884.636	-360
884.716	-636
884.716	-635
884.797	-852
884.821	-896
884.877	-645
884.927	-339
884.958	-80
885.033	159
885.038	139
885.118	43
885.139	-60
885.199	-156
885.244	62
885.279	304
885.350	102
885.359	-10
885.439	-350
885.456	-529
885.520	-491
885.561	-389
885.600	-505
885.667	-722
885.680	-711
885.760	-521
885.773	-478
885.840	-200
885.878	-222
885.920	-390
885.984	-559
886.000	-591
886.080	-447
886.089	-483
886.160	-459
886.195	-306
886.240	-340
886.300	-594
886.320	-530
886.400	-81
886.406	-67
886.480	-543
886.511	-672
886.560	-216
886.616	229
886.640	152
886.720	-108
886.722	-120
886.800	233
886.827	391
886.879	153
886.932	-306
886.959	-295
887.038	120
887.039	122
887.119	-354
887.143	-506
887.198	-222
887.248	-66
887.278	-87
887.354	78
887.358	64
887.437	-478
887.459	-622
887.517	-234
887.564	95
887.596	9
887.669	-284
887.676	-295
887.755	-332
887.774	-374
887.835	-287
887.880	-193
887.914	-285
887.985	-626
887.994	-576
888.073	48
888.090	127
888.153	-282
888.195	-465
888.232	-188
888.300	367
888.311	334
888.391	-140
888.405	-216
888.470	-296
888.510	-346
888.549	-446
888.615	-554
888.628	-452
888.708	28
888.720	127
888.787	-70
888.825	-254
888.866	-88
888.930	181
888.945	153
889.024	41
889.035	20
889.103	-256
889.140	-416
889.182	-393
889.245	-337
889.261	-360
889.340	-484
889.349	-498
889.419	-567
889.454	-617
889.498	-418
889.559	-123
889.577	-94
889.656	21
889.664	31
889.735	200
889.768	278
889.814	108
889.873	-118
889.978	-39
890.083	-617
890.187	158
890.292	-601
890.397	-373
890.501	-309
890.606	-580
890.710	-641
890.815	674
890.919	223
891.024	69
891.128	168
891.233	694
891.337	-404
891.442	-508
891.546	-396
891.650	-517
891.755	396
891.859	439
891.963	-541
892.068	284
892.172	595
892.276	-358
892.380	-9
892.484	-632
892.589	-508
892.693	448
892.797	-387
892.901	-369
893.005	-432
893.109	-257
893.213	331
893.317	-824
893.421	-70
893.525	-481
893.629	-351
893.733	12
893.837	-464
893.941	-73
894.045	520
894.148	-793
894.252	142
894.356	-362
894.460	748
894.564	-399
894.667	-463
894.771	-441
894.875	-288
894.978	-593
895.082	-391
895.186	-705
895.289	-44
895.393	48
895.496	-414
895.600	-476
895.703	411
895.807	-952
895.910	165
896.014	672
896.117	79
896.221	606
896.324	488
896.427	347
896.531	-739
896.634	-316
896.737	363
896.840	-353
896.944	-555
897.047	-265
897.150	723
897.253	-416
897.356	-162
897.460	-819
897.563	89
897.666	-443
897.769	177
897.872	-412
897.975	125
898.078	-1232
898.181	-609
898.284	-899
898.387	-559
898.490	-287
898.593	-152
898.695	-454
898.798	-865
898.901	-884
899.004	336
899.107	-792
899.209	353
899.312	164
899.415	-544
899.518	-523
899.620	-419
899.723	-106
899.826	239
899.928	613
900.031	-928
900.133	-243
900.236	-774
900.338	-741
900.441	17
900.543	-664
900.646	187
900.748	-812
900.851	-643
900.953	-125
901.055	-40
901.158	-476
901.260	-526
901.362	-405
901.465	-563
901.567	-202
901.669	-108
901.771	-796
901.873	-525
901.976	-190
902.078	-354
902.180	-892
902.282	-846
902.384	-294
902.486	-571
902.588	-1495
902.690	-240
902.792	-246
902.894	-546
902.996	-1071
903.098	-105
903.200	154
903.302	-518
903.404	-1541
903.505	-1171
903.607	-161
903.709	-1235
903.811	-476
903.913	-121
904.014	-669
904.116	-609
904.218	-816
904.319	-172
904.421	-673
904.523	-538
904.624	-32
904.726	-505
904.827	-657
904.929	476
905.030	-1229
905.132	-1087
905.233	-487
905.335	-553
905.436	-474
905.537	-383
905.639	-314
905.740	-451
905.841	-699
905.943	336
906.044	-1007
906.145	-412
906.247	-478
906.348	-1017
906.449	-389
906.550	-125
906.651	-240
906.752	-920
906.854	-22
906.955	-924
907.056	325
907.157	-988
907.258	-388
907.359	-574
907.460	-237
907.561	-670
907.662	-1133
907.762	-162
907.863	-1251
907.964	-523
908.065	-828
908.166	-596
908.267	-418
908.367	-113
908.468	-540
908.569	-206
908.670	-181
908.770	-673
908.871	93
908.971	-787
909.072	-191
909.173	-518
909.273	-881
909.374	-584
909.474	-930
909.575	-893
909.675	-415
909.776	152
909.876	-977
909.977	-483
910.077	-441
910.177	-1056
910.278	-876
910.378	-767
910.478	-499
910.579	-369
910.679	-1010
910.779	-982
910.879	-578
910.980	-407
911.080	-1239
911.180	-1060
911.280	-518
911.380	-627
911.480	196
911.580	-195
911.680	-838
911.780	-402
911.880	-515
911.980	-220
912.080	-916
912.180	-342
912.280	-709
912.380	-1033
912.480	77
912.580	-340
912.679	-1861
912.779	-383
912.879	-141
912.979	-483
913.078	-545
913.178	-713
913.278	-431
913.377	-922
913.477	7
913.577	-712
913.676	444
913.776	-439
913.875	-883
913.975	88
914.074	-1248
914.174	-718
914.273	-696
914.373	-441
914.472	-265
914.572	-419
914.671	-1519
914.770	-1117
914.870	-556
914.969	-684
915.068	-691
915.167	-720
915.267	-1214
915.366	-332
915.465	-98
915.564	-1099
915.663	-526
915.763	-307
915.862	-690
915.961	98
916.060	-1089
916.159	-1496
916.258	-959
916.357	-999
916.456	-92
916.555	-807
916.654	-351
916.752	-975
916.851	-1126
916.950	-890
917.049	-1395
917.148	-1279
917.247	-808
917.345	-910
917.444	-1146
917.543	-301
917.642	-688
917.740	-557
917.839	-100
917.937	-313
918.036	93
918.135	-506
918.233	-564
918.332	-694
918.430	-923
918.529	-738
918.627	-1276
918.726	-286
918.824	-582
918.923	-769
919.021	-733
919.119	-553
919.218	-1206
919.316	-399
919.414	-526
919.512	-509
919.611	-227
919.709	-1529
919.807	-738
919.905	-581
920.003	-833
920.102	-745
920.200	-650
920.298	-934
920.396	-1135
920.494	-499
920.592	-1579
920.690	-826
920.788	-740
920.886	-163
920.984	-568
921.082	-1635
921.180	-135
921.277	-1029
921.375	-855
921.473	-820
921.571	-2233
921.669	-303
921.766	-1208
921.864	165
921.962	-1101
922.060	-728
922.157	-1366
922.255	-265
922.352	-767
922.450	-431
922.548	-684
922.645	-895
922.743	-1517
922.840	-1413
922.938	-647
923.035	-1182
923.133	-1506
923.230	-665
923.327	-150
923.425	331
923.522	-710
923.619	-263
923.717	-314
923.814	118
923.911	-1162
924.008	64
924.106	-532
924.203	-556
924.300	-23
924.397	-424
924.494	-433
924.591	-985
924.688	-1333
924.786	-624
924.883	-986
924.979	-49
925.077	-852
925.173	-335
925.270	-21
925.367	-766
925.464	-584
925.561	45
925.658	163
925.755	-795
925.852	-1233
925.948	228
926.045	-837
926.142	-922
926.239	-1140
926.335	-1172
926.432	-129
926.529	6
926.625	-857
926.722	-1180
926.818	-453
926.915	-797
927.011	-843
927.108	-950
927.204	-1034
927.301	-375
927.397	-1352
927.494	-354
927.590	-637
927.687	-1764
927.783	-635
927.879	-151
927.976	-702
928.072	-381
928.168	-554
928.264	-857
928.361	-1000
928.457	-567
928.553	-1217
928.649	-936
928.745	-683
928.841	-321
928.937	-797
929.033	-582
929.129	-1821
929.225	-1359
929.321	-795
929.417	-220
929.513	-1050
929.609	-1012
929.705	-1560
929.801	-1588
929.897	-1195
929.993	278
930.089	-864
930.184	-1098
930.280	-1363
930.376	-13
930.471	-741
930.567	-903
930.663	-968
930.758	-838
930.854	-704
930.950	-1220
931.045	-1463
931.141	-1259
931.236	-866
931.332	-1060
931.427	-1323
931.523	-499
931.618	-761
931.714	-899
931.809	-380
931.905	-1150
932.000	-637
932.095	-1066
932.191	-1154
932.286	-1193
932.381	-1527
932.476	-1399
932.572	-1763
932.667	-1236
932.762	-599
932.857	-583
932.952	-707
933.047	-874
933.142	-945
933.237	-1131
933.332	-902
933.427	-1237
933.522	-1678
933.617	-947
933.712	-1359
933.807	-1020
933.902	-1407
933.997	-517
934.092	-718
934.187	-1120
934.282	-400
934.376	-526
934.471	-1255
934.566	-923
934.661	-1174
934.755	-451
934.850	-922
934.945	-154
935.039	-1055
935.134	-759
935.228	-1110
935.323	-406
935.417	-1058
935.512	-1208
935.606	-1509
935.701	-1421
935.795	-1592
935.890	-928
935.984	-834
936.079	-1260
936.173	-1410
936.267	-591
936.362	-1135
936.456	-550
936.550	-817
936.644	-1007
936.738	-632
936.833	-712
936.927	51
937.021	-648
937.115	-1066
937.209	-1509
937.303	-140
937.397	-1199
937.491	-1349
937.585	-472
937.679	-1183
937.773	-681
937.867	-970
937.961	-867
938.055	-1229
938.149	-938
938.243	-1462
938.337	-1723
938.430	-659
938.524	-568
938.618	-1174
938.712	-848
938.805	-1410
938.899	-1671
938.993	-1054
939.086	-778
939.180	-1496
939.274	-1218
939.367	-1240
939.461	-875
939.554	-1130
939.648	-998
939.741	-1768
939.835	-1432
939.928	-948
940.022	-1072
940.115	-1254
940.208	-1878
940.302	-1085
940.395	-1760
940.488	-1987
940.582	-718
940.675	-1571
940.768	-1137
940.861	-876
940.954	-1197
941.048	-1426
941.141	-710
941.234	-139
941.327	-12
941.420	-150
941.513	-383
941.606	-1284
941.699	-1102
941.792	-2147
941.885	-1724
941.978	-586
942.071	-850
942.164	-1508
942.257	-1204
942.349	-843
942.442	-1426
942.535	-1921
942.628	-1355
942.721	-119
942.813	-1808
942.906	-514
942.999	-1480
943.091	-1929
943.184	-1052
943.277	-1582
943.369	-814
943.462	-1848
943.554	-958
943.647	-1922
943.739	-884
943.832	-1114
943.924	-1444
944.017	-1876
944.109	-1447
944.201	-1104
944.294	-940
944.386	-1121
944.478	-1134
944.571	-1219
944.663	-812
944.755	-1429
944.847	-1263
944.940	-375
945.032	-1967
945.124	-1355
945.216	-614
945.308	-1626
945.400	-1377
945.492	-1312
945.584	-1046
945.676	-426
945.768	-942
945.860	-724
945.952	-912
946.044	-1778
946.136	-2161
946.228	-1546
946.320	-1798
946.412	-1224
946.503	-1476
946.595	-449
946.687	-1947
946.779	-827
946.870	-870
946.962	-1677
947.054	-824
947.145	-836
947.237	-841
947.329	-1277
947.420	-276
947.512	-1458
947.603	-1010
947.695	-1029
947.786	-1778
947.878	-2358
947.969	-968
948.061	-1162
948.152	-1971
948.243	-170
948.335	-698
948.426	-1251
948.517	-1714
948.609	-645
948.700	-1073
948.791	-1923
948.882	-1005
948.973	-1208
949.065	-1039
949.156	-534
949.247	-2198
949.338	-1133
949.429	-1358
949.520	-455
949.611	-1091
949.702	-767
949.793	-1022
949.884	-1776
949.975	-843
950.066	-1212
950.157	-1275
950.247	-732
950.338	-810
950.429	-1086
950.520	-1366
950.611	-1317
950.701	-1640
950.792	-1455
950.883	-628
950.973	-1199
951.064	-1010
951.155	-1921
951.245	-920
951.336	-1328
951.427	-1050
951.517	-1421
951.608	-1944
951.698	-1731
951.788	-1549
951.879	-1109
951.969	-790
952.060	-764
952.150	-1149
952.240	-857
952.331	-2738
952.421	-971
952.511	-2084
952.602	-733
952.692	-1344
952.782	-1145
952.872	-1281
952.962	-2075
953.052	-1459
953.143	-1337
953.233	-1391
953.323	-1156
953.413	-2449
953.503	-905
953.593	-2042
953.683	-1409
953.773	-1802
953.863	-1373
953.953	-1341
954.042	-1679
954.132	-2192
954.222	-959
954.312	-1290
954.402	-880
954.492	-871
954.581	-1217
954.671	-1631
954.761	-2139
954.850	-722
954.940	-1895
955.030	-1416
955.119	-1720
955.209	-1248
955.298	-2213
955.388	-1462
955.477	-1324
955.567	-1422
955.656	-622
955.746	-1087
955.835	-2559
955.925	-1802
956.014	-1485
956.103	-1019
956.193	-1112
956.282	-1265
956.371	-1676
956.461	-1454
956.550	-2245
956.639	-1687
956.728	-2190
956.817	-1373
956.906	-2654
956.995	-1021
957.085	-1220
957.174	-1517
957.263	-1915
957.352	-1520
957.441	-1986
957.530	-605
957.619	-958
957.708	-1623
957.796	-1761
957.885	-1654
957.974	-1880
958.063	-974
958.152	-1758
958.241	-1058
958.329	-1907
958.418	-1882
958.507	-2452
958.596	-803
958.684	-2122
958.773	-1702
958.861	-1579
958.950	-1129
959.039	-1687
959.127	-2027
959.216	-1714
959.304	-1210
959.393	-1091
959.481	-1508
959.570	-1226
959.658	-1603
959.746	-1422
959.835	-806
959.923	-2435
960.011	-2067
960.100	-518
960.188	-1750
960.276	-1549
960.365	-1748
960.453	-2038
960.541	-1666
960.629	-1150
960.717	-1310
960.805	-1786
960.893	-1033
960.981	-2343
961.069	-1150
961.158	-843
961.245	-1535
961.333	-936
961.421	-2500
961.509	-1250
961.597	-1658
961.685	-2604
961.773	-1718
961.861	-1934
961.949	-1293
962.036	-2362
962.124	-925
962.212	-1384
962.299	-1764
962.387	-2676
962.475	-1151
962.562	-2668
962.650	-1078
962.738	-988
962.825	-1525
962.913	-1843
963.000	-2292
963.088	-1226
963.175	-1100
963.263	-1356
963.350	-2219
963.438	-2211
963.525	-2402
963.612	-1532
963.700	-1318
963.787	-1656
963.874	-1909
963.962	-1378
964.049	-1501
964.136	-2159
964.223	-1808
964.310	-1419
964.398	-1515
964.485	-2054
964.572	-2434
964.659	-1867
964.746	-1149
964.833	-2015
964.920	-1630
965.007	-1781
965.094	-1559
965.181	-2070
965.268	-1505
965.355	-435
965.441	-1690
965.528	-2381
965.615	-973
965.702	-1524
965.789	-1669
965.875	-1432
965.962	-1589
966.049	-2168
966.136	-1254
966.222	-1848
966.309	-1276
966.395	-1420
966.482	-1597
966.569	-2052
966.655	-1459
966.742	-1927
966.828	-1893
966.915	-1220
967.001	-1808
967.087	-1896
967.174	-1112
967.260	-1510
967.347	-1826
967.433	-1740
967.519	-1954
967.605	-1646
967.692	-2086
967.778	-1059
967.864	-2161
967.950	-1531
968.036	-1754
968.123	-2341
968.209	-1748
968.295	-2730
968.381	-393
968.467	-698
968.553	-2991
968.639	-732
968.725	-2357
968.811	-851
968.897	-2115
968.983	-1151
969.069	-1498
969.154	-1022
969.240	-770
969.326	-1942
969.412	-2210
969.497	-956
969.583	-1996
969.669	-587
969.755	-2069
969.840	-1291
969.926	-583
970.012	-2230
970.097	-887
970.183	-2408
970.268	-1686
970.354	-1634
970.439	-2585
970.525	-823
970.610	-2817
970.696	-1300
970.781	-1199
970.866	-3440
970.952	-1645
971.037	-1959
971.122	-2101
971.208	-1924
971.293	-1288
971.378	-2694
971.463	-1362
971.549	-709
971.634	-1557
971.719	-1443
971.804	-2080
971.889	-1139
971.974	-1298
972.059	-1731
972.144	-1642
972.229	-1263
972.314	-1741
972.399	-1267
972.484	-1427
972.569	-1507
972.654	-2498
972.739	-941
972.824	-1405
972.908	-2336
972.993	-1425
973.078	-1419
973.163	-1509
973.247	-1263
973.332	-2396
973.417	-603
973.501	-1643
973.586	-1929
973.671	-1301
973.755	-2162
973.840	-1753
973.924	-1843
974.009	-1463
974.093	-2849
974.178	-1214
974.262	-1871
974.346	-2662
974.431	-2016
974.515	-2025
974.600	-2306
974.684	-1248
974.768	-2072
974.852	-762
974.937	-2026
975.021	-863
975.105	-2444
975.189	-1317
975.273	-744
975.358	-2076
975.442	-1881
975.526	-1600
975.610	-2865
975.694	-2622
975.778	-1146
975.862	-1599
975.946	-4054
976.030	-103
976.114	-2348
976.198	-2307
976.281	-1504
976.365	-1542
976.449	-1340
976.533	-1102
976.617	-2821
976.700	-2162
976.784	-1430
976.868	-2639
976.951	-1628
977.035	-2075
977.119	-1479
977.202	-1928
977.286	-2290
977.369	-2110
977.453	-1867
977.536	-2057
977.620	-2240
977.703	-1670
977.787	-2428
977.870	-2153
977.953	-1265
978.037	-2455
978.120	-1665
978.203	-1358
978.287	-2021
978.370	-1876
978.453	-1829
978.536	-2152
978.620	-1410
978.703	-1706
978.786	-2172
978.869	-2379
978.952	-3020
979.035	-908
979.118	-1453
979.201	-1349
979.284	-1423
979.367	-1961
979.450	-1310
979.533	-2435
979.616	-2041
979.699	-1917
979.782	-1037
979.865	-1673
979.948	-2608
980.030	-2389
980.113	-1672
980.196	-2277
980.279	-1949
980.361	-2103
980.444	-1716
980.526	-1313
980.609	-2144
980.692	-1713
980.774	-1202
980.857	-3134
980.939	-1688
981.022	-2037
981.104	-2019
981.187	-1528
981.269	-1413
981.352	-1788
981.434	-2112
981.516	-2267
981.599	-370
981.681	-2408
981.763	-2351
981.846	-2660
981.928	-2129
982.010	-2461
982.092	-2760
982.174	-1523
982.256	-2633
982.339	-2026
982.421	-1871
982.503	-1199
982.585	-2929
982.667	-1678
982.749	-2595
982.831	-1749
982.913	-1843
982.995	-1322
983.077	-2296
983.158	-1549
983.240	-2874
983.322	-1950
983.404	-1886
983.486	-2614
983.568	-2070
983.649	-1802
983.731	-1609
983.813	-2070
983.894	-1582
983.976	-2414
984.058	-3344
984.139	-1170
984.221	-3344
984.302	-692
984.384	-2343
984.465	-1787
984.547	-1202
984.628	-2588
984.710	-1573
984.791	-1771
984.872	-2359
984.954	-2236
985.035	-1356
985.116	-1430
985.198	-2287
985.279	-810
985.360	-2608
985.441	-1224
985.522	-865
985.604	-2466
985.685	-3842
985.766	-1957
985.847	-78
985.928	-2692
986.009	-2490
986.090	-1098
986.171	-2269
986.252	-2053
986.333	-2332
986.414	-2089
986.495	-1912
986.576	-2413
986.656	-2405
986.737	-1593
986.818	-1749
986.899	-2215
986.980	-2631
987.060	-1030
987.141	-2522
987.222	-1601
987.302	-2139
987.383	-1458
987.464	-2158
987.544	-1620
987.625	-2248
987.705	-614
987.786	-1745
987.866	-2038
987.947	-2125
988.027	-1691
988.108	-2310
988.188	-1274
988.268	-1655
988.349	-1587
988.429	-1850
988.509	-1563
988.589	-2640
988.670	-3236
988.750	-576
988.830	-1633
988.910	-1763
988.990	-1406
989.070	-1417
989.151	-2028
989.231	-2237
989.311	-1911
989.391	-1424
989.471	-1804
989.551	-1909
989.631	-1482
989.711	-1369
989.791	-1376
989.870	-2364
989.950	-687
990.030	-1800
990.110	-1573
990.190	-2354
990.269	-1334
990.349	-1555
990.429	-1972
990.509	-1175
990.588	-2037
990.668	-1347
990.747	-2118
990.827	-2018
990.907	-1015
990.986	-2743
991.066	-1914
991.145	-2040
991.225	-1373
991.304	-2326
991.383	-1298
991.463	-1545
991.542	-1349
991.622	-2618
991.701	-2516
991.780	-2058
991.859	-893
991.939	-1851
992.018	-1776
992.097	-1624
992.176	-988
992.256	-1667
992.335	-2918
992.414	-1629
992.493	-2179
992.572	-2507
992.651	-1364
992.730	-2045
992.809	-1102
992.888	-2557
992.967	-1854
993.046	-762
993.125	-2844
993.203	-1688
993.282	-2281
993.361	-1408
993.440	-1511
993.519	-2743
993.597	-2069
993.676	-1717
993.755	-1044
993.834	-1699
993.912	-2637
993.991	-1079
994.069	-2196
994.148	-2107
994.226	-1404
994.305	-1589
994.384	-2015
994.462	-1292
994.540	-2193
994.619	-1813
994.697	-1505
994.776	-1412
994.854	-1431
994.932	-2592
995.011	-795
995.089	-2320
995.167	-1985
995.245	-2216
995.324	-2335
995.402	-1932
995.480	-2113
995.558	-1644
995.636	-1858
995.714	-1675
995.792	-655
995.870	-1744
995.948	-2085
996.026	-723
996.104	-2488
996.182	-1114
996.260	-2752
996.338	-1560
996.416	-2027
996.494	-2141
996.572	-158
996.649	-2685
996.727	-2673
996.805	-825
996.883	-1777
996.960	-2077
997.038	-1251
997.116	-1663
997.193	-1795
997.271	-1319
997.348	-1930
997.426	-2236
997.504	-3123
997.581	-1214
997.658	-2212
997.736	-1700
997.813	-2566
997.891	-1285
997.968	-1561
998.046	-1452
998.123	-1751
998.200	-1809
998.277	-2996
998.355	-1324
998.432	-2230
998.509	-2037
998.586	-1128
998.663	-1984
998.741	-1452
998.818	-1792
998.895	-1888
998.972	-1012
999.049	-2167
999.126	-2389
999.203	-978
999.280	-2182
999.357	-1884
999.434	-2645
999.511	-2144
999.587	-1363
999.664	-2649
999.741	-1716
999.818	-1492
999.895	-2962
999.971	-2654
1000.048	-2667
1000.125	-905
1000.202	-2943
1000.278	-2514
1000.355	-1590
1000.431	-973
1000.508	-2324
1000.584	-1032
1000.661	-1146
1000.738	-2441
1000.814	-1907
1000.890	-1316
1000.967	-3003
1001.043	-1391
1001.120	-2437
1001.196	-1694
1001.272	-2541
1001.349	-1864
1001.425	-1474
1001.501	-1593
1001.577	-3029
1001.654	-2206
1001.730	-2491
1001.806	-1931
1001.882	-2359
1001.958	-2499
1002.034	-1651
1002.110	-2428
1002.186	-1690
1002.262	-2292
1002.338	-2361
1002.414	-1765
1002.490	-1783
1002.566	-2042
1002.642	-2336
1002.718	-1258
1002.794	-2149
1002.870	-2337
1002.945	-2364
1003.021	-1909
1003.097	-2572
1003.173	-1290
1003.248	-2615
1003.324	-2712
1003.400	-1612
1003.475	-2360
1003.551	-1545
1003.626	-2520
1003.702	-2976
1003.777	-2377
1003.853	-1929
1003.928	-2459
1004.004	-1965
1004.079	-1661
1004.155	-2161
1004.230	-2369
1004.305	-1235
1004.381	-1853
1004.456	-1889
1004.531	-2423
1004.607	-1948
1004.682	-1596
1004.757	-1135
1004.832	-2544
1004.907	-2054
1004.982	-1120
1005.057	-2396
1005.133	-2539
1005.208	-2033
1005.283	-2538
1005.358	-1432
1005.433	-1796
1005.508	-1815
1005.583	-2015
1005.657	-2682
1005.732	-1762
1005.807	-2114
1005.882	-2312
1005.957	-1876
1006.032	-1610
1006.106	-2086
1006.181	-2542
1006.256	-1805
1006.331	-3165
1006.405	-2564
1006.480	-2328
1006.554	-2208
1006.629	-1769
1006.704	-2004
1006.778	-2235
1006.853	-1533
1006.927	-2464
1007.002	-2983
1007.076	-2417
1007.150	-3173
1007.225	-2341
1007.299	-2134
1007.373	-3347
1007.448	-2327
1007.522	-1762
1007.596	-2326
1007.671	-2668
1007.745	-2360
1007.819	-2920
1007.893	-2965
1007.967	-1565
1008.041	-2412
1008.115	-857
1008.190	-3411
1008.264	-1911
1008.338	-3010
1008.412	-2643
1008.486	-1884
1008.560	-2656
1008.633	-2086
1008.707	-2162
1008.781	-2579
1008.855	-2062
1008.929	-1927
1009.003	-2640
1009.076	-2774
1009.150	-2552
1009.224	-2071
1009.298	-1589
1009.371	-3114
1009.445	-1544
1009.519	-2255
1009.592	-2763
1009.666	-2480
1009.739	-2764
1009.813	-3544
1009.886	-1583
1009.960	-2951
1010.033	-1690
1010.107	-1951
1010.180	-3106
1010.253	-2085
1010.327	-2616
1010.400	-2511
1010.473	-1470
1010.547	-1999
1010.620	-2873
1010.693	-1726
1010.766	-2603
1010.840	-1607
1010.913	-1993
1010.986	-2742
1011.059	-2267
1011.132	-1908
1011.205	-2133
1011.278	-2258
1011.351	-3133
1011.424	-2857
1011.497	-1995
1011.570	-2551
1011.643	-2222
1011.716	-2678
1011.789	-2759
1011.862	-2407
1011.934	-1631
1012.007	-3129
1012.080	-2363
1012.153	-2165
1012.225	-2194
1012.298	-3104
1012.371	-3150
1012.443	-1868
1012.516	-2975
1012.588	-2355
1012.661	-2210
1012.733	-3183
1012.806	-1721
1012.879	-3115
1012.951	-2343
1013.023	-2368
1013.096	-2573
1013.168	-3030
1013.241	-1869
1013.313	-2769
1013.385	-2646
1013.458	-2669
1013.530	-2271
1013.602	-2586
1013.674	-1994
1013.746	-2140
1013.819	-2207
1013.891	-1955
1013.963	-2819
1014.035	-2806
1014.107	-2399
1014.179	-1913
1014.251	-2550
1014.323	-2438
1014.395	-1748
1014.467	-2355
1014.539	-2670
1014.611	-2349
1014.683	-2722
1014.754	-2445
1014.826	-3841
1014.898	-2526
1014.970	-2594
1015.042	-2466
1015.113	-2152
1015.185	-2998
1015.257	-2887
1015.328	-2415
1015.400	-2513
1015.471	-1895
1015.543	-3161
1015.615	-1975
1015.686	-2900
1015.757	-2728
1015.829	-2386
1015.901	-2391
1015.972	-2879
1016.043	-2693
1016.115	-2210
1016.186	-2511
1016.257	-3101
1016.328	-2045
1016.400	-2478
1016.471	-2098
1016.542	-1839
1016.613	-2905
1016.685	-1788
1016.756	-3062
1016.827	-2685
1016.898	-2269
1016.969	-2099
1017.040	-2852
1017.111	-2228
1017.182	-2794
1017.253	-2471
1017.324	-1935
1017.395	-3091
1017.466	-2027
1017.537	-2879
1017.608	-3375
1017.678	-1659
1017.749	-2076
1017.820	-2462
1017.891	-3099
1017.961	-2275
1018.032	-1975
1018.103	-2758
1018.173	-1999
1018.244	-3074
1018.315	-2645
1018.385	-2058
1018.456	-1811
1018.526	-2439
1018.597	-2289
1018.667	-2583
1018.738	-2313
1018.808	-2867
1018.878	-2587
1018.949	-3153
1019.019	-2682
1019.089	-2544
1019.160	-2292
1019.230	-2994
1019.300	-2553
1019.371	-2825
1019.441	-2396
1019.511	-2435
1019.581	-1905
1019.651	-3117
1019.721	-2158
1019.791	-2313
1019.861	-2483
1019.931	-2709
1020.001	-2439
1020.071	-2312
1020.141	-3037
1020.211	-2522
1020.281	-2752
1020.351	-2734
1020.421	-1866
1020.491	-1814
1020.560	-2323
1020.630	-3281
1020.700	-2683
1020.770	-2948
1020.839	-3011
1020.909	-2713
1020.979	-2198
1021.048	-2894
1021.118	-2354
1021.187	-2697
1021.257	-2465
1021.326	-2378
1021.396	-2798
1021.465	-2649
1021.535	-2842
1021.604	-3167
1021.674	-2462
1021.743	-2141
1021.812	-2490
1021.882	-2755
1021.951	-2708
1022.020	-2002
1022.089	-2795
1022.159	-3017
1022.228	-2133
1022.297	-2233
1022.366	-2210
1022.435	-2838
1022.504	-2594
1022.573	-3149
1022.642	-2407
1022.711	-3025
1022.781	-2049
1022.849	-2710
1022.918	-2151
1022.987	-2480
1023.056	-1904
1023.125	-2593
1023.194	-2847
1023.263	-2177
1023.331	-2739
1023.400	-3271
1023.469	-2573
1023.538	-2354
1023.606	-2412
1023.675	-2333
1023.744	-2845
1023.812	-2840
1023.881	-2115
1023.949	-2083
1024.018	-2077
1024.086	-2591
1024.155	-3115
1024.223	-2865
1024.292	-3226
1024.360	-2969
1024.429	-2592
1024.497	-2365
1024.565	-2584
1024.634	-2748
1024.702	-2461
1024.770	-2443
1024.838	-3100
1024.907	-2634
1024.975	-2156
1025.043	-3127
1025.111	-2819
1025.179	-1720
1025.247	-2993
1025.315	-2752
1025.383	-3168
1025.451	-2906
1025.519	-3195
1025.587	-2872
1025.655	-3012
1025.723	-3010
1025.791	-2751
1025.859	-2414
1025.927	-2331
1025.995	-2007
1026.062	-2507
1026.130	-2402
1026.198	-3020
1026.266	-2985
1026.333	-2870
1026.401	-2517
1026.469	-3253
1026.536	-1851
1026.604	-2403
1026.671	-2982
1026.739	-2800
1026.806	-2951
1026.874	-2594
1026.941	-2861
1027.009	-3119
1027.076	-2898
1027.144	-1766
1027.211	-3367
1027.278	-3037
1027.345	-2798
1027.413	-2853
1027.480	-2944
1027.547	-2959
1027.614	-2581
1027.682	-2873
1027.749	-3010
1027.816	-2450
1027.883	-2429
1027.950	-2776
1028.017	-2857
1028.084	-2636
1028.151	-3555
1028.218	-3029
1028.285	-2946
1028.352	-2862
1028.419	-2257
1028.486	-2728
1028.553	-2656
1028.619	-3209
1028.686	-2858
1028.753	-2899
1028.820	-4000
1028.886	-3336
1028.953	-2385
1029.020	-2355
1029.086	-1618
1029.153	-3293
1029.220	-2393
1029.286	-2159
1029.353	-2796
1029.419	-2962
1029.486	-2393
1029.552	-2887
1029.619	-2739
1029.685	-2748
1029.751	-2204
1029.818	-2107
1029.884	-3100
1029.951	-1660
1030.017	-3114
1030.083	-2658
1030.149	-3350
1030.216	-2667
1030.282	-2761
1030.348	-1986
1030.414	-2370
1030.480	-3285
1030.546	-2280
1030.612	-2266
1030.678	-2970
1030.744	-2369
1030.810	-3037
1030.876	-2439
1030.942	-2922
1031.008	-3139
1031.074	-3105
1031.140	-2713
1031.206	-2343
1031.272	-2512
1031.337	-2444
1031.403	-2892
1031.469	-3479
1031.534	-2594
1031.600	-2314
1031.666	-2999
1031.731	-2551
1031.797	-2774
1031.863	-2619
1031.928	-2448
1031.994	-2948
1032.059	-2392
1032.125	-2337
1032.190	-2741
1032.256	-2675
1032.321	-3025
1032.386	-3207
1032.452	-2460
1032.517	-2424
1032.582	-2673
1032.647	-2672
1032.713	-2049
1032.778	-2181
1032.843	-2395
1032.908	-2807
1032.974	-2012
1033.039	-3056
1033.104	-2640
1033.169	-3369
1033.234	-3200
1033.299	-2148
1033.364	-2363
1033.429	-2740
1033.494	-2633
1033.559	-2801
1033.624	-1577
1033.688	-2171
1033.753	-2940
1033.818	-2364
1033.883	-1955
1033.948	-2569
1034.013	-2122
1034.077	-2362
1034.142	-2457
1034.207	-2536
1034.271	-1633
1034.336	-2034
1034.400	-2203
1034.465	-2263
1034.530	-3049
1034.594	-3059
1034.658	-3152
1034.723	-2482
1034.787	-2772
1034.852	-2458
1034.916	-2983
1034.981	-2494
1035.045	-2505
1035.109	-2244
1035.173	-2677
1035.238	-2311
1035.302	-3234
1035.366	-3351
1035.430	-2882
1035.495	-2419
1035.559	-1984
1035.623	-3008
1035.687	-2381
1035.751	-2855
1035.815	-2701
1035.879	-2960
1035.943	-2205
1036.007	-2966
1036.071	-2459
1036.135	-1641
1036.198	-1377
1036.262	-2838
1036.326	-2639
1036.390	-2258
1036.454	-2669
1036.517	-1997
1036.581	-2559
1036.645	-2102
1036.709	-2052
1036.772	-2394
1036.836	-2327
1036.900	-2661
1036.963	-2601
1037.026	-2202
1037.090	-1848
1037.154	-2421
1037.217	-2867
1037.280	-2679
1037.344	-2440
1037.407	-1761
1037.471	-2491
1037.534	-2252
1037.597	-2031
1037.661	-2225
1037.724	-2148
1037.787	-2327
1037.850	-3157
1037.913	-2860
1037.977	-1853
1038.040	-1949
1038.103	-3121
1038.166	-2395
1038.229	-2381
1038.292	-1625
1038.355	-2401
1038.418	-2085
1038.481	-1601
1038.544	-2548
1038.607	-2411
1038.670	-2687
1038.732	-2327
1038.795	-2778
1038.858	-2860
1038.921	-1760
1038.984	-2422
1039.046	-2718
1039.109	-2202
1039.172	-2410
1039.234	-2574
1039.297	-2224
1039.360	-1798
1039.422	-2130
1039.485	-2265
1039.547	-2666
1039.610	-2662
1039.672	-2546
1039.734	-1524
1039.797	-2284
1039.859	-2382
1039.922	-1941
1039.984	-1354
1040.046	-1974
1040.109	-1963
1040.171	-2089
1040.233	-2061
1040.295	-2329
1040.358	-2214
1040.420	-2004
1040.482	-2616
1040.544	-2728
1040.606	-2652
1040.668	-2094
1040.730	-2510
1040.792	-2086
1040.854	-1981
1040.916	-2328
1040.978	-1892
1041.040	-1095
1041.102	-2924
1041.164	-2014
1041.225	-2890
1041.287	-2011
1041.349	-2496
1041.411	-2322
1041.472	-2446
1041.534	-1825
1041.596	-2599
1041.657	-1974
1041.719	-1987
1041.781	-2311
1041.842	-2385
1041.904	-1966
1041.965	-2058
1042.027	-2164
1042.088	-2194
1042.150	-2056
1042.211	-1681
1042.272	-1510
1042.334	-1650
1042.395	-2046
1042.456	-1842
1042.518	-1786
1042.579	-1637
1042.640	-2229
1042.701	-1568
1042.763	-1706
1042.824	-2129
1042.885	-1737
1042.946	-1033
1043.007	-1882
1043.068	-1958
1043.129	-2476
1043.190	-1919
1043.251	-1699
1043.312	-1651
1043.373	-1733
1043.434	-2194
1043.495	-1392
1043.556	-923
1043.616	-2012
1043.677	-2376
1043.738	-2019
1043.799	-1758
1043.859	-2356
1043.920	-2281
1043.981	-2607
1044.041	-2688
1044.102	-2299
1044.162	-1180
1044.223	-1901
1044.284	-1951
1044.344	-2417
1044.405	-1747
1044.465	-1361
1044.525	-2173
1044.586	-2011
1044.646	-2231
1044.707	-1588
1044.767	-2057
1044.827	-1995
1044.887	-1990
1044.948	-1842
1045.008	-1788
1045.068	-1852
1045.128	-1560
1045.188	-1392
1045.249	-1572
1045.309	-2049
1045.369	-1384
1045.429	-2206
1045.489	-2177
1045.549	-1615
1045.609	-1074
1045.669	-2065
1045.729	-1546
1045.789	-2010
1045.848	-1754
1045.908	-954
1045.968	-1144
1046.028	-1229
1046.088	-1596
1046.147	-1400
1046.207	-1738
1046.267	-899
1046.326	-1601
1046.386	-1162
1046.446	-1530
1046.505	-720
1046.565	-894
1046.624	-1157
1046.684	-1218
1046.743	-1028
1046.803	-310
1046.862	-1675
1046.922	0
