'Start Wavelength	183.907
'End Wavelength	1046.922
'Gate Delay	5.000
'Gate Width (ms)	1.050
'Laser Output Level	0.000
'X Position	0.000
'Y Position	0.000
'Z Position	0.000
'Grid Point Number	1.000
'Shot Number	100.000
183.907	-384.000
183.977	-816.000
184.047	-22
184.116	527
184.186	671
184.256	-453
184.325	-404
184.395	-1239
184.465	760
184.534	-112
184.604	-1624
184.674	-676
184.743	32
184.813	-293
184.883	61
184.952	-669
185.022	-202
185.092	-713
185.161	766
185.231	326
185.301	-464
185.370	-953
185.440	-8
185.509	-890
185.579	77
185.649	235
185.718	433
185.788	-187
185.857	-381
185.927	-590
185.996	-163
186.066	-256
186.136	-389
186.205	-386
186.275	746
186.344	69
186.414	-1059
186.483	-985
186.553	833
186.622	-30
186.692	-155
186.761	-420
186.831	-557
186.900	-249
186.970	232
187.039	146
187.109	1212
187.178	29
187.248	73
187.317	86
187.387	-564
187.456	191
187.526	364
187.595	-43
187.664	-359
187.734	231
187.803	500
187.873	-56
187.942	-361
188.012	-717
188.081	-174
188.150	-113
188.220	-432
188.289	87
188.358	-151
188.428	-378
188.497	-436
188.567	-201
188.636	-89
188.705	95
188.775	-89
188.844	-966
188.913	947
188.983	-500
189.052	272
189.121	55
189.191	8
189.260	1089
189.329	699
189.399	-43
189.468	554
189.537	23
189.606	282
189.676	-362
189.745	-133
189.814	327
189.883	-180
189.953	-280
190.022	881
190.091	2022
190.161	2757
190.230	249
190.299	436
190.368	-485
190.437	-132
190.507	59
190.576	280
190.645	-532
190.714	-432
190.783	-845
190.853	666
190.922	-5
190.991	-833
191.060	240
191.129	-1075
191.198	-264
191.268	-530
191.337	-537
191.406	1230
191.475	-391
191.544	130
191.613	-168
191.682	-273
191.752	46
191.821	-114
191.890	46
191.959	-249
192.028	-621
192.097	-715
192.166	-86
192.235	-535
192.304	125
192.373	-260
192.442	-1221
192.511	-480
192.580	-572
192.650	748
192.719	-873
192.788	-270
192.857	42
192.926	-676
192.995	465
193.064	469
193.133	722
193.202	230
193.271	412
193.340	714
193.409	703
193.478	469
193.547	79
193.615	1263
193.684	885
193.753	898
193.822	214
193.891	-296
193.960	62
194.029	105
194.098	-1120
194.167	-275
194.236	643
194.305	112
194.374	-296
194.443	-243
194.512	-349
194.580	57
194.649	-70
194.718	-303
194.787	-277
194.856	-122
194.925	-245
194.994	177
195.062	-675
195.131	-188
195.200	-398
195.269	393
195.338	-259
195.407	195
195.475	-660
195.544	129
195.613	-100
195.682	-107
195.751	-512
195.819	-472
195.888	-223
195.957	464
196.026	395
196.094	567
196.163	-545
196.232	110
196.301	-670
196.369	-362
196.438	240
196.507	98
196.576	-805
196.644	-293
196.713	-695
196.782	14
196.850	-923
196.919	635
196.988	-1171
197.056	-276
197.125	291
197.194	493
197.262	-529
197.331	-8
197.400	-262
197.468	-342
197.537	-313
197.606	178
197.674	243
197.743	3059
197.812	443
197.880	3133
197.949	1128
198.017	1996
198.086	2193
198.155	683
198.223	1145
198.292	2495
198.360	564
198.429	938
198.497	273
198.566	1221
198.635	3330
198.703	1082
198.772	891
198.840	3789
198.909	3733
198.977	913
199.046	53
199.114	1170
199.183	-187
199.251	1348
199.320	-457
199.388	-256
199.457	-677
199.525	197
199.594	-204
199.662	-687
199.731	-313
199.799	524
199.867	-67
199.936	-165
200.004	380
200.073	711
200.141	364
200.210	-65
200.278	-670
200.346	-155
200.415	747
200.483	-262
200.552	684
200.620	-363
200.688	-294
200.757	395
200.825	457
200.893	45
200.962	-477
201.030	-260
201.098	-162
201.167	520
201.235	298
201.303	76
201.372	244
201.440	264
201.508	330
201.577	-236
201.645	-155
201.713	95
201.781	-313
201.850	341
201.918	24
201.986	62
202.055	141
202.123	-620
202.191	4
202.259	483
202.327	-16
202.396	-635
202.464	-640
202.532	-455
202.600	697
202.669	387
202.737	-214
202.805	-548
202.873	180
202.941	-2
203.009	-388
203.078	-230
203.146	-81
203.214	-67
203.282	-311
203.350	240
203.418	99
203.487	399
203.555	-564
203.623	-194
203.691	-2
203.759	-56
203.827	-228
203.895	-527
203.963	-125
204.031	-1
204.099	-68
204.168	1449
204.236	805
204.304	477
204.372	125
204.440	52
204.508	-216
204.576	-564
204.644	-349
204.712	307
204.780	-323
204.848	257
204.916	-300
204.984	-168
205.052	-630
205.120	829
205.188	783
205.256	-174
205.324	26
205.392	-561
205.460	7
205.528	503
205.596	-19
205.664	-490
205.732	428
205.799	3455
205.867	5880
205.935	799
206.003	1035
206.071	445
206.139	681
206.207	341
206.275	-209
206.343	78
206.411	-41
206.478	783
206.546	801
206.614	27
206.682	-687
206.750	-198
206.818	-441
206.885	982
206.953	-1331
207.021	963
207.089	46
207.157	-221
207.225	375
207.292	-372
207.360	234
207.428	-247
207.496	-26
207.563	221
207.631	748
207.699	-254
207.767	-232
207.834	137
207.902	94
207.970	-730
208.038	-453
208.105	-154
208.173	770
208.241	827
208.309	940
208.376	131
208.444	1577
208.512	978
208.579	-230
208.647	320
208.715	1306
208.782	-78
208.850	13
208.918	-250
208.985	406
209.053	887
209.120	5
209.188	-214
209.256	-545
209.323	-43
209.391	-388
209.459	2044
209.526	70
209.594	90
209.661	256
209.729	284
209.796	-4
209.864	281
209.932	-732
209.999	548
210.067	-129
210.134	267
210.202	-18
210.269	464
210.337	249
210.404	8
210.472	546
210.539	1120
210.607	-189
210.674	216
210.742	126
210.809	542
210.877	656
210.944	1293
211.012	-1113
211.079	1258
211.146	444
211.214	-40
211.281	24
211.349	847
211.416	92
211.484	372
211.551	340
211.618	187
211.686	506
211.753	-59
211.821	278
211.888	110
211.955	408
212.023	87
212.090	647
212.157	712
212.225	158
212.292	3317
212.359	7064
212.427	22749
212.494	9891
212.561	2938
212.629	1463
212.696	621
212.763	1214
212.831	-47
212.898	968
212.965	548
213.032	459
213.100	-285
213.167	174
213.234	1465
213.301	467
213.369	1104
213.436	607
213.503	-631
213.570	1053
213.638	290
213.705	-1047
213.772	-404
213.839	-32
213.906	1545
213.973	-486
214.041	-88
214.108	1620
214.175	190
214.242	-32
214.309	416
214.376	751
214.444	794
214.511	642
214.578	43
214.645	234
214.712	1528
214.779	1340
214.846	78
214.913	994
214.980	1154
215.048	1089
215.115	1281
215.182	238
215.249	33
215.316	772
215.383	1470
215.450	664
215.517	-444
215.584	357
215.651	534
215.718	162
215.785	534
215.852	-5
215.919	482
215.986	-376
216.053	690
216.120	480
216.187	-72
216.254	677
216.321	354
216.388	72
216.455	1066
216.522	579
216.589	659
216.656	1870
216.722	962
216.789	1483
216.856	1148
216.923	567
216.990	800
217.057	393
217.124	546
217.191	890
217.258	1883
217.324	1995
217.391	2906
217.458	1984
217.525	1889
217.592	716
217.659	-324
217.725	1431
217.792	1362
217.859	1546
217.926	-617
217.993	1087
218.059	1259
218.126	778
218.193	303
218.260	-22
218.327	666
218.393	-525
218.460	139
218.527	9
218.594	189
218.660	214
218.727	806
218.794	121
218.860	1374
218.927	-127
218.994	-90
219.061	252
219.127	-82
219.194	50
219.261	788
219.327	-506
219.394	606
219.461	-89
219.527	527
219.594	1477
219.661	36
219.727	1
219.794	226
219.860	-316
219.927	345
219.994	473
220.060	1070
220.127	819
220.193	1033
220.260	950
220.326	1394
220.393	2789
220.460	4145
220.526	2718
220.593	1557
220.659	1910
220.726	1416
220.792	7996
220.859	6122
220.925	5805
220.992	8459
221.058	9837
221.125	12641
221.191	9544
221.258	2919
221.324	2118
221.391	372
221.457	527
221.524	948
221.590	2020
221.657	11534
221.723	7936
221.789	7161
221.856	6732
221.922	2583
221.989	1838
222.055	890
222.121	97
222.188	1450
222.254	1153
222.321	926
222.387	269
222.453	671
222.520	97
222.586	-312
222.652	379
222.719	-16
222.785	243
222.851	192
222.918	430
222.984	142
223.050	-510
223.116	-1301
223.183	1124
223.249	19
223.315	-1244
223.382	105
223.448	-721
223.514	126
223.580	-784
223.647	-282
223.713	-67
223.779	351
223.845	-9
223.911	958
223.978	-847
224.044	327
224.110	-308
224.176	663
224.242	-589
224.309	-537
224.375	630
224.441	475
224.507	-298
224.573	-1165
224.639	800
224.705	-221
224.772	-143
224.838	471
224.904	392
224.970	356
225.036	-3
225.102	-483
225.168	289
225.234	423
225.300	-505
225.366	-259
225.432	494
225.499	-572
225.565	136
225.631	504
225.697	116
225.763	1255
225.829	739
225.895	690
225.961	1701
226.027	1267
226.093	107
226.159	2731
226.225	2254
226.291	7257
226.357	12713
226.423	6371
226.489	2288
226.554	1741
226.620	1919
226.686	1496
226.752	2780
226.818	6138
226.884	19157
226.950	17087
227.016	5647
227.082	2578
227.148	1810
227.214	1591
227.279	1353
227.345	120
227.411	364
227.477	-558
227.543	651
227.609	806
227.674	1017
227.740	-488
227.806	696
227.872	527
227.938	275
228.003	1556
228.069	392
228.135	-82
228.201	891
228.267	-47
228.332	-427
228.398	-963
228.464	761
228.530	-451
228.595	-39
228.661	-476
228.727	145
228.792	1616
228.858	-163
228.924	-913
228.990	1557
229.055	-308
229.121	927
229.187	-153
229.252	232
229.318	-330
229.384	347
229.449	-520
229.515	-1979
229.581	-409
229.646	1077
229.712	-65
229.777	-25
229.843	256
229.909	202
229.974	558
230.040	774
230.105	1289
230.171	86
230.236	2339
230.302	5033
230.368	1964
230.433	875
230.499	827
230.564	1522
230.630	-196
230.695	-432
230.761	1169
230.826	-656
230.892	1034
230.957	-881
231.023	232
231.088	41
231.154	-164
231.219	616
231.284	1025
231.350	555
231.415	-215
231.481	394
231.546	173
231.612	376
231.677	223
231.742	-752
231.808	1152
231.873	-676
231.939	-1374
232.004	874
232.069	1167
232.135	347
232.200	485
232.265	424
232.331	222
232.396	-552
232.461	408
232.527	-93
232.592	-683
232.657	186
232.723	88
232.788	-555
232.853	-55
232.918	73
232.984	-476
233.049	-663
233.114	-1319
233.179	373
233.245	766
233.310	1025
233.375	-1070
233.440	38
233.506	621
233.571	535
233.636	433
233.701	-283
233.766	321
233.832	819
233.897	304
233.962	-939
234.027	1049
234.092	134
234.157	-283
234.222	-982
234.288	441
234.353	2523
234.418	1887
234.483	1746
234.548	1048
234.613	157
234.678	475
234.743	360
234.808	4029
234.873	680
234.938	816
235.004	213
235.069	285
235.134	52
235.199	342
235.264	890
235.329	-1289
235.394	698
235.459	980
235.524	-564
235.589	852
235.654	235
235.719	-429
235.784	528
235.849	587
235.913	1323
235.978	1149
236.043	1136
236.108	151
236.173	178
236.238	1218
236.303	101
236.368	-916
236.433	1206
236.498	1829
236.563	1564
236.627	4823
236.692	24137
236.757	20807
236.822	5432
236.887	3042
236.952	3151
237.017	1784
237.081	2647
237.146	2613
237.211	8740
237.276	22980
237.341	43140
237.405	15611
237.470	5239
237.535	3910
237.600	2291
237.664	1718
237.729	338
237.794	1106
237.859	4990
237.923	2382
237.988	1210
238.053	1977
238.118	1342
238.182	5545
238.247	7169
238.312	443
238.376	1378
238.441	-598
238.506	1729
238.570	-562
238.635	1512
238.700	1703
238.764	-477
238.829	1581
238.893	2169
238.958	1564
239.023	274
239.087	-593
239.152	834
239.216	239
239.281	220
239.346	566
239.410	-14
239.475	125
239.539	5690
239.604	4313
239.668	1176
239.733	359
239.797	183
239.862	711
239.926	2692
239.991	876
240.055	114
240.120	150
240.184	1139
240.249	-439
240.313	-346
240.378	59
240.442	1241
240.507	4938
240.571	736
240.635	597
240.700	2231
240.764	292
240.829	-451
240.893	-471
240.957	692
241.022	2727
241.086	3451
241.151	-325
241.215	-542
241.279	895
241.344	433
241.408	1159
241.472	211
241.537	960
241.601	1881
241.665	-453
241.730	-42
241.794	1470
241.858	-666
241.922	740
241.987	947
242.051	30
242.115	-823
242.179	540
242.244	388
242.308	1234
242.372	-10
242.436	-134
242.501	482
242.565	-161
242.629	-89
242.693	1582
242.757	-158
242.822	173
242.886	464
242.950	721
243.014	-64
243.078	342
243.142	676
243.206	571
243.271	1201
243.335	1150
243.399	3487
243.463	19764
243.527	64199
243.591	19095
243.655	4886
243.719	1957
243.783	2898
243.847	5474
243.911	6872
243.975	2377
244.040	-669
244.104	2284
244.168	651
244.232	-36
244.296	2756
244.360	6007
244.424	589
244.488	400
244.552	1129
244.615	-21
244.679	875
244.743	152
244.807	-1080
244.871	-37
244.935	1307
244.999	-364
245.063	-448
245.127	926
245.191	3279
245.255	3154
245.319	1249
245.383	-829
245.446	1967
245.510	-916
245.574	474
245.638	279
245.702	-958
245.766	598
245.829	981
245.893	-80
245.957	-326
246.021	1278
246.085	-93
246.149	921
246.212	2229
246.276	2474
246.340	1133
246.404	1008
246.467	1395
246.531	-1447
246.595	1845
246.659	1134
246.722	-379
246.786	126
246.850	595
246.913	577
246.977	-537
247.041	294
247.104	334
247.168	796
247.232	1694
247.295	5244
247.359	1686
247.423	869
247.486	421
247.550	1643
247.614	435
247.677	645
247.741	642
247.804	141
247.868	937
247.932	1018
247.995	5171
248.059	1029
248.122	-1026
248.186	1263
248.249	1677
248.313	10584
248.376	10543
248.440	4737
248.503	217
248.567	945
248.630	422
248.694	1576
248.757	3578
248.821	12925
248.884	6211
248.948	4023
249.011	6670
249.075	13668
249.138	10649
249.202	3360
249.265	2216
249.328	3558
249.392	622
249.455	1982
249.519	2212
249.582	1344
249.645	2072
249.709	2338
249.772	650
249.835	1542
249.899	1127
249.962	2430
250.025	1031
250.089	3271
250.152	5365
250.215	2465
250.279	1463
250.342	2631
250.405	2853
250.468	2381
250.532	3490
250.595	9622
250.658	50114
250.721	94613
250.785	24612
250.848	11226
250.911	5564
250.974	5874
251.038	4916
251.101	8778
251.164	4796
251.227	5382
251.290	6139
251.354	13918
251.417	73227
251.480	77086
251.543	46167
251.606	144926
251.669	111960
251.732	33916
251.795	21550
251.859	26542
251.922	86235
251.985	48857
252.048	13509
252.111	8917
252.174	6280
252.237	9138
252.300	20227
252.363	33106
252.426	104358
252.489	37904
252.552	12586
252.615	8064
252.678	7965
252.741	17058
252.804	35521
252.867	112743
252.930	44759
252.993	14943
253.056	9216
253.119	5431
253.182	5026
253.245	15006
253.308	9839
253.371	3615
253.434	2549
253.497	2614
253.559	5187
253.622	2799
253.685	2288
253.748	1922
253.811	1412
253.874	1789
253.937	1892
254.000	1490
254.062	1919
254.125	4424
254.188	3541
254.251	1480
254.314	557
254.376	1332
254.439	1651
254.502	1208
254.565	1613
254.628	5380
254.690	1214
254.753	117
254.816	209
254.878	547
254.941	2840
255.004	2578
255.067	876
255.129	-733
255.192	-341
255.255	-363
255.317	62
255.380	870
255.443	344
255.505	-516
255.568	-593
255.631	-265
255.693	-729
255.756	-87
255.819	361
255.881	-109
255.944	517
256.006	69
256.069	-522
256.132	-660
256.194	-127
256.257	2661
256.319	2059
256.382	1295
256.444	951
256.507	719
256.569	323
256.632	1103
256.694	645
256.757	10505
256.819	37385
256.882	13488
256.944	3985
257.007	2577
257.069	1263
257.132	1954
257.194	1236
257.257	500
257.319	-232
257.381	1210
257.444	6673
257.506	42431
257.569	42788
257.631	11123
257.693	4569
257.756	3296
257.818	1464
257.880	1050
257.943	2092
258.005	-298
258.067	60
258.130	940
258.192	738
258.254	979
258.317	836
258.379	1198
258.441	651
258.503	1863
258.566	2417
258.628	5233
258.690	-184
258.753	1334
258.815	893
258.877	-195
258.939	170
259.001	1188
259.064	-178
259.126	136
259.188	105
259.250	1243
259.312	254
259.375	1324
259.437	-28
259.499	492
259.561	416
259.623	329
259.685	-670
259.747	172
259.809	3074
259.872	7435
259.934	14665
259.996	11408
260.058	3231
260.120	149
260.182	480
260.244	1331
260.306	-478
260.368	167
260.430	-833
260.492	38
260.554	1829
260.616	597
260.678	2204
260.740	6495
260.802	979
260.864	180
260.926	-366
260.988	1141
261.050	24
261.112	1478
261.174	6891
261.236	5805
261.298	647
261.359	1896
261.421	4688
261.483	-696
261.545	1882
261.607	-1078
261.669	995
261.731	1295
261.793	2562
261.854	-706
261.916	1582
261.978	-176
262.040	180
262.102	758
262.164	870
262.225	252
262.287	-39
262.349	-92
262.411	698
262.472	652
262.534	106
262.596	3329
262.658	1143
262.719	45
262.781	701
262.843	1911
262.904	1340
262.966	1254
263.028	2961
263.090	22507
263.151	73306
263.213	20005
263.275	4361
263.336	1952
263.398	2196
263.459	696
263.521	832
263.583	1132
263.644	823
263.706	-788
263.767	-766
263.829	73
263.891	-684
263.952	-1173
264.014	-33
264.075	385
264.137	1268
264.198	432
264.260	-1617
264.321	169
264.383	-402
264.444	2263
264.506	352
264.567	-252
264.629	1836
264.690	918
264.752	349
264.813	-53
264.875	-918
264.936	-272
264.998	-481
265.059	-418
265.120	432
265.182	1190
265.243	14984
265.305	16007
265.366	2976
265.427	347
265.489	783
265.550	-977
265.611	-200
265.673	-113
265.734	-390
265.795	416
265.857	-1119
265.918	-338
265.979	3309
266.040	28608
266.102	23429
266.163	4541
266.224	1316
266.286	849
266.347	-820
266.408	-578
266.469	-160
266.530	-233
266.592	-1256
266.653	433
266.714	-28
266.775	-817
266.836	-280
266.898	-693
266.959	-691
267.020	-1230
267.081	399
267.142	-750
267.203	-868
267.264	-1098
267.326	703
267.387	-1423
267.448	-1505
267.509	1036
267.570	-100
267.631	-522
267.692	-1673
267.753	-520
267.814	-1107
267.875	265
267.936	424
267.997	-389
268.058	-809
268.119	-1389
268.180	-1041
268.241	-633
268.302	-96
268.363	-736
268.424	-1110
268.485	271
268.546	-220
268.607	-1011
268.668	-1037
268.729	-931
268.790	-1277
268.851	-547
268.912	-429
268.972	-427
269.033	-1349
269.094	-964
269.155	-901
269.216	-768
269.277	-198
269.338	-772
269.398	-242
269.459	-747
269.520	-706
269.581	256
269.642	-501
269.702	-993
269.763	-527
269.824	-981
269.885	-458
269.945	-37
270.006	226
270.067	-673
270.128	92
270.188	-98
270.249	-1076
270.310	-1450
270.370	-824
270.431	-201
270.492	-668
270.553	-1161
270.613	-360
270.674	685
270.734	-602
270.795	-175
270.856	-58
270.916	-1234
270.977	-146
271.038	55
271.098	-351
271.159	250
271.219	-1433
271.280	-952
271.340	-307
271.401	-1097
271.462	-255
271.522	-426
271.583	-789
271.643	-666
271.704	-890
271.764	-279
271.825	76
271.885	7463
271.946	13155
272.006	2065
272.066	3297
272.127	8949
272.187	1293
272.248	-534
272.308	21
272.369	3875
272.429	1675
272.489	-422
272.550	-200
272.610	499
272.671	-299
272.731	158
272.791	777
272.852	-307
272.912	-698
272.972	-243
273.033	-1712
273.093	-790
273.153	-128
273.214	-649
273.274	-498
273.334	1669
273.394	3810
273.455	-418
273.515	426
273.575	1551
273.635	214
273.696	1600
273.756	5127
273.816	1103
273.876	97
273.936	1882
273.997	5175
274.057	714
274.117	-674
274.177	422
274.237	5848
274.297	5582
274.358	2443
274.418	2080
274.478	777
274.538	85
274.598	64
274.658	3849
274.718	4713
274.778	1440
274.838	639
274.898	2039
274.958	8546
275.018	6714
275.078	2676
275.138	-317
275.198	-1057
275.258	-345
275.318	-96
275.378	-495
275.438	-642
275.498	331
275.558	3388
275.618	6818
275.678	1859
275.738	422
275.798	-45
275.858	-906
275.918	-1034
275.978	-52
276.038	-288
276.098	-1100
276.157	4
276.217	536
276.277	-116
276.337	-441
276.397	-543
276.457	-335
276.517	-661
276.576	-323
276.636	-325
276.696	-1096
276.756	51
276.815	185
276.875	-1251
276.935	10
276.995	-1034
277.055	-216
277.114	-195
277.174	-661
277.234	258
277.293	-195
277.353	-978
277.413	-488
277.472	-1028
277.532	-1422
277.592	-746
277.651	1027
277.711	1191
277.771	-727
277.830	1972
277.890	1272
277.950	1204
278.009	6931
278.069	1646
278.128	1260
278.188	883
278.248	419
278.307	1501
278.367	1059
278.426	-747
278.486	-235
278.545	-620
278.605	-1200
278.664	-505
278.724	76
278.783	573
278.843	4216
278.902	248
278.962	-369
279.021	-227
279.081	1009
279.140	269
279.199	-183
279.259	425
279.318	1503
279.378	1374
279.437	3382
279.496	12946
279.556	76007
279.615	65409
279.675	11184
279.734	4614
279.793	5484
279.853	7201
279.912	2309
279.971	1090
280.031	362
280.090	1929
280.149	3413
280.208	6420
280.268	48706
280.327	55591
280.386	8487
280.445	4166
280.505	2882
280.564	1324
280.623	850
280.682	829
280.742	839
280.801	-393
280.860	-543
280.919	-715
280.978	-346
281.037	-213
281.097	-1025
281.156	-939
281.215	131
281.274	-1498
281.333	693
281.392	54
281.451	-353
281.510	-150
281.569	-887
281.628	-724
281.688	-335
281.747	-232
281.806	-1155
281.865	-753
281.924	-900
281.983	-1005
282.042	-1051
282.101	-753
282.160	-572
282.219	-1240
282.278	-867
282.337	-586
282.396	-428
282.454	-1163
282.513	-1172
282.572	-309
282.631	-550
282.690	-1145
282.749	-1481
282.808	-611
282.867	-857
282.926	-53
282.985	-673
283.043	-1295
283.102	-1397
283.161	-982
283.220	-622
283.279	1142
283.338	104
283.396	-995
283.455	-631
283.514	-475
283.573	-330
283.631	-1142
283.690	-392
283.749	-870
283.808	-4
283.866	-297
283.925	-1635
283.984	-1143
284.043	-816
284.101	-631
284.160	-324
284.219	-816
284.277	-496
284.336	-280
284.395	436
284.453	-81
284.512	-431
284.570	-647
284.629	-1002
284.688	-913
284.746	-987
284.805	-379
284.863	-95
284.922	-267
284.981	493
285.039	698
285.098	3014
285.156	10887
285.215	60401
285.273	59015
285.332	14151
285.390	5874
285.449	4077
285.507	1548
285.566	1301
285.624	118
285.683	202
285.741	-173
285.799	-663
285.858	-23
285.916	-213
285.975	-618
286.033	-662
286.091	-927
286.150	-1122
286.208	-1078
286.267	-366
286.325	-1543
286.383	-533
286.442	-756
286.500	-1013
286.558	-1451
286.616	-462
286.675	-601
286.733	-1264
286.791	-349
286.850	-875
286.908	-599
286.966	48
287.024	-1050
287.083	-837
287.141	-595
287.199	-12
287.257	33
287.315	-365
287.374	-354
287.432	282
287.490	72
287.548	51
287.606	309
287.664	-487
287.723	340
287.781	880
287.839	1062
287.897	1394
287.955	2676
288.013	7407
288.071	22829
288.129	91580
288.187	261867
288.245	117175
288.303	35593
288.361	18682
288.419	12509
288.477	7932
288.535	5852
288.593	3980
288.651	1264
288.709	949
288.767	485
288.825	343
288.883	303
288.941	617
288.999	-979
289.057	-791
289.115	-113
289.173	-484
289.231	-86
289.289	-785
289.346	-397
289.404	-1042
289.462	-602
289.520	-556
289.578	-891
289.636	-365
289.694	-680
289.751	-337
289.809	-1180
289.867	-251
289.925	328
289.983	-115
290.040	-1835
290.098	-1053
290.156	-544
290.214	-1262
290.271	-1738
290.329	-960
290.387	-796
290.444	-1023
290.502	-1187
290.560	-1158
290.617	-1917
290.675	-1270
290.733	-1133
290.790	-1027
290.848	-709
290.906	-941
290.963	-720
291.021	-1130
291.078	-1289
291.136	-591
291.194	-1427
291.251	-535
291.309	-624
291.366	-1015
291.424	-1803
291.481	-1161
291.539	-1721
291.596	-324
291.654	-1568
291.711	-1321
291.769	-1363
291.826	-854
291.884	-578
291.941	-1049
291.999	-1485
292.056	-1890
292.114	-1515
292.171	-1764
292.228	-1283
292.286	-1455
292.343	-1602
292.401	-1483
292.458	-1765
292.515	-1762
292.573	-1149
292.630	-1722
292.687	-1502
292.745	-685
292.802	-1378
292.859	451
292.917	349
292.974	-656
293.031	-1127
293.089	-1136
293.146	-1415
293.203	-826
293.260	-1251
293.318	-1144
293.375	-790
293.432	-1661
293.489	-1519
293.546	-1174
293.604	-1400
293.661	1266
293.718	4306
293.775	648
293.832	-594
293.889	-345
293.947	-714
294.004	-628
294.061	-948
294.118	-1167
294.175	56
294.232	2122
294.289	-1066
294.346	-791
294.403	-717
294.460	-557
294.517	-1199
294.574	-1301
294.631	-1134
294.688	-620
294.745	-671
294.802	5604
294.859	5121
294.916	1007
294.973	-730
295.030	-1142
295.087	-838
295.144	-793
295.201	-528
295.258	-1304
295.315	-751
295.372	615
295.429	1880
295.486	-516
295.542	-179
295.599	1117
295.656	3279
295.713	547
295.770	1266
295.827	-258
295.883	-567
295.940	-245
295.997	-642
296.054	-1112
296.111	-893
296.167	-902
296.224	-1992
296.281	-629
296.338	-1997
296.394	-1367
296.451	-1244
296.508	-1034
296.564	144
296.621	951
296.678	4458
296.734	8947
296.791	1616
296.848	217
296.904	-513
296.961	712
297.018	2385
297.074	1801
297.131	-782
297.187	-379
297.244	-212
297.301	2953
297.357	8674
297.414	1464
297.470	-312
297.527	-1048
297.583	-367
297.640	-1001
297.696	-967
297.753	-1105
297.809	-1307
297.866	-461
297.922	-1634
297.979	-1175
298.035	-1295
298.092	-607
298.148	-112
298.204	356
298.261	-532
298.317	1664
298.374	6668
298.430	1788
298.486	-383
298.543	-401
298.599	-341
298.656	328
298.712	3701
298.768	19748
298.824	16373
298.881	2875
298.937	551
298.993	-404
299.050	-772
299.106	288
299.162	-757
299.218	-454
299.275	-490
299.331	-755
299.387	-97
299.443	5017
299.500	5029
299.556	684
299.612	34
299.668	-1434
299.724	-1117
299.780	-335
299.837	-1349
299.893	-1303
299.949	-68
300.005	1471
300.061	1787
300.117	6814
300.173	2001
300.229	-1087
300.285	-1253
300.341	109
300.397	-989
300.453	-1320
300.510	-1398
300.566	-1146
300.622	-701
300.678	-219
300.734	1066
300.790	1337
300.845	2629
300.901	139
300.957	505
301.013	-25
301.069	-1331
301.125	-1314
301.181	-1117
301.237	-1088
301.293	-1230
301.349	-874
301.405	-1904
301.461	-1326
301.516	-1393
301.572	-584
301.628	-1034
301.684	-1219
301.740	-879
301.796	-655
301.851	-1181
301.907	-33
301.963	1040
302.019	5982
302.074	21366
302.130	21983
302.186	7746
302.242	1590
302.297	414
302.353	-61
302.409	-46
302.464	493
302.520	482
302.576	2357
302.631	3206
302.687	-214
302.743	-781
302.798	-1344
302.854	-1602
302.910	-1010
302.965	-935
303.021	-847
303.076	-538
303.132	-838
303.187	-599
303.243	-595
303.299	-1659
303.354	-669
303.410	-854
303.465	-1232
303.521	-1273
303.576	-919
303.632	-858
303.687	115
303.743	2799
303.798	2647
303.853	-353
303.909	-506
303.964	-1122
304.020	-1704
304.075	-1706
304.130	-591
304.186	-547
304.241	745
304.297	-62
304.352	-961
304.358	-1062
304.407	-1883
304.449	-795
304.463	-430
304.518	-996
304.539	-1088
304.573	-1247
304.629	-736
304.630	-710
304.684	602
304.720	2501
304.739	3408
304.794	6182
304.811	4912
304.850	1554
304.902	462
304.905	423
304.960	-23
304.992	376
305.015	559
305.071	74
305.083	108
305.126	251
305.173	-603
305.181	-725
305.236	-1052
305.264	-647
305.292	-287
305.347	-451
305.354	-514
305.402	-586
305.445	381
305.457	557
305.512	1214
305.535	1035
305.567	861
305.622	78
305.626	119
305.678	2378
305.716	6270
305.733	7168
305.788	5995
305.807	4856
305.843	3974
305.897	7131
305.898	7148
305.953	6592
305.988	3971
306.008	2728
306.063	1158
306.078	760
306.118	222
306.168	-186
306.173	-210
306.228	172
306.259	303
306.283	427
306.338	799
306.349	805
306.393	1175
306.440	1873
306.448	1880
306.503	1641
306.530	1528
306.558	2447
306.613	5399
306.620	5704
306.668	5932
306.711	5490
306.723	5138
306.778	3087
306.801	2165
306.833	1556
306.888	567
306.892	546
306.943	872
306.982	929
306.997	938
307.052	725
307.072	1007
307.107	2058
307.162	3006
307.163	3010
307.217	4161
307.253	4893
307.272	4960
307.327	5202
307.343	4861
307.381	3909
307.434	3675
307.436	3836
307.491	6843
307.524	9677
307.546	9787
307.600	7450
307.614	6656
307.655	5002
307.704	3976
307.710	4124
307.765	6144
307.795	7488
307.819	9247
307.874	14262
307.885	14656
307.929	13910
307.975	13488
307.984	15022
308.038	26821
308.065	33840
308.093	69367
308.148	146528
308.156	159974
308.202	231636
308.246	290827
308.257	273194
308.312	136480
308.336	78971
308.366	57189
308.421	27381
308.426	24594
308.475	17910
308.517	13166
308.530	12583
308.585	10367
308.607	9421
308.639	9241
308.694	9665
308.697	9709
308.748	16317
308.787	21730
308.803	21389
308.857	17789
308.877	16084
308.912	16028
308.967	17336
308.967	17293
309.021	25727
309.058	32181
309.076	44276
309.130	83248
309.148	96951
309.185	205765
309.238	375363
309.239	376909
309.293	392353
309.328	372734
309.348	314542
309.402	143140
309.418	97126
309.457	68355
309.508	34344
309.511	33793
309.566	24279
309.598	18805
309.620	17907
309.674	15704
309.688	15236
309.729	13248
309.778	9969
309.783	9814
309.837	8203
309.868	7267
309.892	7794
309.946	9404
309.959	9837
310.001	11195
310.049	12345
310.055	12014
310.109	8256
310.139	6259
310.163	5683
310.218	4342
310.229	4099
310.272	4281
310.319	4359
310.326	4342
310.381	4086
310.409	3939
310.435	3730
310.489	3306
310.499	3224
310.543	3746
310.589	4259
310.598	4217
310.652	3637
310.679	3435
310.706	3234
310.760	2456
310.769	2370
310.814	2480
310.859	2445
310.868	2479
310.923	2519
310.948	2591
310.977	2815
311.031	3341
311.038	3356
311.085	3169
311.128	3000
311.139	2970
311.193	2945
311.218	2789
311.247	2898
311.301	3125
311.308	3151
311.356	3096
311.398	2899
311.410	2772
311.464	2038
311.488	1738
311.518	1981
311.572	2478
311.578	2502
311.626	2605
311.668	2720
311.680	2845
311.734	3298
311.758	3520
311.788	3586
311.842	3581
311.847	3561
311.896	4069
311.937	4520
311.950	4440
312.004	3981
312.027	3741
312.058	3492
312.112	3053
312.117	2995
312.165	3263
312.207	3468
312.297	3918
312.386	3337
312.476	3571
312.566	4854
312.656	2875
312.745	2838
312.835	3053
312.925	3596
313.015	2688
313.104	4028
313.194	2070
313.284	3141
313.374	2718
313.463	2739
313.553	3210
313.643	3170
313.732	2607
313.822	2182
313.912	2849
314.001	3150
314.091	3442
314.180	3784
314.270	3778
314.360	3824
314.449	3079
314.539	2619
314.628	1920
314.718	2854
314.808	4037
314.897	2624
314.987	1822
315.076	3182
315.166	2912
315.255	4080
315.345	3076
315.434	3660
315.524	4341
315.613	3333
315.703	4470
315.792	5485
315.881	17191
315.971	7294
316.060	5852
316.150	9912
316.239	10266
316.328	4739
316.418	3077
316.507	2126
316.597	3740
316.686	2884
316.775	4800
316.865	12157
316.954	3640
317.043	2660
317.133	1982
317.222	1525
317.311	1714
317.400	1673
317.490	3541
317.579	2734
317.668	2586
317.757	3761
317.847	8604
317.936	29815
318.025	10389
318.114	6314
318.203	4456
318.293	4342
318.382	6547
318.471	5939
318.560	9659
318.649	24730
318.738	6808
318.828	2802
318.917	3994
319.006	5415
319.095	13123
319.184	31876
319.273	13792
319.362	4778
319.451	2426
319.540	2305
319.629	2923
319.718	5909
319.807	5854
319.896	8800
319.985	40880
320.074	12497
320.163	4395
320.252	8174
320.341	5585
320.430	3546
320.519	3123
320.608	2818
320.697	2281
320.786	2876
320.875	2418
320.964	3922
321.053	3407
321.142	4771
321.230	5901
321.319	5176
321.408	8584
321.497	6248
321.586	6079
321.675	10484
321.764	10165
321.852	6858
321.941	6011
322.030	4744
322.119	5357
322.207	10555
322.296	14466
322.385	7568
322.474	5927
322.562	10218
322.651	7639
322.740	5100
322.829	9212
322.917	14356
323.006	6689
323.095	4946
323.183	4783
323.272	7538
323.361	13799
323.449	50718
323.538	15553
323.626	32531
323.715	20363
323.804	8282
323.892	27863
323.981	12952
324.069	5899
324.158	15993
324.246	14810
324.335	4008
324.424	4114
324.512	3069
324.601	2725
324.689	3468
324.778	5408
324.866	11532
324.954	3667
325.043	3391
325.131	5785
325.220	11616
325.308	13829
325.397	8004
325.485	5959
325.574	1829
325.662	2343
325.750	1346
325.839	2444
325.927	1950
326.015	3251
326.104	6751
326.192	9080
326.280	2342
326.369	2277
326.457	2266
326.545	3213
326.634	1569
326.722	1975
326.810	1376
326.898	2225
326.987	2534
327.075	3021
327.163	6498
327.251	3470
327.340	2284
327.428	2223
327.516	1749
327.604	2205
327.692	2548
327.781	3821
327.869	6426
327.957	3269
328.045	2610
328.133	3302
328.221	3132
328.309	2968
328.397	2373
328.485	2493
328.574	2969
328.662	5905
328.750	6450
328.838	3778
328.926	2448
329.014	1885
329.102	2984
329.190	5536
329.278	4032
329.366	2071
329.454	1822
329.542	2667
329.630	2888
329.718	3568
329.806	3638
329.893	5371
329.981	7890
330.069	21140
330.157	79340
330.245	236726
330.333	115244
330.421	17253
330.509	6126
330.597	7588
330.684	6884
330.772	4417
330.860	5760
330.948	5635
331.036	3621
331.123	2268
331.211	2604
331.299	2505
331.387	4225
331.475	7441
331.562	3322
331.650	2154
331.738	2132
331.825	3479
331.913	2007
332.001	1388
332.089	2980
332.176	6916
332.264	14487
332.352	9921
332.439	2969
332.527	2348
332.614	1932
332.702	3889
332.790	1961
332.877	5809
332.965	13219
333.052	3544
333.140	3386
333.228	5294
333.315	1978
333.403	2883
333.490	8828
333.578	5745
333.665	4292
333.753	2523
333.840	2476
333.928	3710
334.015	10376
334.103	15943
334.190	49384
334.278	11371
334.365	5120
334.452	2933
334.540	2598
334.627	3894
334.715	6280
334.802	12943
334.889	62277
334.977	59967
335.064	8344
335.151	4031
335.239	4019
335.326	5055
335.413	21207
335.501	29501
335.588	4968
335.675	3207
335.762	3948
335.850	6252
335.937	5672
336.024	14771
336.111	60115
336.199	22885
336.286	5512
336.373	3039
336.460	1996
336.547	2152
336.635	3258
336.722	2507
336.809	1994
336.896	3537
336.983	9242
337.070	26684
337.157	50531
337.245	38553
337.332	26457
337.419	3842
337.506	2496
337.593	2740
337.680	7216
337.767	23768
337.854	5894
337.941	6825
338.028	10546
338.115	4629
338.202	4760
338.289	9496
338.376	35002
338.463	10270
338.550	14092
338.637	14895
338.724	6817
338.811	10093
338.898	3056
338.984	1620
339.071	1937
339.158	2429
339.245	3118
339.332	2975
339.419	6862
339.506	5699
339.593	981
339.679	1980
339.766	1427
339.853	1707
339.940	2367
340.027	861
340.113	1912
340.200	1508
340.287	2092
340.374	1264
340.460	2285
340.547	1377
340.634	2898
340.720	6211
340.807	3100
340.894	1123
340.980	993
341.067	1531
341.154	1823
341.240	1878
341.327	2812
341.414	1831
341.500	1275
341.587	1924
341.674	1665
341.760	1888
341.847	2650
341.933	1802
342.020	1002
342.106	1401
342.193	1040
342.279	2362
342.366	792
342.452	3027
342.539	2065
342.625	3048
342.712	6024
342.798	3013
342.885	2357
342.971	595
343.058	1109
343.144	1359
343.230	1224
343.317	1562
343.403	314
343.490	1610
343.576	1049
343.662	847
343.749	1749
343.835	1837
343.921	5337
344.008	31607
344.094	71657
344.180	12992
344.267	3182
344.353	10339
344.439	12372
344.525	5278
344.612	13494
344.698	16352
344.784	9130
344.870	4321
344.957	1713
345.043	2968
345.129	1646
345.215	2879
345.301	1876
345.387	646
345.474	854
345.560	1327
345.646	1330
345.732	1646
345.818	923
345.904	1230
345.990	2919
346.076	2241
346.162	3352
346.249	1624
346.335	1451
346.421	2420
346.507	5296
346.593	16448
346.679	3343
346.765	2065
346.851	1302
346.937	558
347.023	2208
347.108	1490
347.194	715
347.280	1010
347.366	2186
347.452	5043
347.538	22965
347.624	14374
347.710	10331
347.796	3070
347.882	1492
347.967	1544
348.053	1833
348.139	689
348.225	893
348.311	1076
348.397	451
348.482	2189
348.568	1994
348.654	1427
348.740	2049
348.825	1611
348.911	4262
348.997	9772
349.083	21812
349.168	3838
349.254	1255
349.340	1376
349.425	306
349.511	178
349.597	1923
349.682	2473
349.768	8999
349.854	3713
349.939	2232
350.025	1881
350.110	4994
350.196	2889
350.282	719
350.367	1556
350.453	3827
350.538	2684
350.624	1211
350.709	1647
350.795	1072
350.880	397
350.966	2644
351.051	3336
351.137	1916
351.222	1092
351.308	2645
351.393	5723
351.479	1192
351.564	575
351.649	1654
351.735	1350
351.820	1086
351.906	984
351.991	1570
352.076	3729
352.162	6077
352.247	580
352.332	981
352.418	1803
352.503	3010
352.588	8298
352.673	6293
352.759	1292
352.844	1084
352.929	846
353.014	1408
353.100	2244
353.185	2206
353.270	2059
353.355	2467
353.441	1330
353.526	2124
353.611	2278
353.696	1470
353.781	2256
353.866	241
353.952	2155
354.037	1370
354.122	3806
354.207	3547
354.292	1818
354.377	935
354.462	845
354.547	493
354.632	2062
354.717	2259
354.802	1799
354.887	1113
354.972	1080
355.057	137
355.142	705
355.227	1390
355.312	1838
355.397	2066
355.482	5767
355.567	2859
355.652	2692
355.737	2876
355.822	9415
355.907	6823
355.991	1799
356.076	361
356.161	1830
356.246	852
356.331	1336
356.416	2622
356.501	26295
356.585	24717
356.670	2986
356.755	3834
356.840	4093
356.924	18215
357.009	76520
357.094	24393
357.179	3407
357.263	2176
357.348	2847
357.433	2092
357.517	2030
357.602	1728
357.687	1366
357.771	1804
357.856	4519
357.941	5497
358.025	20171
358.110	108250
358.195	43543
358.279	3899
358.364	1903
358.448	5766
358.533	15520
358.617	9388
358.702	11038
358.787	4616
358.871	2382
358.956	1491
359.040	1138
359.125	941
359.209	1000
359.294	2262
359.378	3012
359.462	2190
359.547	2018
359.631	1129
359.716	571
359.800	1458
359.885	3543
359.969	476
360.053	1772
360.138	903
360.222	1341
360.306	2096
360.391	2309
360.475	2540
360.559	4384
360.644	5979
360.728	4114
360.812	14092
360.896	40406
360.981	12374
361.065	4879
361.149	2767
361.233	2179
361.318	471
361.402	976
361.486	2312
361.570	631
361.654	2395
361.739	4244
361.823	24224
361.907	43578
361.991	5957
362.075	2711
362.159	3969
362.243	4792
362.327	4492
362.411	8192
362.495	4239
362.580	1878
362.664	2281
362.748	2095
362.832	3143
362.916	5077
363.000	15448
363.084	36455
363.168	51577
363.252	10459
363.336	4632
363.420	6298
363.503	28202
363.587	34326
363.671	4288
363.755	2341
363.839	3944
363.923	1003
364.007	3678
364.091	4247
364.175	11124
364.258	54949
364.342	33088
364.426	29300
364.510	13502
364.594	8310
364.677	8602
364.761	34778
364.845	24184
364.929	5072
365.013	3151
365.096	3507
365.180	3008
365.264	12557
365.347	55036
365.431	19892
365.515	2895
365.598	257
365.682	2877
365.766	2349
365.849	3498
365.933	1295
366.017	3646
366.100	1473
366.184	770
366.267	2804
366.351	1530
366.435	634
366.518	857
366.602	654
366.685	1027
366.769	856
366.852	2874
366.936	3031
367.019	2031
367.103	1674
367.186	4674
367.270	818
367.353	355
367.436	2113
367.520	1050
367.603	1174
367.687	464
367.770	1684
367.853	2058
367.937	7593
368.020	10530
368.104	1702
368.187	2932
368.270	2362
368.353	3166
368.437	7914
368.520	21788
368.603	8957
368.687	6375
368.770	12450
368.853	3136
368.936	3302
369.020	4752
369.103	2345
369.186	760
369.269	1089
369.352	2307
369.436	2587
369.519	1662
369.602	-426
369.685	2433
369.768	89
369.851	1161
369.934	192
370.018	574
370.101	1400
370.184	3939
370.267	2252
370.350	2229
370.433	4165
370.516	13898
370.599	19296
370.682	3800
370.765	5913
370.848	8275
370.931	16897
371.014	7557
371.097	-421
371.180	1437
371.263	1877
371.346	-820
371.429	1253
371.511	671
371.594	1223
371.677	3782
371.760	4753
371.843	5346
371.926	35009
372.009	93230
372.091	23004
372.174	7408
372.257	21906
372.340	7183
372.423	5425
372.505	7992
372.588	1963
372.671	5212
372.754	15219
372.836	8261
372.919	10534
373.002	21053
373.085	4626
373.167	3506
373.250	6092
373.332	17329
373.415	42181
373.498	111218
373.580	33998
373.663	49820
373.746	71455
373.828	10348
373.911	4444
373.993	4664
374.076	22378
374.159	21546
374.241	5975
374.324	13825
374.406	9190
374.489	21860
374.571	64567
374.654	20861
374.736	9190
374.819	35121
374.901	61555
374.983	70579
375.066	10073
375.148	3416
375.231	19623
375.313	38257
375.395	9649
375.478	2936
375.560	3013
375.643	2947
375.725	9758
375.807	49976
375.890	43054
375.972	17223
376.054	8721
376.136	18034
376.219	6504
376.301	11084
376.383	32776
376.465	11346
376.548	4472
376.630	6971
376.712	23566
376.794	10514
376.877	2152
376.959	220
377.041	1386
377.123	3693
377.205	3899
377.287	730
377.369	1538
377.452	935
377.534	1206
377.616	1450
377.698	715
377.780	46
377.862	1253
377.944	2481
378.026	-107
378.108	1026
378.190	416
378.272	1745
378.354	232
378.436	922
378.518	1628
378.600	6823
378.682	4041
378.764	7743
378.846	6506
378.928	1910
379.010	1621
379.091	1741
379.173	1195
379.255	625
379.337	590
379.419	3135
379.501	12184
379.583	4425
379.664	1783
379.746	1335
379.828	8031
379.910	9012
379.991	9363
380.073	1581
380.155	1136
380.237	1499
380.318	1389
380.400	668
380.482	2025
380.564	2532
380.645	1609
380.727	1554
380.809	3226
380.890	1110
380.972	-441
381.053	991
381.135	2243
381.217	2377
381.298	7681
381.380	3830
381.461	4044
381.543	25430
381.624	29964
381.706	4938
381.787	3230
381.869	3655
381.951	16460
382.032	75759
382.113	42646
382.195	4371
382.276	4292
382.358	6452
382.439	20925
382.521	31234
382.602	57736
382.684	19330
382.765	26233
382.846	20996
382.928	20299
383.009	10661
383.090	8834
383.172	31622
383.253	44693
383.334	19438
383.416	34604
383.497	17073
383.578	4844
383.659	8658
383.741	30092
383.822	76658
383.903	34899
383.984	16168
384.066	34265
384.147	18003
384.228	4362
384.309	2895
384.390	2394
384.471	1684
384.553	2661
384.634	2659
384.715	2653
384.796	989
384.877	2102
384.958	7864
385.039	7642
385.120	3257
385.201	2940
385.282	2425
385.363	3722
385.444	2195
385.525	4927
385.606	17793
385.687	16021
385.768	4999
385.849	4507
385.930	32901
386.011	64414
386.092	13989
386.173	2885
386.254	2883
386.335	3480
386.416	2124
386.496	5079
386.577	7913
386.658	4833
386.739	2544
386.820	3451
386.901	1952
386.981	2744
387.062	2050
387.143	1987
387.224	7262
387.304	8612
387.385	3514
387.466	2236
387.547	4403
387.627	1358
387.708	4279
387.789	16011
387.869	20787
387.950	7014
388.031	1462
388.111	607
388.192	5708
388.273	7258
388.353	4208
388.434	1851
388.514	4404
388.595	25986
388.676	27308
388.756	8532
388.837	6864
388.917	5261
388.998	667
389.078	2836
389.159	3576
389.239	1282
389.320	3772
389.400	570
389.480	4702
389.561	8690
389.641	6198
389.722	2417
389.802	2366
389.883	5136
389.963	14245
390.043	10370
390.124	4494
390.204	5093
390.284	11617
390.365	11000
390.445	43750
390.525	235006
390.605	210461
390.686	28501
390.766	7160
390.846	5344
390.927	2028
391.007	2153
391.087	3879
391.167	2000
391.247	1257
391.328	5008
391.408	5857
391.488	4349
391.568	1057
391.648	1900
391.728	3677
391.808	3496
391.888	1705
391.969	5898
392.049	8186
392.129	6042
392.209	5844
392.289	12505
392.369	7784
392.449	9581
392.529	6135
392.609	5693
392.689	6822
392.769	13811
392.849	12990
392.929	12104
393.009	24133
393.089	21005
393.169	30908
393.248	115672
393.328	581118
393.408	619125
393.488	125363
393.568	30731
393.648	16036
393.728	11507
393.807	8707
393.887	10145
393.967	10479
394.047	13923
394.127	19105
394.206	37741
394.286	145369
394.366	642547
394.446	703722
394.525	179228
394.605	45168
394.685	22904
394.764	22841
394.844	28345
394.924	20883
395.003	9809
395.083	8574
395.163	8019
395.242	7564
395.322	8777
395.402	6914
395.481	10772
395.561	14097
395.640	31307
395.720	28919
395.799	45248
395.879	47255
395.958	62996
396.038	224349
396.117	825110
396.197	915762
396.276	287963
396.356	81572
396.435	42390
396.515	28230
396.594	22667
396.673	33472
396.753	141004
396.832	536558
396.912	337814
396.991	52462
397.070	16847
397.150	8778
397.229	8302
397.308	7857
397.388	13709
397.467	8524
397.546	5249
397.625	1789
397.705	4769
397.784	3204
397.863	2571
397.942	2177
398.022	2776
398.101	8427
398.180	25384
398.259	11630
398.338	3881
398.417	1519
398.497	980
398.576	2216
398.655	1026
398.734	2273
398.813	2473
398.892	7483
398.971	29066
399.050	13459
399.129	1295
399.208	1549
399.287	2930
399.366	2125
399.445	1299
399.524	754
399.603	-148
399.682	2479
399.761	6172
399.840	32397
399.919	24705
399.998	2779
400.077	8
400.156	-222
400.235	3438
400.313	660
400.392	765
400.471	4378
400.550	6633
400.629	454
400.708	1157
400.786	539
400.865	4108
400.944	3238
401.023	3221
401.102	443
401.180	324
401.259	7
401.338	799
401.416	1023
401.495	218
401.574	1948
401.652	76
401.731	1910
401.810	121
401.888	980
401.967	859
402.046	1079
402.124	2489
402.203	225
402.281	2231
402.360	1568
402.438	5985
402.517	2777
402.596	1692
402.674	1436
402.753	864
402.831	1328
402.910	2210
402.988	3083
403.066	9412
403.145	6548
403.223	4405
403.302	8208
403.380	6571
403.459	5729
403.537	2181
403.615	1671
403.694	387
403.772	1607
403.850	1097
403.929	1023
404.007	1170
404.085	4100
404.164	3368
404.242	6415
404.320	29586
404.398	115358
404.477	100825
404.555	56461
404.633	49200
404.711	73716
404.789	55362
404.868	9833
404.946	3028
405.024	2675
405.102	2023
405.180	581
405.258	581
405.336	1959
405.415	340
405.493	2177
405.571	2072
405.649	755
405.727	-3
405.805	2192
405.883	925
405.961	1382
406.039	1266
406.117	-261
406.195	2186
406.273	5008
406.351	22376
406.429	13032
406.507	1743
406.585	832
406.663	648
406.740	548
406.818	518
406.896	494
406.974	2264
407.052	317
407.130	11495
407.208	16499
407.285	3295
407.363	-86
407.441	1052
407.519	1151
407.596	4126
407.674	27550
407.752	140172
407.830	101471
407.907	13950
407.985	2419
408.063	1787
408.141	539
408.218	1765
408.296	1111
408.373	152
408.451	674
408.529	676
408.606	-55
408.684	-102
408.762	220
408.839	135
408.917	292
408.994	1118
409.072	-436
409.149	61
409.227	783
409.304	894
409.382	1273
409.459	807
409.537	2172
409.614	1768
409.692	1970
409.769	906
409.846	2066
409.924	3588
410.001	473
410.079	1171
410.156	1944
410.233	1383
410.311	3314
410.388	1668
410.465	905
410.543	324
410.620	1141
410.697	970
410.775	380
410.852	-879
410.929	1174
411.006	1246
411.083	-851
411.161	60
411.238	2051
411.315	725
411.392	270
411.469	1172
411.547	1057
411.624	-932
411.701	4
411.778	585
411.855	1161
411.932	64
412.009	-270
412.086	348
412.163	509
412.240	686
412.317	1532
412.394	801
412.471	-93
412.548	92
412.625	-13
412.702	932
412.779	1775
412.856	-126
412.933	152
413.010	1676
413.087	3233
413.164	3533
413.241	4827
413.318	442
413.395	755
413.471	294
413.548	-6
413.625	296
413.702	-596
413.779	451
413.855	244
413.932	-268
414.009	-815
414.086	652
414.162	520
414.239	1052
414.316	3357
414.393	7697
414.469	834
414.546	-271
414.623	-167
414.699	319
414.776	-660
414.853	393
414.929	-214
415.006	-215
415.082	945
415.159	163
415.236	519
415.312	67
415.389	735
415.465	147
415.542	235
415.618	-470
415.695	365
415.771	-864
415.848	-241
415.924	21
416.000	-126
416.077	851
416.153	-701
416.230	-892
416.306	737
416.383	-165
416.459	64
416.535	-372
416.612	-198
416.688	-247
416.764	-397
416.841	-1019
416.917	281
416.993	210
417.069	-101
417.146	1216
417.222	3821
417.298	2065
417.374	279
417.451	123
417.527	-436
417.603	-782
417.679	-51
417.755	-450
417.831	-225
417.908	218
417.984	207
418.060	-840
418.136	367
418.212	933
418.288	784
418.364	89
418.440	-314
418.516	553
418.592	655
418.668	1481
418.744	1105
418.820	669
418.896	-350
418.972	-1094
419.048	-376
419.124	1786
419.200	138
419.276	-229
419.352	-1645
419.428	-112
419.504	-666
419.579	-339
419.655	-538
419.731	-585
419.807	1268
419.883	1762
419.959	1383
420.034	744
420.110	498
420.186	3353
420.262	3091
420.337	183
420.413	405
420.489	342
420.565	964
420.640	-99
420.716	1198
420.792	-730
420.867	189
420.943	385
421.019	946
421.094	296
421.170	786
421.245	412
421.321	1451
421.397	2011
421.472	21002
421.548	78048
421.623	38307
421.699	4776
421.774	1453
421.850	940
421.925	2608
422.001	2209
422.076	2869
422.152	2721
422.227	3992
422.302	6342
422.378	9297
422.453	17662
422.529	50325
422.604	214659
422.679	455195
422.755	237687
422.830	54302
422.905	19750
422.981	9348
423.056	6219
423.131	4319
423.207	2969
423.282	2377
423.357	3292
423.432	1778
423.508	2821
423.583	1849
423.658	1634
423.733	1216
423.808	919
423.883	1228
423.959	979
424.034	187
424.109	656
424.184	-632
424.259	298
424.334	314
424.409	-344
424.484	152
424.559	-163
424.634	-484
424.709	217
424.784	594
424.859	351
424.934	-211
425.009	1911
425.084	4084
425.159	932
425.234	84
425.309	-374
425.384	740
425.459	-148
425.534	269
425.609	-509
425.683	-143
425.758	204
425.833	154
425.908	199
425.983	1073
426.058	3816
426.132	2007
426.207	333
426.282	2371
426.357	475
426.431	-436
426.506	159
426.581	-401
426.655	-367
426.730	256
426.805	-1231
426.879	-140
426.954	-184
427.029	1113
427.103	4674
427.178	14792
427.253	6439
427.327	-120
427.402	653
427.476	2016
427.551	624
427.625	82
427.700	274
427.774	-153
427.849	672
427.923	-418
427.998	102
428.072	-702
428.147	2168
428.221	12243
428.296	47955
428.370	23630
428.444	2074
428.519	1262
428.593	2864
428.667	2795
428.742	3690
428.816	5419
428.890	25648
428.965	40723
429.039	9785
429.113	4724
429.188	882
429.262	-16
429.336	876
429.410	2424
429.485	1400
429.559	2597
429.633	1791
429.707	199
429.781	2756
429.855	24118
429.930	35301
430.004	14249
430.078	21143
430.152	24582
430.226	85090
430.300	83406
430.374	10318
430.448	2608
430.522	6575
430.596	21808
430.670	13432
430.744	37319
430.818	45291
430.892	7054
430.966	254
431.040	-11
431.114	-980
431.188	-2
431.262	-669
431.336	-558
431.410	1177
431.484	3282
431.557	2080
431.631	-42
431.705	519
431.779	8274
431.853	43447
431.927	27422
432.000	2386
432.074	-111
432.148	391
432.222	-117
432.295	-268
432.369	-633
432.443	-23
432.516	6241
432.590	15981
432.664	5091
432.737	-294
432.811	-927
432.885	-986
432.958	159
433.032	-955
433.106	-374
433.179	-990
433.253	-400
433.326	-1117
433.400	-441
433.473	-617
433.547	-1446
433.620	-314
433.694	-235
433.767	-141
433.841	-32
433.914	-915
433.988	-773
434.061	-784
434.134	-412
434.208	-1062
434.281	-1159
434.355	-1137
434.428	-779
434.501	-1175
434.575	-860
434.648	-732
434.721	-735
434.795	-807
434.868	-1260
434.941	-1405
435.014	-818
435.088	-617
435.161	-1526
435.234	-593
435.307	-93
435.381	119
435.454	113
435.527	-82
435.600	217
435.673	524
435.746	326
435.819	-429
435.892	-700
435.966	-527
436.039	-430
436.112	-238
436.185	-408
436.258	-739
436.331	-1277
436.404	-567
436.477	-789
436.550	-1132
436.623	-996
436.696	-917
436.769	-1022
436.842	-157
436.915	-359
436.987	-785
437.060	-745
437.133	-517
437.206	-1023
437.279	-439
437.352	-833
437.425	-832
437.498	-415
437.570	-861
437.643	-60
437.716	-1110
437.789	-462
437.861	-721
437.934	958
438.007	-363
438.080	-1053
438.152	-469
438.225	1078
438.298	9936
438.370	29869
438.443	8701
438.516	469
438.588	-723
438.661	-599
438.734	-728
438.806	-533
438.879	-322
438.951	-695
439.024	315
439.096	-259
439.169	-404
439.241	-667
439.314	-457
439.386	-106
439.459	685
439.531	209
439.604	-429
439.676	-217
439.749	-563
439.821	-1330
439.893	-693
439.966	-529
440.038	-1009
440.110	-424
440.183	-180
440.255	-751
440.327	-609
440.400	2689
440.472	12045
440.544	6376
440.617	878
440.689	662
440.761	621
440.833	365
440.905	-328
440.978	-841
441.050	-756
441.122	-403
441.194	-545
441.266	-1129
441.338	-680
441.411	-298
441.483	2012
441.555	2587
441.627	755
441.699	-110
441.771	87
441.843	-443
441.915	-367
441.987	-918
442.059	-368
442.131	-32
442.203	-63
442.275	632
442.347	613
442.419	2414
442.491	12898
442.563	33885
442.635	11729
442.706	4594
442.778	2590
442.850	-490
442.922	-1321
442.994	-472
443.066	-145
443.137	-92
443.209	317
443.281	1279
443.353	4214
443.425	20535
443.496	72867
443.568	60012
443.640	17423
443.711	2314
443.783	599
443.855	121
443.926	33
443.998	-112
444.070	94
444.141	-115
444.213	-687
444.285	-89
444.356	577
444.428	232
444.499	-513
444.571	-1053
444.642	-491
444.714	-390
444.785	-795
444.857	645
444.928	2200
445.000	1119
445.071	1514
445.143	1769
445.214	1604
445.285	4506
445.357	12389
445.428	52761
445.500	123045
445.571	57908
445.642	25521
445.714	7715
445.785	5447
445.856	100
445.928	270
445.999	64
446.070	-134
446.141	191
446.213	-279
446.284	-1038
446.355	496
446.426	-609
446.497	-748
446.569	-455
446.640	13
446.711	-872
446.782	-997
446.853	-53
446.924	-720
446.995	-512
447.066	-511
447.138	-132
447.209	-1192
447.280	-1089
447.351	-935
447.422	-1152
447.493	-557
447.564	-204
447.635	-1028
447.706	-1722
447.777	-1079
447.847	-1437
447.918	-775
447.989	-907
448.060	-272
448.131	668
448.202	802
448.273	-519
448.344	-440
448.414	173
448.485	-1654
448.556	-438
448.627	-876
448.698	-3
448.768	-1176
448.839	-673
448.910	-233
448.981	9
449.051	-318
449.122	-700
449.193	-1252
449.263	-1180
449.334	757
449.405	-152
449.475	315
449.546	227
449.616	365
449.687	156
449.758	-679
449.828	-646
449.899	-1078
449.969	-668
450.040	-579
450.110	-433
450.181	3
450.251	-408
450.322	-482
450.392	-190
450.463	-554
450.533	-394
450.604	233
450.674	-604
450.744	-1073
450.815	-91
450.885	-509
450.955	-1235
451.026	-1015
451.096	-771
451.166	-547
451.237	20
451.307	1936
451.377	210
451.447	-880
451.518	-1044
451.588	-349
451.658	-442
451.728	-545
451.799	2690
451.869	1909
451.939	-708
452.009	-530
452.079	-861
452.149	17
452.219	-419
452.289	3183
452.360	1699
452.430	-317
452.500	-297
452.570	-26
452.640	791
452.710	2084
452.780	3914
452.850	947
452.920	-222
452.990	-180
453.060	43
453.129	-553
453.199	49
453.269	3915
453.339	8307
453.409	12731
453.479	14562
453.549	18742
453.619	18869
453.688	4475
453.758	462
453.828	-160
453.898	-861
453.968	-1034
454.037	-181
454.087	-253
454.107	-289
454.168	-789
454.177	-869
454.247	-595
454.249	-601
454.316	-929
454.330	-762
454.386	-126
454.411	245
454.456	819
454.492	678
454.525	580
454.574	153
454.595	-57
454.655	-929
454.665	-1071
454.734	-47
454.736	-55
454.804	-702
454.817	-78
454.873	2523
454.898	2693
454.943	2956
454.979	1836
455.013	805
455.060	200
455.082	-65
455.141	516
455.152	693
455.221	3534
455.222	3629
455.291	11747
455.303	16677
455.360	37889
455.384	64164
455.430	112292
455.465	75314
455.499	40318
455.546	17002
455.569	6224
455.627	2458
455.638	1736
455.707	-177
455.708	-169
455.777	-398
455.789	-390
455.846	-119
455.869	-290
455.916	-766
455.950	-915
455.985	-1052
456.031	-1100
456.054	-1143
456.112	-559
456.124	-440
456.193	8
456.193	3
456.262	-131
456.274	-49
456.332	393
456.355	351
456.401	216
456.436	-240
456.470	-783
456.516	-483
456.540	-313
456.597	-932
456.609	-1038
456.678	-430
456.678	-436
456.747	-828
456.759	-823
456.817	-726
456.840	-766
456.886	-1047
456.920	-1112
456.955	-1050
457.001	-906
457.024	-910
457.082	-496
457.093	-356
457.162	385
457.163	392
457.232	245
457.243	193
457.301	-132
457.324	-202
457.370	-308
457.405	181
457.439	610
457.485	204
457.508	37
457.566	-91
457.577	-135
457.646	-37
457.647	-35
457.715	28
457.727	26
457.784	-29
457.808	609
457.853	1672
457.889	2486
457.922	3111
457.969	1781
457.991	1355
458.050	1240
458.060	1193
458.129	2843
458.130	2877
458.198	4170
458.211	3663
458.267	1302
458.292	866
458.336	672
458.372	618
458.405	512
458.453	841
458.474	896
458.533	1713
458.543	1907
458.611	4982
458.614	5019
458.680	4661
458.694	3919
458.749	1569
458.775	1257
458.818	656
458.855	386
458.887	290
458.936	124
458.955	-1
459.016	-153
459.024	-129
459.093	410
459.097	415
459.162	-57
459.177	-109
459.230	-68
459.257	39
459.299	183
459.338	266
459.368	264
459.418	294
459.437	319
459.499	5
459.505	-15
459.574	153
459.579	184
459.643	105
459.659	-123
459.711	-353
459.740	-105
459.780	55
459.820	253
459.849	248
459.900	-88
459.917	-15
459.981	545
459.986	546
460.054	474
460.061	466
460.123	309
460.141	100
460.191	-296
460.222	-11
460.260	450
460.302	239
460.328	-15
460.382	794
460.397	1107
460.462	1022
460.465	1063
460.534	3215
460.543	3475
460.602	13493
460.623	18237
460.671	28468
460.703	47267
460.739	58775
460.783	52182
460.808	46049
460.864	10516
460.876	5205
460.944	939
460.945	905
461.013	1356
461.024	1431
461.081	821
461.104	623
461.150	436
461.184	400
461.218	586
461.264	583
461.286	446
461.345	390
461.355	350
461.423	72
461.425	72
461.491	306
461.505	300
461.559	916
461.585	1213
461.628	1513
461.665	1888
461.696	2111
461.745	3016
461.764	3018
461.825	937
461.832	808
461.901	768
461.905	777
461.969	211
461.985	44
462.037	949
462.065	1434
462.105	819
462.145	477
462.173	758
462.225	936
462.241	1016
462.305	1790
462.310	1776
462.378	1308
462.385	1176
462.446	527
462.465	504
462.514	650
462.545	673
462.582	883
462.625	1119
462.650	924
462.705	560
462.718	539
462.785	705
462.786	715
462.854	796
462.865	868
462.922	1091
462.945	1184
462.990	1547
463.025	1416
463.058	922
463.104	800
463.126	684
463.184	96
463.194	236
463.262	1235
463.264	1272
463.330	938
463.344	863
463.398	1116
463.424	1148
463.466	1190
463.504	1458
463.533	1384
463.583	808
463.601	804
463.663	1054
463.669	1007
463.737	407
463.743	364
463.805	1303
463.823	1586
463.873	1976
463.903	2296
463.940	2472
463.982	2708
464.008	2449
464.062	1200
464.076	1061
464.142	706
464.144	711
464.211	946
464.221	987
464.279	563
464.301	432
464.347	636
464.381	624
464.414	655
464.461	867
464.482	1029
464.540	1497
464.550	1441
464.617	786
464.620	771
464.685	938
464.699	914
464.753	1601
464.779	1953
464.820	2567
464.859	3366
464.888	2824
464.938	1581
464.956	1912
465.018	3131
465.023	3086
465.091	2295
465.098	2234
465.158	2515
465.177	2606
465.226	2699
465.257	2723
465.293	2418
465.336	1987
465.361	2060
465.416	2233
465.428	2237
465.495	2207
465.496	2217
465.563	3136
465.575	3286
465.631	3629
465.654	3822
465.698	3041
465.734	2216
465.765	2125
465.813	2018
465.833	2029
465.893	2040
465.900	1986
465.968	1528
465.972	1499
466.035	1964
466.052	2063
466.102	2114
466.131	2130
466.170	1808
466.210	1559
466.237	2035
466.290	2791
466.304	2668
466.369	2204
466.372	2209
466.439	2222
466.449	2224
466.506	2702
466.528	2885
466.573	3149
466.607	3297
466.641	3544
466.687	3911
466.708	4393
466.766	5792
466.775	5498
466.842	3167
466.845	3051
466.909	3034
466.925	3040
466.977	3030
467.004	3027
467.044	3093
467.083	3152
467.111	3354
467.163	3715
467.178	3820
467.242	4254
467.245	4229
467.312	3610
467.321	3527
467.379	3236
467.400	3120
467.446	3704
467.480	4122
467.559	4057
467.638	3819
467.717	2422
467.796	3565
467.875	3531
467.955	3116
468.034	2861
468.113	4894
468.192	5876
468.271	3689
468.350	2399
468.429	2615
468.508	3335
468.588	1866
468.667	2567
468.746	2151
468.825	2326
468.904	1794
468.983	2310
469.062	3136
469.141	4077
469.220	2303
469.299	2661
469.378	2078
469.456	4010
469.535	3715
469.614	3310
469.693	1849
469.772	3188
469.851	4052
469.930	3082
470.009	2227
470.088	2923
470.166	2080
470.245	1806
470.324	1454
470.403	2582
470.482	2657
470.560	2498
470.639	1488
470.718	2953
470.797	2551
470.875	1555
470.954	2754
471.033	2749
471.111	1878
471.190	1943
471.269	2339
471.347	1894
471.426	1970
471.505	2383
471.583	3273
471.662	2215
471.740	1806
471.819	1713
471.898	1937
471.976	2897
472.055	2006
472.133	3324
472.212	3482
472.290	1886
472.369	2043
472.447	2186
472.526	1544
472.604	2459
472.683	2980
472.761	1318
472.839	2010
472.918	2975
472.996	1859
473.075	2476
473.153	1886
473.231	1918
473.310	1726
473.388	2427
473.466	2528
473.545	1992
473.623	2691
473.701	2801
473.780	2438
473.858	793
473.936	3268
474.014	2192
474.093	2318
474.171	3096
474.249	3683
474.327	2800
474.405	867
474.484	2690
474.562	1396
474.640	2353
474.718	2548
474.796	1620
474.874	2524
474.952	2183
475.030	2079
475.108	2043
475.187	2615
475.265	2336
475.343	2799
475.421	2979
475.499	2349
475.577	2766
475.655	2118
475.733	3164
475.811	4272
475.889	4220
475.966	3868
476.044	1314
476.122	1976
476.200	2159
476.278	2035
476.356	1732
476.434	1909
476.512	2168
476.590	1512
476.667	1795
476.745	1386
476.823	2421
476.901	1791
476.979	2091
477.056	2665
477.134	1932
477.212	2270
477.290	2297
477.367	1898
477.445	2165
477.523	1757
477.601	1440
477.678	1863
477.756	1902
477.834	2489
477.911	2311
477.989	1708
478.066	1972
478.144	1915
478.222	1329
478.299	2007
478.377	1512
478.454	2497
478.532	1547
478.609	901
478.687	2511
478.764	1415
478.842	1619
478.919	1684
478.997	2450
479.074	1463
479.152	1201
479.229	1369
479.307	1080
479.384	1139
479.461	1447
479.539	1362
479.616	1988
479.694	1551
479.771	2025
479.848	57
479.926	1537
480.003	3186
480.080	1525
480.157	1821
480.235	2088
480.312	1122
480.389	2272
480.467	2317
480.544	2312
480.621	2230
480.698	1529
480.775	1733
480.853	1873
480.930	1212
481.007	2935
481.084	2771
481.161	3780
481.238	3601
481.315	695
481.392	899
481.470	519
481.547	1556
481.624	1326
481.701	1344
481.778	1396
481.855	1443
481.932	2200
482.009	2584
482.086	1707
482.163	1096
482.240	1076
482.317	1595
482.393	1832
482.470	2256
482.547	2343
482.624	970
482.701	1916
482.778	1043
482.855	664
482.932	1329
483.009	2290
483.085	1832
483.162	3098
483.239	3432
483.316	685
483.393	1160
483.469	992
483.546	2554
483.623	1512
483.699	1409
483.776	1388
483.853	673
483.930	1748
484.006	3093
484.083	6616
484.160	7921
484.236	10782
484.313	9281
484.389	6034
484.466	6923
484.543	5202
484.619	4626
484.696	6455
484.772	4941
484.849	5489
484.925	5113
485.002	4743
485.078	5269
485.155	4434
485.231	3898
485.308	4466
485.384	4874
485.461	5030
485.537	6028
485.614	7433
485.690	4798
485.766	4371
485.843	4578
485.919	4827
485.995	4962
486.072	4091
486.148	3036
486.224	4595
486.301	4801
486.377	4874
486.453	4162
486.530	5715
486.606	6875
486.682	7032
486.758	7523
486.835	7237
486.911	5904
486.987	7485
487.063	7287
487.139	7164
487.215	6905
487.292	6815
487.368	4879
487.444	4619
487.520	6306
487.596	5345
487.672	6338
487.748	8943
487.824	11300
487.900	7303
487.976	4311
488.052	3968
488.128	4648
488.204	2558
488.280	4332
488.356	4048
488.432	5941
488.508	8398
488.584	4399
488.660	3504
488.736	3587
488.812	3712
488.888	4079
488.964	3670
489.039	4766
489.115	6594
489.191	5610
489.267	4052
489.343	4184
489.418	3933
489.494	2974
489.570	1673
489.646	4865
489.722	4046
489.797	2568
489.873	4275
489.949	6603
490.024	6284
490.100	3140
490.176	3184
490.251	3128
490.327	3909
490.403	2844
490.478	3407
490.554	2828
490.629	3623
490.705	2991
490.781	3837
490.856	2791
490.932	2642
491.007	3425
491.083	2415
491.158	2829
491.234	2761
491.309	4637
491.385	4576
491.460	2974
491.536	2616
491.611	2250
491.686	2520
491.762	3020
491.837	3073
491.913	4605
491.988	5501
492.063	5233
492.139	4391
492.214	3456
492.289	3101
492.365	1923
492.440	3185
492.515	1499
492.590	2365
492.666	1785
492.741	2438
492.816	3542
492.891	3066
492.967	3271
493.042	3551
493.117	4590
493.192	5749
493.267	13275
493.342	65768
493.418	113319
493.493	21963
493.568	3214
493.643	1539
493.718	1969
493.793	2704
493.868	3108
493.943	2332
494.018	2637
494.093	1855
494.168	2191
494.243	2022
494.318	2383
494.393	2417
494.468	2424
494.543	2239
494.618	1936
494.693	2303
494.768	1751
494.842	1870
494.917	2043
494.992	1520
495.067	1815
495.142	2182
495.217	1849
495.292	2224
495.366	1939
495.441	1720
495.516	3122
495.591	1695
495.665	4034
495.740	8795
495.815	5410
495.890	2461
495.964	771
496.039	3922
496.114	2809
496.188	5208
496.263	5370
496.338	2091
496.412	2751
496.487	2956
496.561	2481
496.636	2355
496.710	2484
496.785	2661
496.860	2864
496.934	1857
497.009	3036
497.083	3041
497.158	3319
497.232	3368
497.307	3509
497.381	4007
497.455	4000
497.530	4997
497.604	3761
497.679	4146
497.753	6207
497.827	6471
497.902	7713
497.976	9014
498.050	12062
498.125	37528
498.199	51225
498.273	12210
498.348	8473
498.422	8510
498.496	6728
498.570	7655
498.645	6464
498.719	4585
498.793	5811
498.867	5386
498.941	7167
499.016	13320
499.090	37175
499.164	22656
499.238	3499
499.312	3434
499.386	2833
499.460	3622
499.534	2210
499.609	2025
499.683	3078
499.757	4109
499.831	5804
499.905	21864
499.979	28350
500.053	4363
500.127	3849
500.201	1562
500.275	2589
500.349	1719
500.422	2331
500.496	2756
500.570	3693
500.644	10333
500.718	23572
500.792	9327
500.866	1970
500.940	1761
501.013	3566
501.087	2023
501.161	2231
501.235	840
501.309	7323
501.382	17267
501.456	22404
501.530	4156
501.603	5598
501.677	3775
501.751	278
501.825	2674
501.898	2481
501.972	6716
502.046	6888
502.119	1305
502.193	3227
502.266	6888
502.340	5939
502.413	3026
502.487	6854
502.561	4473
502.634	2364
502.708	1913
502.781	353
502.855	1726
502.928	1669
503.002	1494
503.075	445
503.149	741
503.222	404
503.295	1187
503.369	1727
503.442	1422
503.516	5413
503.589	13116
503.662	11011
503.736	3438
503.809	5642
503.882	6440
503.956	8045
504.029	7875
504.102	4123
504.175	6060
504.249	1697
504.322	2177
504.395	1901
504.468	1156
504.542	747
504.615	769
504.688	1326
504.761	-912
504.834	2407
504.907	1342
504.980	577
505.053	360
505.127	-575
505.200	3937
505.273	890
505.346	793
505.419	265
505.492	2181
505.565	702
505.638	867
505.711	540
505.784	-365
505.857	55
505.930	2956
506.003	-258
506.076	1769
506.149	1001
506.221	-284
506.294	3027
506.367	1307
506.440	8665
506.513	8856
506.586	1838
506.659	225
506.731	1096
506.804	1478
506.877	641
506.950	1184
507.022	1913
507.095	-407
507.168	710
507.241	1516
507.313	578
507.386	-481
507.459	1639
507.531	234
507.604	76
507.677	1756
507.749	-666
507.822	2162
507.894	1225
507.967	4800
508.040	3054
508.112	2547
508.185	2456
508.257	496
508.330	3483
508.402	1696
508.475	2075
508.547	1472
508.620	3088
508.692	2124
508.765	2265
508.837	933
508.909	2384
508.982	1095
509.054	2054
509.127	1890
509.199	732
509.271	401
509.344	577
509.416	1754
509.488	1734
509.560	2416
509.633	1125
509.705	1646
509.777	1965
509.849	2646
509.922	1683
509.994	1632
510.066	2982
510.138	843
510.210	6689
510.283	4661
510.355	4410
510.427	3485
510.499	2245
510.571	3394
510.643	1780
510.715	3864
510.787	1138
510.859	4093
510.931	3122
511.003	3242
511.076	2770
511.148	1695
511.219	2270
511.291	4094
511.363	4632
511.435	3601
511.507	2342
511.579	3207
511.651	2873
511.723	2246
511.795	2180
511.867	1553
511.939	2546
512.010	2508
512.082	3571
512.154	1136
512.226	1158
512.298	4177
512.369	4229
512.441	4171
512.513	3657
512.585	2834
512.656	3782
512.728	2349
512.800	2493
512.871	3576
512.943	3818
513.015	845
513.086	3027
513.158	2517
513.230	669
513.301	1742
513.373	3200
513.444	912
513.516	2131
513.588	2200
513.659	2059
513.731	1966
513.802	797
513.874	3996
513.945	3370
514.016	2323
514.088	2103
514.159	1267
514.231	2448
514.302	2802
514.374	4114
514.445	1172
514.516	5666
514.588	2414
514.659	1896
514.730	2277
514.802	3755
514.873	1871
514.944	6870
515.016	3821
515.087	2528
515.158	3106
515.229	4338
515.301	2365
515.372	6860
515.443	3821
515.514	2467
515.585	1742
515.656	3190
515.728	3467
515.799	1498
515.870	1911
515.941	2804
516.012	1232
516.083	4621
516.154	1606
516.225	3333
516.296	3489
516.367	2290
516.438	1563
516.509	2080
516.580	2826
516.651	6018
516.722	10188
516.793	9584
516.864	2653
516.935	4043
517.006	3835
517.077	2707
517.148	5758
517.219	13388
517.289	27226
517.360	12889
517.431	8711
517.502	992
517.573	2226
517.643	1835
517.714	2476
517.785	3090
517.856	1802
517.926	2851
517.997	3354
518.068	1778
518.138	5558
518.209	2990
518.280	8158
518.350	37187
518.421	22871
518.492	4444
518.562	2701
518.633	1967
518.703	705
518.774	5076
518.845	6513
518.915	8658
518.986	3725
519.056	2639
519.127	4083
519.197	3619
519.268	10180
519.338	11417
519.408	2579
519.479	3062
519.549	1100
519.620	3905
519.690	1635
519.760	1235
519.831	1350
519.901	1280
519.971	1875
520.042	1359
520.112	768
520.182	2523
520.253	1737
520.323	1070
520.393	284
520.463	2916
520.534	-351
520.604	4559
520.674	2877
520.744	1171
520.814	1751
520.885	3033
520.955	2914
521.025	12635
521.095	8769
521.165	2771
521.235	1429
521.305	1438
521.375	2091
521.445	1852
521.515	992
521.585	2168
521.655	-758
521.725	1413
521.795	2804
521.865	-323
521.935	3457
522.005	1460
522.075	955
522.145	1960
522.215	825
522.285	2677
522.355	1660
522.424	4445
522.494	3155
522.564	2637
522.634	2202
522.704	5702
522.774	1748
522.843	2378
522.913	1834
522.983	1426
523.053	12
523.122	2096
523.192	642
523.262	1568
523.331	2392
523.401	2128
523.471	682
523.540	599
523.610	-216
523.680	1916
523.749	1199
523.819	1163
523.888	1232
523.958	489
524.027	896
524.097	2328
524.166	789
524.236	-402
524.305	2385
524.375	-179
524.444	-138
524.514	2579
524.583	866
524.653	383
524.722	1374
524.791	-853
524.861	2312
524.930	-157
524.999	-26
525.069	2298
525.138	144
525.207	709
525.277	902
525.346	334
525.415	1758
525.484	1409
525.554	1103
525.623	1395
525.692	2548
525.761	1427
525.830	1051
525.900	897
525.969	1700
526.038	3061
526.107	2331
526.176	14540
526.245	14325
526.314	4720
526.383	7465
526.452	8906
526.522	16633
526.591	23059
526.660	4385
526.729	2338
526.797	2956
526.867	2775
526.935	13885
527.004	37600
527.073	32443
527.142	3004
527.211	2209
527.280	1715
527.349	1674
527.418	-394
527.487	2373
527.555	33
527.624	420
527.693	-695
527.762	1510
527.831	-1104
527.899	1077
527.968	796
528.037	-1043
528.106	1449
528.174	1053
528.243	740
528.312	785
528.380	1365
528.449	27
528.518	1631
528.586	-1066
528.655	1980
528.723	79
528.792	379
528.861	-834
528.929	-734
528.998	1366
529.066	606
529.135	708
529.203	-39
529.272	-755
529.340	1207
529.409	1480
529.477	-57
529.545	-753
529.614	1869
529.682	-1167
529.751	950
529.819	2904
529.887	873
529.956	-327
530.024	1129
530.092	-285
530.161	1430
530.229	-98
530.297	256
530.365	1938
530.434	1036
530.502	-385
530.570	877
530.638	-802
530.707	1182
530.775	1961
530.843	-94
530.911	671
530.979	295
531.047	120
531.115	1270
531.183	616
531.252	1450
531.320	-199
531.388	-635
531.456	667
531.524	-1342
531.592	1236
531.660	2242
531.728	-125
531.796	-214
531.864	130
531.932	353
532.000	-199
532.067	8
532.135	490
532.203	1564
532.271	-146
532.339	2577
532.407	2391
532.475	1905
532.542	966
532.610	1574
532.678	979
532.746	3399
532.814	7441
532.881	2874
532.949	1197
533.017	1058
533.084	-99
533.152	364
533.220	343
533.287	151
533.355	1104
533.423	1387
533.490	655
533.558	537
533.625	757
533.693	710
533.761	1000
533.828	1752
533.896	33
533.963	2830
534.031	4009
534.098	3718
534.166	2142
534.233	968
534.300	2671
534.368	2532
534.435	1576
534.503	1212
534.570	1785
534.637	552
534.705	2077
534.772	723
534.840	864
534.907	6837
534.974	10718
535.041	1952
535.109	752
535.176	-156
535.243	-3
535.310	-48
535.378	-187
535.445	743
535.512	819
535.579	946
535.646	218
535.714	1732
535.781	1961
535.848	1571
535.915	2832
535.982	2634
536.049	3841
536.116	3625
536.183	1619
536.250	2159
536.317	1210
536.384	2299
536.451	2347
536.518	1677
536.585	183
536.652	2481
536.719	1649
536.786	-691
536.853	603
536.920	1793
536.987	953
537.053	-36
537.120	3791
537.187	4216
537.254	813
537.321	72
537.388	1970
537.454	-496
537.521	190
537.588	-404
537.654	2067
537.721	1489
537.788	1593
537.855	-605
537.921	998
537.988	406
538.055	1784
538.121	-265
538.188	1200
538.254	1355
538.321	1052
538.388	775
538.454	658
538.521	462
538.587	164
538.654	422
538.720	1011
538.787	1334
538.853	602
538.920	964
538.986	26
539.053	453
539.119	-39
539.185	216
539.252	1123
539.318	121
539.385	2693
539.451	-298
539.517	689
539.583	1208
539.650	520
539.716	3282
539.782	1523
539.849	-68
539.915	223
539.981	675
540.047	405
540.114	-231
540.180	1005
540.246	-83
540.312	-188
540.378	720
540.444	2328
540.510	2094
540.576	2153
540.643	743
540.709	-710
540.775	363
540.841	343
540.907	916
540.973	2800
541.039	1474
541.105	1554
541.171	276
541.237	263
541.303	1255
541.369	2695
541.435	977
541.500	519
541.566	891
541.632	70
541.698	291
541.764	1535
541.830	576
541.896	-311
541.961	1605
542.027	853
542.093	574
542.159	616
542.224	-7
542.290	1784
542.356	755
542.421	2015
542.487	2886
542.553	568
542.618	725
542.684	1119
542.750	630
542.815	1043
542.881	1037
542.947	2856
543.012	3049
543.078	713
543.143	667
543.209	1364
543.274	-49
543.340	1486
543.405	911
543.471	447
543.536	892
543.602	813
543.667	-605
543.732	1740
543.798	-524
543.863	1188
543.928	505
543.994	-97
544.059	1649
544.124	745
544.190	1155
544.255	1126
544.320	863
544.386	-34
544.451	835
544.516	566
544.581	852
544.646	2379
544.712	3947
544.777	2041
544.842	1490
544.907	1034
544.972	563
545.037	1854
545.102	2105
545.168	836
545.233	1784
545.298	1139
545.363	734
545.428	1485
545.493	2122
545.558	1506
545.623	1425
545.688	571
545.753	1725
545.818	313
545.883	1124
545.947	1267
546.012	2427
546.077	774
546.142	1716
546.207	793
546.272	2112
546.337	1219
546.401	1903
546.466	2244
546.531	1310
546.596	2523
546.661	677
546.725	2890
546.790	547
546.855	2239
546.919	-40
546.984	1554
547.049	1611
547.113	1939
547.178	668
547.243	1504
547.307	1846
547.372	2060
547.436	1975
547.501	2364
547.565	1952
547.630	1824
547.695	2147
547.759	1821
547.823	1809
547.888	2218
547.952	1954
548.017	2048
548.081	4798
548.146	4124
548.210	2801
548.274	1990
548.339	1723
548.403	2331
548.468	1519
548.532	1771
548.596	2327
548.660	1925
548.725	2462
548.789	1636
548.853	2884
548.917	2178
548.982	2361
549.046	2927
549.110	1520
549.174	1595
549.238	2044
549.303	1381
549.367	3710
549.431	2057
549.495	1757
549.559	1644
549.623	2300
549.687	2650
549.751	2678
549.815	2584
549.879	3040
549.943	1986
550.007	2515
550.071	2376
550.135	2300
550.199	1371
550.263	2412
550.327	2762
550.391	3568
550.455	4157
550.519	2721
550.582	3196
550.646	2712
550.710	2825
550.774	2432
550.838	3707
550.901	3611
550.965	3880
551.029	4214
551.093	4175
551.156	4551
551.220	7288
551.284	8923
551.347	5388
551.411	6108
551.475	7626
551.538	4687
551.602	2898
551.666	3697
551.729	1976
551.793	3608
551.856	3041
551.920	3848
551.983	4322
552.047	2716
552.110	3066
552.174	2995
552.237	2663
552.301	2485
552.364	2304
552.428	1650
552.491	1298
552.554	2314
552.618	1888
552.681	2369
552.745	1401
552.808	3343
552.871	4299
552.934	3942
552.998	3118
553.061	3714
553.124	3877
553.187	4049
553.251	5102
553.314	6353
553.377	7556
553.440	12568
553.503	49324
553.567	128186
553.630	26153
553.693	5320
553.756	4017
553.819	3798
553.882	2603
553.945	2823
554.008	2398
554.071	1818
554.134	2593
554.197	2196
554.260	2306
554.323	3160
554.386	2217
554.449	1414
554.512	2729
554.575	1820
554.638	1706
554.701	1809
554.764	2027
554.827	1891
554.889	1917
554.952	767
555.015	1271
555.078	1517
555.141	1471
555.203	988
555.266	2223
555.329	1405
555.391	606
555.454	1306
555.517	962
555.580	1377
555.642	1214
555.705	684
555.768	757
555.830	2113
555.893	985
555.955	1058
556.018	1148
556.080	1401
556.143	1101
556.206	826
556.268	726
556.330	1487
556.393	1008
556.455	573
556.518	786
556.580	1672
556.643	1316
556.705	601
556.767	136
556.830	1942
556.892	1011
556.955	1112
557.017	1732
557.079	743
557.142	970
557.204	28
557.266	1091
557.328	1222
557.391	-23
557.453	559
557.515	877
557.577	1021
557.639	681
557.701	889
557.764	604
557.826	842
557.888	1193
557.950	711
558.012	1483
558.074	1960
558.136	3576
558.198	12829
558.260	6042
558.322	747
558.384	1610
558.446	1825
558.508	3518
558.570	4261
558.632	4910
558.694	5909
558.756	8979
558.818	25073
558.880	90935
558.942	34549
559.003	14580
559.065	9689
559.127	3491
559.189	1908
559.251	3662
559.312	4012
559.374	10589
559.436	45516
559.498	30911
559.559	3217
559.621	3574
559.683	3816
559.744	4541
559.806	16660
559.868	34623
559.929	7514
559.991	3271
560.052	3548
560.114	12112
560.176	10004
560.237	6980
560.299	12779
560.360	2611
560.422	597
560.483	1022
560.545	683
560.606	647
560.667	658
560.729	613
560.790	-123
560.852	789
560.913	363
560.974	770
561.036	-440
561.097	472
561.158	415
561.220	767
561.281	-678
561.342	245
561.403	1190
561.465	528
561.526	1508
561.587	2824
561.648	-28
561.709	-207
561.771	904
561.832	213
561.893	-143
561.954	540
562.015	455
562.076	840
562.137	705
562.198	255
562.259	565
562.320	457
562.381	270
562.442	885
562.503	932
562.564	59
562.625	937
562.686	1696
562.747	530
562.808	-110
562.869	360
562.930	1538
562.991	329
563.051	205
563.112	997
563.173	-331
563.234	-737
563.294	414
563.355	483
563.416	211
563.477	308
563.537	406
563.598	668
563.659	604
563.720	614
563.780	992
563.841	-250
563.901	377
563.962	711
564.023	1132
564.083	794
564.144	205
564.204	849
564.265	474
564.325	532
564.386	2621
564.446	2044
564.507	700
564.567	167
564.628	623
564.688	885
564.749	204
564.809	1057
564.869	1253
564.930	34
564.990	416
565.050	275
565.111	360
565.171	955
565.231	501
565.292	2004
565.352	-380
565.412	1298
565.472	678
565.532	268
565.593	414
565.653	860
565.713	262
565.773	597
565.833	694
565.893	1449
565.953	771
566.013	1242
566.074	935
566.134	1805
566.194	1818
566.254	2985
566.314	1471
566.374	577
566.434	2068
566.494	1078
566.554	1176
566.614	2241
566.673	1221
566.733	1470
566.793	1696
566.853	2261
566.913	2110
566.973	3051
567.033	2734
567.092	1942
567.152	1952
567.212	2860
567.272	2552
567.331	2719
567.391	3578
567.451	4263
567.511	3892
567.570	5421
567.630	3188
567.690	3146
567.749	3457
567.809	2798
567.868	4361
567.928	5022
567.988	7099
568.047	7899
568.107	9869
568.166	14425
568.226	22424
568.285	34078
568.345	34667
568.404	29649
568.464	22631
568.523	18843
568.582	19590
568.642	20252
568.701	24382
568.761	36460
568.820	56623
568.879	64642
568.939	51769
568.998	38009
569.057	26508
569.116	19209
569.176	14771
569.235	11172
569.294	9729
569.353	7301
569.413	6471
569.472	5437
569.531	5231
569.590	3612
569.649	4468
569.708	2962
569.767	2565
569.827	3587
569.886	1649
569.945	2696
570.004	1887
570.063	1227
570.122	1553
570.181	1437
570.240	1183
570.299	1967
570.358	364
570.417	1051
570.475	1002
570.534	2613
570.593	890
570.652	465
570.711	1275
570.770	565
570.829	630
570.887	1410
570.946	567
571.005	218
571.064	371
571.122	24
571.181	907
571.240	466
571.299	296
571.357	609
571.416	1139
571.475	1019
571.533	948
571.592	-193
571.650	-445
571.709	-309
571.768	849
571.826	-298
571.885	859
571.943	-22
572.002	764
572.060	230
572.119	-691
572.177	96
572.236	342
572.294	741
572.352	-35
572.411	-528
572.469	77
572.528	-446
572.586	504
572.644	-147
572.703	-553
572.761	-442
572.819	-21
572.877	327
572.936	92
572.994	552
573.052	-640
573.110	-1218
573.169	-234
573.227	760
573.285	-204
573.343	-172
573.401	5
573.459	785
573.517	182
573.576	-245
573.634	225
573.692	151
573.750	746
573.808	-616
573.866	-80
573.924	1073
573.982	1163
574.040	-167
574.098	706
574.155	71
574.213	290
574.271	212
574.329	-431
574.387	101
574.445	78
574.503	953
574.560	-206
574.618	287
574.676	-977
574.734	-312
574.792	366
574.849	-655
574.907	-386
574.965	-422
575.022	33
575.080	622
575.138	559
575.195	194
575.253	-319
575.311	-168
575.368	177
575.426	111
575.483	-33
575.541	231
575.598	-90
575.656	-312
575.713	-514
575.771	-463
575.828	595
575.886	246
575.943	702
576.001	-87
576.058	-87
576.115	627
576.173	544
576.230	931
576.287	246
576.345	949
576.402	89
576.459	324
576.517	355
576.574	862
576.631	339
576.688	193
576.746	-359
576.803	439
576.860	-699
576.917	32
576.974	-349
577.031	534
577.089	513
577.146	507
577.203	109
577.260	421
577.317	935
577.374	642
577.431	1017
577.488	299
577.545	215
577.602	1200
577.659	680
577.716	1299
577.773	3888
577.830	1456
577.886	1379
577.943	1161
578.000	733
578.057	1309
578.114	2586
578.171	2930
578.227	4388
578.284	5944
578.341	3909
578.398	2465
578.454	1831
578.511	1029
578.568	590
578.625	530
578.681	590
578.738	-45
578.794	1
578.851	198
578.908	-139
578.964	499
579.021	262
579.077	-169
579.134	-120
579.190	-520
579.247	7
579.303	459
579.360	-67
579.416	-160
579.473	487
579.529	285
579.586	1115
579.642	468
579.698	389
579.755	1229
579.811	1457
579.867	1214
579.924	1539
579.980	1374
580.036	2933
580.093	4067
580.149	8072
580.205	12641
580.261	8044
580.317	3717
580.374	2395
580.430	3009
580.486	2558
580.542	1958
580.598	1181
580.619	968
580.654	590
580.692	586
580.710	576
580.765	870
580.767	873
580.823	544
580.838	394
580.879	-22
580.911	653
580.935	1144
580.984	12
580.991	-152
581.047	1134
581.057	1124
581.103	1105
581.130	1263
581.159	1373
581.203	1813
581.215	1930
581.270	2878
581.276	2792
581.326	1800
581.349	1939
581.382	2137
581.422	1582
581.438	1333
581.494	655
581.494	661
581.550	850
581.567	868
581.606	824
581.640	316
581.661	81
581.713	1966
581.717	2100
581.773	624
581.786	625
581.829	638
581.859	889
581.885	1080
581.932	592
581.940	521
581.996	1322
582.004	1389
582.052	1549
582.077	1133
582.107	696
582.150	852
582.163	905
582.219	523
582.223	550
582.274	738
582.296	702
582.330	633
582.368	572
582.386	627
582.441	946
582.441	943
582.497	1540
582.514	1719
582.552	2505
582.587	3316
582.608	3322
582.659	2044
582.663	1970
582.719	2176
582.732	2064
582.774	1844
582.805	1596
582.830	1410
582.877	2207
582.885	2344
582.941	1840
582.950	1943
582.996	2523
583.023	2825
583.052	3390
583.095	4211
583.107	4559
583.162	7258
583.168	7543
583.218	9192
583.240	8741
583.273	7550
583.313	6905
583.328	6712
583.384	5552
583.385	5512
583.439	4343
583.458	4310
583.494	4168
583.531	3442
583.549	3274
583.603	2491
583.605	2460
583.660	2654
583.676	2728
583.715	3165
583.748	3283
583.770	3354
583.820	3687
583.825	3709
583.881	3319
583.893	3230
583.936	2829
583.965	2688
583.991	2678
584.038	2857
584.046	2880
584.101	2751
584.110	2800
584.156	3264
584.183	3160
584.211	2867
584.255	3112
584.266	3255
584.321	3651
584.328	3634
584.376	3321
584.400	3342
584.431	3522
584.472	3846
584.486	3884
584.541	4060
584.545	4036
584.596	3739
584.617	3754
584.651	4199
584.689	4527
584.706	4520
584.761	4454
584.762	4446
584.816	4289
584.834	4217
584.871	4453
584.906	4783
584.926	4806
584.978	5093
584.980	5145
585.035	5747
585.051	5944
585.090	6130
585.123	6595
585.145	7035
585.195	7719
585.200	7956
585.254	10594
585.267	11461
585.309	15836
585.340	19325
585.364	19165
585.412	15121
585.419	14569
585.473	12095
585.484	11430
585.528	11869
585.556	13433
585.583	18215
585.628	26012
585.637	29713
585.692	55084
585.700	59572
585.747	73748
585.772	73277
585.801	52349
585.845	22869
585.856	20497
585.910	12664
585.917	11773
585.965	10553
585.989	9990
586.019	9807
586.061	9485
586.074	9521
586.128	10078
586.133	10054
586.183	10282
586.205	10452
586.237	10459
586.277	10324
586.292	10539
586.346	11372
586.349	11372
586.401	11550
586.421	11722
586.455	12182
586.493	12305
586.509	12774
586.564	14516
586.565	14528
586.618	17583
586.637	18247
586.672	17160
586.709	15804
586.727	15775
586.781	16067
586.781	16116
586.835	16466
586.853	16511
586.889	16597
586.925	16775
586.944	16972
586.996	17133
586.998	17227
587.052	18965
587.068	19315
587.106	19712
587.140	20176
587.161	20831
587.212	22395
587.215	22520
587.269	23120
587.284	23238
587.323	23846
587.356	24635
587.377	25785
587.427	27816
587.431	28028
587.485	29981
587.499	30377
587.539	31923
587.571	32912
587.593	34435
587.643	37792
587.648	38146
587.702	40486
587.715	40878
587.755	43805
587.786	46269
587.810	48491
587.858	52175
587.864	52946
587.917	59365
587.930	60741
587.971	67518
588.001	72069
588.025	76786
588.073	85333
588.079	86987
588.133	99875
588.145	102503
588.187	115692
588.217	124570
588.241	134805
588.288	154071
588.295	157746
588.348	185657
588.360	191098
588.402	220827
588.431	240827
588.456	263333
588.503	305688
588.510	314938
588.564	383751
588.575	397170
588.617	481657
588.646	539361
588.671	626787
588.718	793441
588.725	845174
588.778	1240573
588.789	1320969
588.832	1862876
588.861	2236792
588.886	2442450
588.932	2802863
588.939	2800467
588.993	2621064
589.004	2575381
589.047	2528392
589.075	2446078
589.100	2066943
589.147	1345304
589.154	1300806
589.207	945167
589.218	871032
589.261	800712
589.290	753416
589.314	794837
589.361	874614
589.368	923435
589.421	1313240
589.433	1395404
589.475	1975803
589.504	2383906
589.528	2506926
589.576	2680222
589.582	2662142
589.635	2359715
589.647	2275153
589.689	1559919
589.718	1054617
589.742	875994
589.790	527271
589.795	513244
589.849	370126
589.861	336345
589.902	281876
589.932	240221
589.955	222323
590.004	182825
590.009	181052
590.062	154850
590.075	147919
590.115	133698
590.146	121625
590.168	116974
590.218	105352
590.222	104937
590.275	94391
590.289	91166
590.328	86354
590.360	81860
590.381	79418
590.431	72644
590.435	72649
590.488	67525
590.503	65840
590.541	62576
590.574	59387
590.594	58562
590.645	55388
590.647	55508
590.700	52409
590.716	51233
590.753	50132
590.787	48709
590.806	47729
590.859	44208
590.859	44377
590.912	42575
590.930	41792
590.965	40584
591.001	38960
591.018	38587
591.071	37063
591.072	36879
591.124	35779
591.143	35225
591.177	34957
591.214	34257
591.230	34206
591.283	33614
591.285	33432
591.336	32921
591.356	32545
591.389	31845
591.427	30617
591.442	30443
591.495	29246
591.498	29019
591.547	28215
591.569	27733
591.600	28198
591.640	28395
591.653	28184
591.706	26812
591.711	26534
591.759	26529
591.782	26338
591.811	26280
591.853	25919
591.864	25914
591.917	25192
591.924	24985
591.969	24125
591.995	23382
592.022	23494
592.066	23465
592.075	23746
592.127	24766
592.137	24841
592.180	25259
592.208	25317
592.233	24460
592.279	22507
592.285	22589
592.338	22370
592.350	22216
592.390	21645
592.421	21041
592.443	21579
592.491	22429
592.495	22441
592.548	21173
592.562	20730
592.600	21142
592.633	21317
592.653	20880
592.704	19384
592.705	19510
592.775	20168
592.846	19695
592.916	19365
592.987	19607
593.058	19233
593.128	18887
593.199	18274
593.270	16912
593.341	18210
593.411	17138
593.482	18018
593.553	18199
593.623	17831
593.694	18759
593.764	18435
593.835	16947
593.906	16813
593.976	16770
594.047	17165
594.117	18068
594.188	17989
594.258	16268
594.329	17570
594.399	16538
594.470	16603
594.540	17408
594.611	17007
594.681	16853
594.751	17854
594.822	18868
594.892	19452
594.963	18905
595.033	17973
595.103	17308
595.174	17448
595.244	20240
595.314	22591
595.384	16441
595.455	16901
595.525	17090
595.595	17067
595.665	17384
595.736	17098
595.806	17184
595.876	16785
595.946	16508
596.016	17916
596.087	16907
596.157	17948
596.227	17059
596.297	18685
596.367	18364
596.437	20058
596.507	22326
596.577	23144
596.647	19365
596.717	19608
596.787	19400
596.857	20596
596.927	20102
596.997	21388
597.067	26448
597.137	36213
597.207	26372
597.277	21169
597.347	20180
597.417	18532
597.487	19413
597.557	19929
597.626	19155
597.696	20385
597.766	21566
597.836	22901
597.906	18171
597.975	18796
598.045	16246
598.115	17589
598.185	18684
598.254	21191
598.324	21353
598.394	21538
598.464	21489
598.533	20393
598.603	19455
598.672	18876
598.742	19783
598.812	19936
598.881	19292
598.951	20369
599.020	19785
599.090	20490
599.159	21284
599.229	20249
599.299	19800
599.368	20885
599.437	19889
599.507	19763
599.576	21846
599.646	30679
599.715	32027
599.785	19290
599.854	17457
599.924	18065
599.993	16875
600.062	16999
600.132	16228
600.201	18682
600.270	19993
600.340	20878
600.409	20391
600.478	21043
600.547	19652
600.617	18729
600.686	15554
600.755	15627
600.824	15185
600.894	13768
600.963	14073
601.032	13980
601.101	14372
601.170	13243
601.239	12423
601.308	13059
601.378	13243
601.447	12951
601.516	13090
601.585	12895
601.654	13720
601.723	14788
601.792	15185
601.861	22939
601.930	33404
601.999	18993
602.068	14137
602.137	14705
602.206	13724
602.275	14708
602.343	14697
602.412	14825
602.481	13575
602.550	14050
602.619	14303
602.688	15065
602.756	14460
602.825	15078
602.894	15239
602.963	14663
603.032	15470
603.100	15295
603.169	15956
603.238	15713
603.307	15803
603.375	15722
603.444	16369
603.513	15611
603.581	15897
603.650	17064
603.719	16032
603.787	16458
603.856	17587
603.924	17592
603.993	17418
604.061	18516
604.130	18939
604.198	19313
604.267	19233
604.335	19954
604.404	19521
604.472	20682
604.541	19083
604.609	19857
604.678	20698
604.746	21216
604.815	20317
604.883	22123
604.951	21599
605.020	22391
605.088	21646
605.156	21776
605.225	22228
605.293	23368
605.361	21810
605.429	23419
605.498	23167
605.566	24922
605.634	25530
605.702	26240
605.771	27136
605.839	27290
605.907	25905
605.975	26128
606.043	25854
606.111	27669
606.180	31237
606.248	50732
606.316	54135
606.384	27904
606.452	27012
606.520	26019
606.588	26190
606.656	25048
606.724	25238
606.792	24879
606.860	21481
606.928	19802
606.996	19796
607.064	19359
607.132	19298
607.200	21636
607.267	21151
607.335	21241
607.403	21756
607.471	22039
607.539	21639
607.607	21671
607.674	18836
607.742	19385
607.810	18517
607.878	19118
607.946	19157
608.013	20493
608.081	19939
608.149	20635
608.216	20932
608.284	22436
608.352	21366
608.419	20895
608.487	23690
608.555	21059
608.622	21283
608.690	22257
608.757	24393
608.825	24732
608.893	24263
608.960	23543
609.028	22187
609.095	25184
609.163	21954
609.230	21305
609.298	18697
609.365	18739
609.432	20245
609.500	22491
609.567	26012
609.635	29257
609.702	29650
609.769	29770
609.837	24646
609.904	21918
609.971	21789
610.039	28756
610.106	41423
610.173	89200
610.241	216641
610.308	123872
610.375	36821
610.442	24315
610.509	21564
610.577	23022
610.644	21948
610.711	22241
610.778	24576
610.845	25434
610.912	31025
610.980	47645
611.047	85890
611.114	46805
611.181	25620
611.248	24303
611.315	26382
611.382	26119
611.449	27132
611.516	27575
611.583	28050
611.650	27304
611.717	28120
611.784	29424
611.851	31636
611.918	38001
611.984	47611
612.051	85072
612.118	206304
612.185	536026
612.252	332621
612.319	65437
612.386	42129
612.452	36198
612.519	33051
612.586	34103
612.653	32376
612.719	32162
612.786	29496
612.853	28756
612.919	26628
612.986	29144
613.053	25902
613.120	24193
613.186	22934
613.253	25805
613.319	23743
613.386	24822
613.453	24378
613.519	25491
613.586	23780
613.652	28052
613.719	25962
613.785	27720
613.852	29074
613.918	32236
613.985	45177
614.051	88199
614.118	213315
614.184	185500
614.250	42372
614.317	29765
614.383	26893
614.449	27151
614.516	25225
614.582	26118
614.648	24357
614.715	24910
614.781	23303
614.847	24413
614.914	24022
614.980	24791
615.046	24125
615.112	25949
615.179	25476
615.245	29533
615.311	35557
615.377	52811
615.443	61622
615.509	43254
615.575	34850
615.642	31582
615.708	32026
615.774	34949
615.840	40462
615.906	53098
615.972	85489
616.038	169030
616.104	343819
616.170	758322
616.236	630386
616.302	126589
616.368	68149
616.434	47817
616.500	40587
616.565	42718
616.631	52714
616.697	44587
616.763	45093
616.829	68968
616.895	124230
616.961	126568
617.026	58240
617.092	33493
617.158	29999
617.224	25978
617.289	24881
617.355	22575
617.421	21711
617.487	22771
617.552	20370
617.618	20096
617.684	20663
617.749	21995
617.815	19218
617.880	18554
617.946	18851
618.012	19456
618.077	19396
618.143	18659
618.208	18530
618.274	21369
618.339	20140
618.405	16432
618.470	18129
618.536	17130
618.601	17226
618.667	15693
618.732	14737
618.798	14833
618.863	13924
618.928	14295
618.994	15430
619.059	15254
619.124	15017
619.190	14514
619.255	13725
619.320	14450
619.386	15235
619.451	14037
619.516	13989
619.581	14405
619.647	15065
619.712	14136
619.777	13568
619.842	14389
619.907	13279
619.972	14799
620.038	14755
620.103	13517
620.168	12588
620.233	14814
620.298	13138
620.363	14559
620.428	15236
620.493	15589
620.558	14927
620.623	14895
620.688	14654
620.753	14308
620.818	14540
620.883	15517
620.948	14740
621.013	14241
621.078	15053
621.143	14340
621.207	16734
621.272	15205
621.337	14408
621.402	15616
621.467	15871
621.532	16149
621.596	15278
621.661	14786
621.726	13816
621.791	14492
621.855	14463
621.920	14260
621.985	14285
622.049	16964
622.114	16040
622.179	15536
622.243	14786
622.308	15810
622.373	17019
622.437	15948
622.502	14467
622.566	15013
622.631	12938
622.695	16083
622.760	15433
622.824	14895
622.889	14131
622.953	14992
623.018	17349
623.082	16360
623.147	15280
623.211	15409
623.276	14922
623.340	13781
623.404	14036
623.469	15094
623.533	14725
623.597	14026
623.662	13489
623.726	13429
623.790	12140
623.854	11793
623.919	12268
623.983	13671
624.047	12129
624.111	13301
624.176	12419
624.240	13482
624.304	13927
624.368	13336
624.432	13123
624.496	14124
624.560	14339
624.625	14885
624.689	14473
624.753	14862
624.817	14034
624.881	13149
624.945	12625
625.009	11925
625.073	12384
625.137	11767
625.201	14309
625.265	13571
625.329	12704
625.393	12840
625.456	13567
625.520	13114
625.584	14105
625.648	15626
625.712	19749
625.776	32860
625.839	34390
625.903	16342
625.967	12148
626.031	18457
626.095	23278
626.158	13992
626.222	9882
626.286	11053
626.349	9230
626.413	8278
626.477	10496
626.540	9645
626.604	8175
626.668	10214
626.731	8782
626.795	8680
626.858	9461
626.922	8143
626.986	9244
627.049	7900
627.113	9466
627.176	9320
627.240	8811
627.303	9180
627.366	8357
627.430	8388
627.493	8915
627.557	8285
627.620	9896
627.684	10262
627.747	8705
627.810	7509
627.874	8134
627.937	6680
628.000	9536
628.064	8549
628.127	6172
628.190	7750
628.253	7488
628.317	7516
628.380	5943
628.443	6946
628.506	6758
628.569	7571
628.632	5822
628.696	6749
628.759	7326
628.822	6382
628.885	5602
628.948	6769
629.011	5943
629.074	5984
629.137	6013
629.200	5318
629.263	7867
629.326	4580
629.389	5178
629.452	6232
629.515	5511
629.578	5243
629.641	6758
629.704	5489
629.767	5034
629.830	6547
629.892	4881
629.955	5709
630.018	7269
630.081	4664
630.144	6466
630.207	5095
630.269	6942
630.332	6452
630.395	6134
630.458	5759
630.520	3535
630.583	6176
630.646	5706
630.708	5326
630.771	4099
630.834	6094
630.896	5048
630.959	6642
631.021	4435
631.084	5715
631.146	5838
631.209	6860
631.272	5265
631.334	5912
631.397	5575
631.459	5022
631.522	6404
631.584	6565
631.646	6773
631.709	6231
631.771	6486
631.834	7422
631.896	5936
631.958	5435
632.021	6120
632.083	4920
632.145	5916
632.208	5253
632.270	5569
632.332	4490
632.395	5226
632.457	6054
632.519	4655
632.581	6304
632.643	3553
632.706	5719
632.768	3916
632.830	5512
632.892	5189
632.954	4523
633.016	6660
633.078	4748
633.141	4472
633.203	4604
633.265	5076
633.327	5670
633.389	4775
633.451	6675
633.513	5284
633.575	6046
633.637	5464
633.698	5277
633.760	5450
633.822	5468
633.884	6740
633.946	6791
634.008	8074
634.070	12321
634.132	23847
634.193	12946
634.255	8883
634.317	6646
634.379	7909
634.441	6890
634.502	6184
634.564	6587
634.626	6027
634.687	6421
634.749	5514
634.811	5642
634.873	4357
634.934	4998
634.996	6444
635.057	4410
635.119	4307
635.181	5169
635.242	5768
635.304	3474
635.365	7385
635.427	4926
635.488	5089
635.550	4151
635.611	5571
635.673	3116
635.734	7278
635.796	5738
635.857	6863
635.918	6597
635.980	8326
636.041	6970
636.102	7656
636.164	9124
636.225	8845
636.286	4833
636.348	7103
636.409	5734
636.470	4482
636.531	5654
636.593	5049
636.654	5072
636.715	4787
636.776	4105
636.838	4114
636.899	5543
636.960	4886
637.021	4470
637.082	4244
637.143	4142
637.204	3328
637.265	3544
637.326	4205
637.387	4364
637.448	3646
637.509	4883
637.570	4460
637.631	5596
637.692	2340
637.753	3302
637.814	4154
637.875	3920
637.936	4916
637.997	4633
638.058	4844
638.119	4889
638.179	4533
638.240	3539
638.301	3132
638.362	3045
638.423	3560
638.483	5123
638.544	2107
638.605	5455
638.666	3706
638.726	4731
638.787	4533
638.848	3505
638.908	3425
638.969	2933
639.030	3238
639.090	3195
639.151	2495
639.211	3341
639.272	3915
639.332	4466
639.393	3927
639.453	3054
639.514	3951
639.574	4052
639.635	2616
639.695	3749
639.756	1598
639.816	4188
639.877	3635
639.937	4480
639.997	4358
640.058	2389
640.118	2751
640.178	4536
640.239	3393
640.299	3637
640.359	2866
640.420	3421
640.480	4167
640.540	4926
640.600	4843
640.661	5180
640.721	6915
640.781	16420
640.841	18324
640.901	6268
640.961	3407
641.021	4211
641.082	2663
641.142	3475
641.202	3465
641.262	1569
641.322	4395
641.382	2297
641.442	3672
641.502	3249
641.562	3559
641.622	2509
641.682	3535
641.742	4129
641.802	3339
641.861	3459
641.921	2677
641.981	3936
642.041	3806
642.101	3162
642.161	1477
642.221	2570
642.280	3316
642.340	3034
642.400	1986
642.460	3615
642.519	3023
642.579	3121
642.639	3481
642.698	1225
642.758	4664
642.818	3243
642.877	2529
642.937	3902
642.997	2473
643.056	3565
643.116	2095
643.175	4743
643.235	2593
643.294	3964
643.354	4302
643.414	4944
643.473	5976
643.532	8703
643.592	11833
643.651	23486
643.711	46959
643.770	99024
643.830	254980
643.889	501440
643.948	94951
644.008	16959
644.067	9552
644.126	6089
644.186	5077
644.245	5677
644.304	2707
644.363	6147
644.423	2952
644.482	3997
644.541	3745
644.600	2772
644.659	4774
644.719	6860
644.778	10977
644.837	18640
644.896	41752
644.955	93155
645.014	31645
645.073	16860
645.132	5695
645.191	5248
645.250	3988
645.309	5522
645.368	4273
645.427	6969
645.486	9057
645.545	16322
645.604	4811
645.663	4319
645.722	3572
645.781	4789
645.840	4737
645.898	7517
645.957	12508
646.016	19540
646.075	40482
646.134	84869
646.192	241163
646.251	314903
646.310	36796
646.369	11105
646.427	8429
646.486	4886
646.545	4517
646.603	5214
646.662	3916
646.721	3892
646.779	3348
646.838	2616
646.896	5205
646.955	6381
647.014	11453
647.072	21777
647.131	57609
647.189	22218
647.248	3454
647.306	4660
647.365	3492
647.423	912
647.481	3850
647.540	2070
647.598	2906
647.657	3231
647.715	2617
647.773	1699
647.832	2779
647.890	362
647.948	1961
648.007	2444
648.065	2017
648.123	4695
648.181	7634
648.240	17512
648.298	11190
648.356	3933
648.414	2435
648.472	2040
648.531	2538
648.589	2860
648.647	1679
648.705	2029
648.763	2081
648.821	2579
648.879	2093
648.937	3802
648.995	3826
649.053	4356
649.111	8767
649.169	15554
649.227	30265
649.285	66498
649.343	183362
649.401	74221
649.459	17047
649.516	20454
649.574	32928
649.632	88238
649.690	97378
649.748	30967
649.806	46196
649.863	68912
649.921	48120
649.979	23914
650.037	5282
650.094	3193
650.152	4083
650.210	2892
650.268	5074
650.325	9036
650.383	11866
650.440	2623
650.498	1936
650.556	2310
650.613	1615
650.671	2607
650.728	2536
650.786	2043
650.843	2522
650.901	1012
650.958	2173
651.016	1360
651.073	1597
651.131	1067
651.188	1098
651.246	1501
651.303	1025
651.360	1556
651.418	766
651.475	1801
651.532	294
651.590	1340
651.647	269
651.704	382
651.762	1523
651.819	2137
651.876	961
651.933	1332
651.990	2031
652.048	207
652.105	860
652.162	1995
652.219	239
652.276	1567
652.333	1452
652.390	1217
652.448	1919
652.505	3317
652.562	4755
652.619	9401
652.676	27202
652.733	22449
652.790	2219
652.847	565
652.904	2217
652.961	285
653.017	354
653.074	2181
653.131	1144
653.188	366
653.245	875
653.302	1513
653.359	929
653.415	963
653.472	1081
653.529	1924
653.586	314
653.642	961
653.699	809
653.756	758
653.813	163
653.869	1607
653.926	-408
653.983	967
654.039	1295
654.096	666
654.152	2095
654.209	407
654.266	770
654.322	377
654.379	2296
654.435	2009
654.492	1431
654.548	2076
654.605	2032
654.661	3617
654.717	1753
654.774	2356
654.830	2139
654.887	1951
654.943	2872
655.000	5631
655.056	2727
655.112	2089
655.168	63
655.225	1219
655.281	1253
655.337	1743
655.394	1749
655.450	1603
655.506	1417
655.562	2519
655.618	2388
655.675	680
655.731	475
655.787	-113
655.843	1522
655.899	235
655.955	1106
656.011	1161
656.067	514
656.123	2183
656.179	993
656.235	2550
656.291	461
656.347	2440
656.403	739
656.459	1167
656.515	607
656.571	1467
656.627	557
656.683	617
656.739	1327
656.795	1335
656.850	678
656.906	982
656.962	953
657.018	628
657.074	1131
657.129	1731
657.185	1948
657.241	4536
657.297	1440
657.352	1212
657.408	455
657.464	1907
657.519	253
657.575	154
657.630	802
657.686	-155
657.742	-22
657.797	599
657.853	65
657.908	1369
657.964	515
658.019	1039
658.075	1022
658.130	1650
658.186	-15
658.241	1531
658.297	188
658.352	447
658.407	45
658.463	290
658.518	746
658.573	811
658.629	-116
658.684	930
658.739	826
658.795	-26
658.850	784
658.905	71
658.960	865
659.016	708
659.071	1063
659.126	1928
659.181	699
659.236	2469
659.291	2182
659.346	2954
659.401	5347
659.457	12152
659.512	18407
659.567	5643
659.622	729
659.677	1025
659.732	-680
659.787	751
659.842	431
659.897	1501
659.952	-14
660.007	549
660.061	547
660.116	-200
660.171	452
660.226	789
660.281	1185
660.336	732
660.391	342
660.445	-297
660.500	1139
660.555	776
660.610	157
660.664	1177
660.719	-430
660.774	369
660.828	1480
660.883	833
660.938	616
660.992	-353
661.047	883
661.101	1014
661.156	-366
661.211	97
661.265	645
661.320	727
661.374	758
661.429	485
661.483	564
661.538	335
661.592	656
661.647	2827
661.701	5780
661.755	1737
661.810	433
661.864	651
661.919	503
661.973	637
662.027	242
662.081	354
662.136	-36
662.190	126
662.244	1077
662.299	-15
662.353	-54
662.407	631
662.461	62
662.515	544
662.569	-130
662.624	1133
662.678	82
662.732	246
662.786	-92
662.840	-80
662.894	336
662.948	-234
663.002	-71
663.056	164
663.110	53
663.164	443
663.218	490
663.272	-28
663.326	54
663.380	561
663.434	480
663.488	212
663.542	485
663.595	561
663.649	-516
663.703	443
663.757	364
663.811	-124
663.864	-531
663.918	827
663.972	-752
664.026	489
664.079	-993
664.133	995
664.187	-12
664.240	559
664.294	1412
664.348	1905
664.401	267
664.455	346
664.508	246
664.562	252
664.615	345
664.669	-361
664.722	147
664.776	-432
664.829	643
664.883	-107
664.936	-958
664.990	-343
665.043	-231
665.097	-200
665.150	995
665.203	637
665.257	-823
665.310	412
665.363	760
665.417	819
665.470	-142
665.523	660
665.576	-453
665.630	413
665.683	150
665.736	396
665.789	506
665.842	450
665.895	744
665.949	872
666.002	81
666.055	367
666.108	897
666.161	459
666.214	229
666.267	193
666.320	831
666.373	547
666.426	194
666.479	268
666.532	-288
666.585	1215
666.638	613
666.691	739
666.744	1061
666.796	-48
666.849	239
666.902	1268
666.955	-140
667.008	621
667.060	-835
667.113	-33
667.166	400
667.219	6
667.271	690
667.324	465
667.377	1627
667.430	3115
667.482	7689
667.535	4343
667.587	406
667.640	654
667.693	-602
667.745	670
667.798	192
667.850	90
667.903	1065
667.955	-130
668.008	-227
668.060	-892
668.113	-217
668.165	917
668.218	504
668.270	254
668.322	30
668.375	10
668.427	604
668.479	40
668.532	290
668.584	-374
668.636	-119
668.689	93
668.741	-418
668.793	968
668.845	352
668.898	49
668.950	473
669.002	-15
669.054	-500
669.106	-267
669.158	208
669.211	1116
669.263	2224
669.315	6473
669.367	8633
669.419	2112
669.471	1958
669.523	2155
669.575	4391
669.627	2567
669.679	1871
669.731	935
669.783	1400
669.835	1620
669.886	1681
669.938	816
669.990	416
670.042	-92
670.094	82
670.146	124
670.197	-12
670.249	1033
670.301	278
670.353	1053
670.404	2222
670.456	3080
670.508	5282
670.560	10641
670.611	18384
670.663	34351
670.715	86622
670.766	119828
670.818	24877
670.869	3381
670.921	2068
670.972	1226
671.024	207
671.075	933
671.127	-25
671.178	402
671.230	-187
671.281	605
671.333	183
671.384	-26
671.436	411
671.487	936
671.538	2326
671.590	3083
671.641	5274
671.692	9852
671.744	17013
671.795	14144
671.846	5124
671.897	2525
671.949	713
672.000	1386
672.051	25
672.102	1296
672.153	-791
672.204	-254
672.256	-52
672.307	-228
672.358	61
672.409	199
672.460	396
672.511	-388
672.562	-665
672.613	-634
672.664	217
672.715	251
672.766	-47
672.817	679
672.868	-615
672.919	-1
672.970	-1083
673.021	-229
673.071	-276
673.122	-265
673.173	-159
673.224	-1020
673.275	6
673.326	52
673.376	-355
673.427	-722
673.478	-688
673.528	208
673.579	-1057
673.630	-592
673.680	-165
673.731	-123
673.782	-1014
673.832	-277
673.883	-966
673.934	-339
673.984	-663
674.035	-497
674.085	-759
674.136	-219
674.186	-158
674.237	-129
674.287	331
674.338	59
674.388	-750
674.438	-386
674.489	-522
674.539	607
674.589	221
674.640	0
674.690	-468
674.740	-955
674.791	-648
674.841	-299
674.891	-465
674.942	-625
674.992	-520
675.042	-754
675.092	-641
675.142	-890
675.193	-1101
675.243	61
675.293	-324
675.343	-797
675.393	-907
675.443	86
675.493	-990
675.543	-1302
675.593	-492
675.643	-394
675.693	26
675.743	-197
675.793	-10
675.843	-647
675.893	-1281
675.943	-160
675.993	-1059
676.043	72
676.093	-1156
676.142	-240
676.192	-413
676.242	-51
676.292	-186
676.341	-907
676.391	-811
676.441	-1011
676.491	-649
676.540	-845
676.590	-458
676.640	-688
676.689	-655
676.739	-253
676.789	-1133
676.838	-794
676.888	-693
676.937	-920
676.987	-405
677.037	-603
677.086	-773
677.136	-240
677.185	-1395
677.235	-1654
677.284	-618
677.333	-1026
677.383	-1617
677.432	-831
677.482	-641
677.531	-678
677.580	-757
677.630	-571
677.679	-1780
677.728	-1162
677.778	-695
677.827	-772
677.876	-1580
677.925	-994
677.975	-1197
678.024	-576
678.073	-774
678.122	-813
678.171	-1242
678.220	-278
678.269	-167
678.319	-852
678.368	-581
678.417	-676
678.466	-666
678.515	26
678.564	-622
678.613	-634
678.662	-691
678.711	-369
678.760	-327
678.809	-230
678.857	-743
678.906	-279
678.955	-767
679.004	-12
679.053	940
679.102	775
679.151	-927
679.199	-577
679.248	-307
679.297	-525
679.346	-795
679.394	-751
679.443	-1004
679.492	-748
679.540	-851
679.589	108
679.638	-799
679.686	-261
679.735	-1104
679.784	-270
679.832	-662
679.881	-1382
679.929	-497
679.978	-897
680.026	-1726
680.075	-218
680.123	-778
680.172	-737
680.220	-832
680.268	-14
680.317	-707
680.365	-519
680.414	-1209
680.462	-343
680.510	-536
680.559	-420
680.607	-853
680.655	-1031
680.703	-1416
680.752	-659
680.800	-1223
680.848	-926
680.896	-1816
680.945	-907
680.993	-1532
681.041	-764
681.089	-1051
681.137	-334
681.185	-630
681.233	-610
681.258	-1131
681.281	-1630
681.329	-1277
681.377	-1375
681.380	-1344
681.425	-914
681.473	-1169
681.502	-961
681.521	-831
681.569	-968
681.617	-996
681.624	-975
681.665	-879
681.713	212
681.745	-587
681.761	-981
681.809	-1593
681.857	-863
681.867	-947
681.904	-1265
681.952	-1068
681.989	-758
682.000	-671
682.048	-1066
682.096	-1029
682.111	-841
682.143	-465
682.191	-933
682.233	-816
682.239	-806
682.286	-416
682.334	-1498
682.354	-1267
682.382	-967
682.430	-1240
682.476	-285
682.477	-271
682.525	-692
682.572	-1058
682.598	-921
682.620	-812
682.667	-1618
682.715	-507
682.720	-501
682.763	-484
682.810	-545
682.841	-559
682.857	-561
682.905	-613
682.952	-487
682.963	-346
683.000	100
683.047	-1107
683.085	84
683.095	397
683.142	-250
683.190	-600
683.206	-664
683.237	-779
683.284	-761
683.328	-311
683.332	-281
683.379	-239
683.426	-647
683.449	-724
683.473	-814
683.521	-663
683.568	-568
683.571	-581
683.615	-808
683.662	-16
683.693	-126
683.709	-205
683.757	-834
683.804	354
683.814	-43
683.851	-1438
683.898	12
683.936	-103
683.945	-130
683.992	109
684.039	-834
684.057	-575
684.086	-190
684.133	-121
684.179	-86
684.180	-89
684.227	-820
684.274	74
684.300	182
684.321	263
684.368	-843
684.415	164
684.422	152
684.462	92
684.509	-205
684.543	57
684.556	139
684.603	265
684.649	-859
684.665	-641
684.696	-160
684.743	-289
684.786	-239
684.790	-251
684.837	-68
684.883	123
684.908	20
684.930	-45
684.977	-70
685.023	127
685.029	19
685.070	-763
685.117	-471
685.150	-350
685.164	-328
685.210	443
685.257	-159
685.272	154
685.303	771
685.350	-158
685.393	-564
685.396	-595
685.443	202
685.490	215
685.514	129
685.536	67
685.583	244
685.629	51
685.636	57
685.675	38
685.722	-80
685.757	20
685.768	80
685.815	-91
685.861	791
685.878	780
685.908	674
685.954	330
686.000	220
686.000	217
686.047	661
686.093	516
686.121	609
686.139	646
686.185	271
686.232	454
686.242	430
686.278	352
686.324	444
686.363	-51
686.370	-137
686.416	702
686.463	928
686.484	997
686.509	1112
686.555	872
686.601	441
686.606	480
686.647	627
686.693	800
686.727	152
686.739	-42
686.785	342
686.831	447
686.848	775
686.877	1318
686.923	306
686.969	699
686.969	701
687.015	534
687.061	614
687.090	562
687.107	518
687.153	1005
687.199	1225
687.211	1053
687.245	673
687.291	787
687.332	1079
687.336	1094
687.382	943
687.428	867
687.453	664
687.474	546
687.520	1172
687.565	1076
687.574	1076
687.611	1258
687.657	1856
687.695	1875
687.702	1946
687.748	4067
687.794	5989
687.816	5404
687.839	4030
687.885	2952
687.931	1411
687.937	1295
687.976	1260
688.022	718
688.058	1032
688.067	1115
688.113	719
688.158	881
688.179	564
688.204	241
688.249	1798
688.295	926
688.300	920
688.340	895
688.386	992
688.421	700
688.431	651
688.477	789
688.522	937
688.542	1111
688.567	1254
688.613	1185
688.658	1263
688.663	1224
688.703	956
688.749	654
688.784	1161
688.794	1296
688.839	639
688.884	991
688.905	1043
688.930	1202
688.975	1215
689.020	1141
689.026	1205
689.065	1549
689.110	1801
689.146	1636
689.155	1614
689.201	1614
689.246	1739
689.267	1657
689.291	1457
689.336	2254
689.381	1237
689.388	1287
689.426	1720
689.471	1498
689.509	1522
689.516	1536
689.561	1506
689.606	1459
689.630	1498
689.651	1488
689.696	1761
689.741	1641
689.750	1664
689.785	1725
689.830	1282
689.871	1123
689.875	1144
689.920	1346
689.965	1901
689.992	2074
690.010	2108
690.054	2150
690.099	2226
690.112	2293
690.144	2446
690.189	2047
690.233	2212
690.233	2219
690.278	2494
690.323	2686
690.354	2779
690.367	2891
690.412	3352
690.457	3173
690.474	3339
690.501	3567
690.546	3757
690.590	4478
690.595	4433
690.635	4743
690.680	6282
690.716	6862
690.724	7180
690.769	9684
690.813	11967
690.836	13097
690.857	15895
690.902	22265
690.946	29735
690.957	31659
690.991	45012
691.035	65542
691.077	84564
691.080	84656
691.124	75550
691.168	64902
691.198	58911
691.213	53571
691.257	39250
691.301	25278
691.318	20311
691.346	18200
691.390	13720
691.434	10036
691.439	9626
691.478	8580
691.522	7201
691.559	6252
691.567	6193
691.611	5563
691.655	5215
691.680	4928
691.699	4750
691.743	4365
691.787	3656
691.800	3553
691.831	3432
691.875	3179
691.919	2856
691.921	2853
691.964	3221
692.008	2712
692.041	2656
692.052	2712
692.096	3021
692.139	3123
692.162	3161
692.183	2954
692.227	2851
692.271	2654
692.282	2594
692.315	2689
692.359	2848
692.402	2615
692.403	2621
692.447	2921
692.490	2781
692.523	2744
692.534	2764
692.578	2990
692.622	3255
692.643	3287
692.666	3273
692.709	3241
692.753	3022
692.763	3018
692.797	3140
692.840	3312
692.884	3703
692.884	3718
692.928	4061
692.971	4239
693.004	4635
693.015	4681
693.059	4857
693.102	4687
693.124	4518
693.146	4678
693.189	5471
693.233	6317
693.245	6432
693.276	6966
693.320	7983
693.363	8739
693.365	8751
693.407	10681
693.450	13303
693.485	15068
693.493	16093
693.537	21365
693.580	26824
693.605	30151
693.624	36559
693.667	51744
693.710	67858
693.725	73959
693.753	99461
693.797	141044
693.840	183505
693.845	187338
693.883	171816
693.926	150407
693.966	132809
693.970	129825
694.013	98288
694.056	67157
694.086	46412
694.099	43543
694.142	33961
694.185	24715
694.206	20320
694.229	18899
694.272	16040
694.315	13468
694.326	12771
694.358	11741
694.401	10109
694.444	8738
694.446	8638
694.487	7843
694.530	7434
694.566	6620
694.573	6552
694.616	6284
694.659	5946
694.686	5831
694.702	5710
694.745	5202
694.787	4869
694.806	4617
694.830	4609
694.873	4560
694.916	4570
694.926	4590
694.959	4584
695.002	4345
695.044	4310
695.046	4293
695.087	4183
695.130	3957
695.166	3661
695.172	3656
695.215	3915
695.258	3944
695.286	3937
695.301	3858
695.343	3628
695.386	3451
695.406	3273
695.428	3261
695.471	3554
695.514	3520
695.526	3541
695.556	3539
695.599	3514
695.641	3598
695.646	3561
695.684	3543
695.726	3829
695.766	3925
695.769	3920
695.811	3648
695.854	3444
695.886	3265
695.896	3291
695.938	3254
695.981	3419
696.005	3376
696.023	3418
696.065	3569
696.108	3761
696.125	3831
696.150	3872
696.192	3959
696.235	4072
696.245	4034
696.277	4340
696.319	4948
696.361	5506
696.365	5525
696.404	5456
696.446	5436
696.485	5480
696.488	5481
696.530	5148
696.572	5001
696.604	4716
696.614	4631
696.656	4222
696.698	3944
696.724	3779
696.740	3797
696.783	3723
696.825	3674
696.844	3572
696.867	3704
696.909	4220
696.951	4358
696.964	4467
696.992	4491
697.034	4480
697.076	4343
697.083	4310
697.118	4195
697.160	4210
697.202	3969
697.203	3953
697.244	3909
697.286	3704
697.323	3512
697.327	3514
697.369	3497
697.411	3458
697.442	3347
697.453	3356
697.494	3392
697.536	3431
697.562	3446
697.578	3586
697.620	3915
697.661	4131
697.682	4325
697.703	4306
697.744	4133
697.786	4096
697.801	3991
697.828	4154
697.869	4511
697.911	4842
697.921	4909
697.952	4622
697.994	4177
698.035	3764
698.040	3705
698.077	3857
698.118	3955
698.160	4077
698.160	4062
698.201	4137
698.243	4226
698.279	4243
698.284	4258
698.325	4305
698.367	4287
698.399	4321
698.408	4344
698.449	4336
698.491	4304
698.518	4300
698.532	4358
698.573	4462
698.614	4576
698.638	4621
698.656	4545
698.697	4335
698.738	4132
698.757	4018
698.779	4096
698.820	4218
698.862	4338
698.877	4379
698.903	4576
698.944	4845
698.985	5115
698.996	5176
699.026	4833
699.067	4338
699.116	3735
699.235	4364
699.354	4361
699.474	3873
699.593	4620
699.713	3907
699.832	3918
699.951	3422
700.070	5214
700.190	5065
700.309	4137
700.428	4817
700.547	3549
700.667	4213
700.786	5016
700.905	4215
701.024	3528
701.143	3083
701.262	3742
701.381	4439
701.500	4108
701.619	3295
701.738	4061
701.857	4559
701.976	3528
702.095	4103
702.214	3497
702.333	3261
702.452	4486
702.571	4401
702.690	4014
702.809	3574
702.928	3932
703.047	4338
703.165	4085
703.284	3715
703.403	4796
703.522	4239
703.640	4086
703.759	5070
703.878	4982
703.997	3736
704.115	4112
704.234	3894
704.353	3581
704.471	4176
704.590	3932
704.708	3767
704.827	4819
704.946	3522
705.064	3922
705.183	3491
705.301	3686
705.420	5063
705.538	4704
705.656	5369
705.775	10526
705.893	33406
706.012	30757
706.130	5251
706.249	4370
706.367	4123
706.485	4152
706.604	3613
706.722	4437
706.840	6597
706.958	13754
707.077	6257
707.195	3909
707.313	3949
707.431	3154
707.549	3031
707.668	3862
707.786	3747
707.904	3765
708.022	3976
708.140	4062
708.258	3336
708.376	4044
708.494	4311
708.612	4279
708.730	4372
708.848	4081
708.966	3835
709.084	4358
709.202	3812
709.320	3867
709.438	3224
709.556	3254
709.674	4309
709.791	3979
709.909	3740
710.027	4536
710.145	4259
710.263	3542
710.380	4052
710.498	4089
710.616	3867
710.733	2844
710.851	3506
710.969	3669
711.086	3010
711.204	3050
711.322	3409
711.439	3331
711.557	3197
711.674	4119
711.792	3620
711.909	8665
712.027	8555
712.144	3569
712.262	4609
712.379	4070
712.497	4385
712.614	4306
712.732	4233
712.849	3791
712.966	3427
713.084	4035
713.201	3828
713.318	3743
713.436	3854
713.553	4279
713.670	4825
713.787	4369
713.905	4145
714.022	4368
714.139	4002
714.256	5057
714.373	4738
714.490	9879
714.608	26061
714.725	108838
714.842	77499
714.959	6718
715.076	4047
715.193	4282
715.310	3660
715.427	4093
715.544	3836
715.661	4157
715.778	3616
715.895	3783
716.011	4364
716.128	4442
716.245	3683
716.362	4246
716.479	3399
716.596	5262
716.713	3928
716.829	3541
716.946	3533
717.063	3080
717.180	3067
717.296	3761
717.413	3243
717.530	2820
717.646	2768
717.763	3932
717.880	2965
717.996	2979
718.113	2723
718.229	3100
718.346	3406
718.462	2426
718.579	4148
718.695	2927
718.812	4299
718.928	4389
719.045	2842
719.161	2414
719.277	3259
719.394	4089
719.510	4308
719.626	3263
719.743	3189
719.859	4915
719.975	7214
720.092	28430
720.208	48002
720.324	6580
720.440	4168
720.557	3610
720.673	4466
720.789	4388
720.905	7704
721.021	3478
721.137	3097
721.253	2574
721.369	2658
721.486	3368
721.602	3242
721.718	2902
721.834	2903
721.950	3020
722.066	1777
722.181	3027
722.297	2901
722.413	3002
722.529	3472
722.645	3206
722.761	3288
722.877	4041
722.993	2979
723.108	3589
723.224	3209
723.340	3533
723.456	3801
723.571	3283
723.687	2370
723.803	3787
723.918	2931
724.034	2966
724.150	3447
724.265	3223
724.381	3610
724.497	3463
724.612	2116
724.728	2345
724.843	2584
724.959	3702
725.074	4324
725.190	4228
725.305	3553
725.421	2808
725.536	2316
725.651	2600
725.767	2681
725.882	3217
725.997	2307
726.113	2767
726.228	2434
726.343	3177
726.459	2823
726.574	2825
726.689	2251
726.804	2357
726.920	2465
727.035	2753
727.150	2100
727.265	3120
727.380	3186
727.495	3609
727.610	3356
727.725	4319
727.841	8122
727.956	23631
728.071	9833
728.186	2868
728.301	2706
728.416	3046
728.531	3088
728.645	2037
728.760	3440
728.875	3223
728.990	4023
729.105	2854
729.220	3095
729.335	3205
729.449	2879
729.564	3325
729.679	1710
729.794	2876
729.908	3266
730.023	2910
730.138	3329
730.253	2266
730.367	2138
730.482	2814
730.596	2403
730.711	3015
730.826	4630
730.940	4630
731.055	2751
731.169	2800
731.284	2857
731.398	1840
731.513	2615
731.627	2805
731.742	3583
731.856	2605
731.970	2016
732.085	2541
732.199	3286
732.313	5026
732.428	10564
732.542	26755
732.656	10794
732.771	4489
732.885	2865
732.999	2986
733.113	2514
733.227	2932
733.342	2491
733.456	3540
733.570	2279
733.684	2605
733.798	2120
733.912	3070
734.026	2178
734.140	1917
734.254	2552
734.368	3473
734.482	3778
734.596	2729
734.710	1952
734.824	2635
734.938	2000
735.052	2012
735.166	2341
735.280	3108
735.393	2525
735.507	2003
735.621	2512
735.735	3134
735.849	3500
735.962	2491
736.076	2798
736.190	2369
736.303	2633
736.417	3456
736.531	2546
736.644	1552
736.758	2293
736.872	2490
736.985	2548
737.099	2602
737.212	1514
737.326	3086
737.439	2476
737.553	3129
737.666	2677
737.780	3169
737.893	2830
738.007	2553
738.120	1917
738.233	2560
738.347	2438
738.460	2554
738.573	2705
738.687	2978
738.800	2919
738.913	2631
739.026	2768
739.140	3514
739.253	4120
739.366	2821
739.479	2455
739.592	2258
739.705	2273
739.818	3153
739.932	2599
740.045	2626
740.158	1708
740.271	2478
740.384	2884
740.497	3491
740.610	4247
740.723	2959
740.836	2636
740.949	3442
741.062	2606
741.174	3307
741.287	2948
741.400	2837
741.513	2985
741.626	3536
741.739	2486
741.851	2728
741.964	3190
742.077	2791
742.189	3571
742.302	3983
742.415	3152
742.527	2900
742.640	3106
742.753	2704
742.865	2347
742.978	2424
743.090	3458
743.203	2544
743.316	2742
743.428	2616
743.541	1786
743.653	2348
743.766	2149
743.878	2210
743.990	2395
744.103	3457
744.215	3606
744.327	2436
744.440	3007
744.552	2930
744.664	2568
744.777	1780
744.889	1854
745.001	3394
745.113	2302
745.226	2059
745.338	3274
745.450	3531
745.562	2311
745.674	2266
745.786	2631
745.898	3075
746.010	2201
746.122	2861
746.234	2088
746.347	2297
746.459	2214
746.570	2575
746.682	4063
746.794	4792
746.906	2875
747.018	3389
747.130	2349
747.242	2892
747.354	2221
747.466	2301
747.577	2071
747.689	3336
747.801	3313
747.913	1946
748.024	1559
748.136	1897
748.248	1521
748.359	2271
748.471	2936
748.583	2669
748.694	4344
748.806	5109
748.918	2046
749.029	3102
749.141	2715
749.252	2491
749.364	1691
749.475	2939
749.587	2168
749.698	2862
749.809	3689
749.921	3027
750.032	2754
750.144	3192
750.255	2581
750.366	3042
750.478	2788
750.589	2973
750.700	2704
750.811	3215
750.923	3140
751.034	2593
751.145	2730
751.256	2340
751.367	3038
751.479	2877
751.590	2509
751.701	2500
751.812	2500
751.923	2533
752.034	2180
752.145	3156
752.256	2837
752.367	2758
752.478	2727
752.589	2752
752.700	2735
752.811	3015
752.922	3305
753.032	2235
753.143	2273
753.254	2510
753.365	3430
753.476	2918
753.586	3108
753.697	3381
753.808	3416
753.919	3120
754.029	3124
754.140	3479
754.251	2826
754.361	3151
754.472	2491
754.582	3415
754.693	3287
754.804	3299
754.914	2596
755.025	2546
755.135	2664
755.246	2721
755.356	1600
755.466	3981
755.577	3453
755.687	3546
755.798	2986
755.908	3664
756.018	2797
756.129	3664
756.239	3721
756.349	4279
756.460	4078
756.570	3478
756.680	3781
756.790	4268
756.900	3583
757.011	3870
757.121	3565
757.231	4109
757.341	3306
757.451	4212
757.561	4066
757.671	5110
757.781	4081
757.891	5666
758.001	4311
758.111	4161
758.221	4042
758.331	5050
758.441	4594
758.551	4607
758.661	4978
758.771	5559
758.880	5403
758.990	5680
759.100	5257
759.210	5539
759.320	5750
759.429	5942
759.539	5856
759.649	4993
759.758	5953
759.868	6844
759.978	6438
760.087	6829
760.197	7004
760.307	6985
760.416	6772
760.526	6211
760.635	8329
760.745	7812
760.854	8170
760.964	8390
761.073	8645
761.182	8068
761.292	7979
761.401	8507
761.511	8597
761.620	8793
761.729	9703
761.839	10242
761.948	10632
762.057	10970
762.166	11610
762.276	11305
762.385	11608
762.494	13065
762.603	12629
762.712	12522
762.822	13008
762.931	14362
763.040	14167
763.149	15683
763.258	16828
763.367	18278
763.476	18590
763.585	19775
763.694	21012
763.803	22045
763.912	23708
764.021	25175
764.130	27245
764.238	29072
764.347	29590
764.456	33726
764.565	37189
764.674	40016
764.783	44827
764.891	50678
765.000	58013
765.109	65667
765.217	76676
765.326	90530
765.435	110148
765.543	137306
765.652	171431
765.761	232218
765.869	321888
765.978	473660
766.086	729923
766.195	1141666
766.303	1469164
766.412	1051050
766.520	1348025
766.629	1300495
766.737	824486
766.846	527822
766.954	356864
767.062	260335
767.171	198012
767.279	149546
767.387	120302
767.496	99445
767.604	85313
767.712	74034
767.820	64984
767.928	61517
768.037	54300
768.145	52085
768.253	51265
768.361	49696
768.469	48500
768.577	50667
768.685	54067
768.793	58130
768.901	66166
769.009	77928
769.117	96783
769.225	130108
769.333	186822
769.441	292474
769.549	501281
769.657	916129
769.765	1243070
769.873	1105144
769.981	1115326
770.088	617889
770.196	348288
770.304	225079
770.412	159495
770.519	120402
770.627	93705
770.735	76339
770.842	61686
770.950	54807
771.058	46278
771.165	42759
771.273	35816
771.380	32378
771.488	30140
771.595	27143
771.703	24379
771.810	22742
771.918	21366
772.025	20078
772.133	18089
772.240	17164
772.348	16756
772.455	15246
772.562	15481
772.670	14496
772.777	14027
772.884	12925
772.991	11965
773.099	11419
773.206	10249
773.313	10983
773.420	10586
773.528	9944
773.635	8912
773.742	9199
773.849	9530
773.956	8840
774.063	8250
774.170	8125
774.277	8268
774.384	7416
774.491	6540
774.598	8133
774.705	6809
774.812	6126
774.919	7196
775.026	7063
775.133	6872
775.239	5843
775.346	5854
775.453	5827
775.560	5821
775.667	5539
775.773	4666
775.880	5568
775.987	4816
776.093	5360
776.200	5679
776.307	3587
776.413	5260
776.520	3986
776.627	5023
776.733	4181
776.840	3458
776.946	5762
777.053	6536
777.159	8113
777.266	4424
777.372	9479
777.478	5915
777.585	4630
777.691	3860
777.798	4610
777.904	4071
778.010	6228
778.117	4714
778.223	3480
778.329	2858
778.435	3621
778.542	3520
778.648	3142
778.754	2153
778.860	3148
778.966	2587
779.072	3562
779.178	3163
779.284	3628
779.391	2722
779.497	2972
779.603	6511
779.708	8274
779.815	27825
779.920	108381
780.026	106610
780.132	10076
780.238	3962
780.344	2943
780.450	3423
780.556	2932
780.661	2221
780.767	2996
780.873	2169
780.979	3051
781.085	1741
781.190	2235
781.296	1550
781.402	1196
781.507	1916
781.613	1748
781.719	1277
781.824	2442
781.930	2298
782.035	2419
782.141	1698
782.246	1671
782.352	2343
782.457	1640
782.563	2282
782.668	1700
782.773	1530
782.879	411
782.984	1429
783.090	2196
783.195	1942
783.300	913
783.405	1080
783.511	1613
783.616	1464
783.721	1398
783.826	1130
783.932	1331
784.037	1146
784.142	1543
784.247	1449
784.352	945
784.457	701
784.562	1716
784.667	503
784.772	1733
784.877	610
784.982	1818
785.087	127
785.192	1750
785.297	118
785.402	871
785.507	376
785.611	743
785.716	571
785.821	1564
785.926	578
786.031	829
786.135	948
786.240	1084
786.345	57
786.450	1024
786.554	317
786.659	526
786.763	247
786.868	582
786.973	1059
787.077	403
787.182	731
787.286	936
787.391	753
787.495	547
787.600	1243
787.704	307
787.809	653
787.913	304
788.017	1097
788.122	1313
788.226	720
788.330	539
788.435	945
788.539	825
788.643	357
788.747	597
788.852	268
788.956	180
789.060	1452
789.164	564
789.268	22
789.372	539
789.476	-40
789.580	614
789.684	41
789.788	849
789.892	214
789.996	363
790.100	471
790.204	376
790.308	125
790.412	789
790.516	1973
790.620	595
790.724	971
790.828	-22
790.931	-145
791.035	2405
791.139	658
791.242	-24
791.346	908
791.450	-185
791.554	-243
791.657	26
791.761	899
791.864	1077
791.968	295
792.072	848
792.175	655
792.279	685
792.382	713
792.486	711
792.589	-419
792.693	667
792.796	-484
792.899	1265
793.003	137
793.106	-418
793.209	-113
793.313	1713
793.416	-775
793.519	1362
793.623	692
793.726	998
793.829	36
793.932	1023
794.035	-891
794.138	1561
794.242	430
794.345	1132
794.448	4403
794.551	11569
794.654	49808
794.757	53437
794.860	4621
794.963	873
795.066	506
795.169	1871
795.272	-137
795.375	1189
795.477	-43
795.580	753
795.683	-960
795.786	16
795.889	-1372
795.991	1154
796.094	859
796.197	-882
796.300	1340
796.402	-658
796.505	-310
796.608	-98
796.710	-449
796.813	-844
796.915	-931
797.018	469
797.120	-25
797.223	-858
797.326	1386
797.428	-687
797.530	-883
797.633	-550
797.735	369
797.838	-373
797.940	382
798.042	-654
798.145	-250
798.247	149
798.349	-994
798.452	97
798.554	123
798.656	-820
798.758	1535
798.860	-517
798.962	-94
799.065	-509
799.167	-1460
799.269	697
799.371	560
799.473	400
799.575	152
799.677	-181
799.779	748
799.881	-1627
799.983	245
800.085	589
800.187	599
800.289	-686
800.390	-1128
800.492	-128
800.594	117
800.696	-828
800.798	121
800.899	-573
801.001	-311
801.103	-529
801.205	-391
801.306	-481
801.408	-782
801.509	238
801.611	-988
801.713	-557
801.814	-976
801.916	-250
802.017	37
802.119	-890
802.220	-231
802.322	-2828
802.423	1443
802.525	-1478
802.626	-880
802.727	-88
802.829	166
802.930	-1929
803.031	484
803.133	-741
803.234	-596
803.335	177
803.436	-2077
803.538	591
803.639	-1828
803.740	872
803.841	-1024
803.942	-32
804.043	-17
804.144	-1037
804.245	-1093
804.346	-871
804.447	-946
804.548	-660
804.649	516
804.750	-1294
804.851	-753
804.952	-636
805.053	-1121
805.154	-1542
805.255	-689
805.355	-1158
805.456	-998
805.557	-924
805.658	-1733
805.758	-332
805.859	-248
805.960	-1440
806.061	-716
806.161	-833
806.262	-866
806.362	-910
806.463	-1552
806.564	-27
806.664	-972
806.765	-654
806.865	-584
806.966	-903
807.066	-170
807.166	-639
807.267	234
807.367	-1632
807.468	30
807.568	-1986
807.668	-419
807.769	-1220
807.869	-1234
807.969	49
808.069	-891
808.170	-336
808.270	-1357
808.370	-304
808.470	-1049
808.570	-1045
808.670	-1354
808.770	-22
808.870	-737
808.970	-461
809.070	-634
809.170	-1594
809.271	231
809.370	-1350
809.470	-1254
809.570	-1133
809.670	-1914
809.770	49
809.870	-802
809.970	-1123
810.070	-787
810.169	-263
810.269	-1930
810.369	-17
810.469	-661
810.568	-812
810.668	-738
810.768	-1351
810.867	-123
810.967	-1354
811.066	-283
811.166	-826
811.265	-401
811.365	-1466
811.464	-993
811.564	367
811.663	-493
811.763	-2191
811.862	-131
811.962	-724
812.061	-1046
812.160	196
812.260	-1009
812.359	-292
812.458	-1820
812.557	179
812.657	-1015
812.756	-183
812.855	-356
812.954	-1065
813.053	-166
813.153	-519
813.252	-1949
813.351	-846
813.450	-150
813.549	-644
813.648	-36
813.747	-1653
813.846	-512
813.945	-721
814.044	-817
814.143	-610
814.242	144
814.341	-690
814.439	-392
814.538	-315
814.637	-1059
814.736	-387
814.835	-526
814.933	-1072
815.032	-1036
815.131	-797
815.229	-1190
815.328	-378
815.427	-575
815.525	661
815.624	-1262
815.722	-1008
815.821	-811
815.919	-64
816.018	-961
816.116	-64
816.215	-391
816.313	-329
816.412	-188
816.510	-880
816.609	1237
816.707	358
816.805	70
816.904	-270
817.002	-136
817.100	618
817.198	1336
817.296	-2
817.395	631
817.493	3265
817.591	1505
817.689	4298
817.787	4841
817.885	10560
817.983	22459
818.081	52023
818.179	132224
818.277	287114
818.375	181686
818.473	48127
818.571	19145
818.669	12636
818.767	11609
818.865	12229
818.963	15173
819.061	23990
819.158	46819
819.256	109527
819.354	264423
819.452	469815
819.549	238046
819.647	67680
819.745	27712
819.842	15674
819.940	10979
820.038	7340
820.135	5514
820.233	5053
820.330	3179
820.428	1526
820.525	2500
820.623	1984
820.720	348
820.818	1161
820.915	1137
821.012	1227
821.110	-766
821.207	906
821.304	247
821.402	541
821.499	778
821.596	1117
821.693	224
821.791	736
821.888	132
821.985	221
822.082	-1158
822.179	451
822.276	-407
822.373	227
822.470	-426
822.567	-643
822.664	-558
822.761	958
822.858	-1625
822.955	60
823.052	-598
823.149	-958
823.246	-868
823.343	-454
823.440	253
823.536	-1608
823.633	-893
823.730	-273
823.827	-524
823.923	-151
824.020	102
824.117	-414
824.213	-987
824.310	-372
824.407	-1191
824.503	-656
824.600	-460
824.696	-769
824.793	-452
824.889	-1189
824.986	-865
825.082	-623
825.179	-483
825.275	-126
825.371	-1529
825.468	-9
825.564	-2142
825.660	-485
825.757	-612
825.853	173
825.949	-1665
826.045	-655
826.142	-1462
826.238	-985
826.334	-817
826.430	-1131
826.526	-996
826.622	-1344
826.718	-869
826.814	-1335
826.910	-515
827.006	-1292
827.102	-635
827.198	-626
827.294	-947
827.390	-1156
827.486	-633
827.582	-1965
827.678	-1215
827.774	-649
827.869	-1746
827.965	-68
828.061	-1797
828.157	-514
828.252	-722
828.348	-2211
828.444	-1137
828.539	-1444
828.635	-1072
828.731	-594
828.826	-1725
828.922	-804
829.017	-1814
829.113	-1002
829.208	-1727
829.304	-2438
829.399	-204
829.495	-1648
829.590	-460
829.685	-1569
829.781	-1542
829.876	-1375
829.971	-1106
830.066	-1104
830.162	-1345
830.257	-1777
830.352	-1413
830.447	-881
830.543	-590
830.638	-2009
830.733	-682
830.828	-1960
830.923	-508
831.018	-939
831.113	-719
831.208	-980
831.303	-1628
831.398	-887
831.493	-1537
831.588	-740
831.683	-1741
831.778	-834
831.873	-493
831.967	-2
832.062	-1254
832.157	-1469
832.252	-423
832.346	-1112
832.441	-498
832.536	-913
832.631	-488
832.725	-897
832.820	-1906
832.914	-505
833.009	-2296
833.104	-1292
833.198	-1196
833.293	-1365
833.387	-738
833.482	-1295
833.576	-1914
833.670	-91
833.765	-2465
833.859	-1794
833.954	-716
834.048	-1254
834.142	-797
834.237	-1081
834.331	-1396
834.425	-1663
834.519	-1738
834.613	-699
834.708	-1329
834.802	-774
834.896	-1358
834.990	-2068
835.084	-1838
835.178	-2063
835.272	-2136
835.366	-1244
835.460	-363
835.554	-770
835.648	-1176
835.742	-1598
835.836	-1055
835.930	-2099
836.024	-992
836.117	-706
836.211	-1488
836.305	-608
836.399	-1383
836.493	-1475
836.586	-166
836.680	-2450
836.774	-2185
836.867	-119
836.961	-2326
837.055	-1950
837.148	-1083
837.242	-1092
837.335	-2151
837.429	-1399
837.522	-2177
837.616	-1721
837.709	-1051
837.803	-1308
837.896	-1472
837.989	-1812
838.083	-877
838.176	-1738
838.269	-1844
838.363	-493
838.456	-1272
838.549	-1276
838.642	-1131
838.735	-80
838.829	-1541
838.922	-1862
839.015	-1459
839.108	-1442
839.201	-1525
839.294	-1109
839.387	-1220
839.480	-2209
839.573	-1812
839.666	-1243
839.759	-1919
839.852	-1866
839.945	-1468
840.038	-2096
840.131	-916
840.223	-1055
840.316	-409
840.409	-1571
840.502	-2593
840.594	-1379
840.687	-1815
840.780	-1163
840.873	-1518
840.965	-2044
841.058	-1390
841.150	-2004
841.243	-2722
841.336	-935
841.428	-1677
841.521	-1885
841.613	-2230
841.706	-826
841.798	-2209
841.890	-1715
841.983	-2712
842.075	-712
842.167	-2067
842.260	-598
842.352	-1488
842.444	-1358
842.537	-2215
842.629	-507
842.721	-1815
842.813	-1221
842.905	-1724
842.997	-1526
843.090	-1836
843.182	-805
843.274	-1427
843.366	-694
843.458	-60
843.550	-212
843.642	-1746
843.734	-1806
843.826	-2019
843.918	-28
844.009	-1333
844.101	-1722
844.193	-1525
844.285	-1683
844.377	-861
844.469	-788
844.560	-430
844.652	-278
844.744	-922
844.835	-715
844.927	-742
845.019	-1436
845.110	-1830
845.202	-1066
845.293	-1748
845.385	-2199
845.476	-1752
845.568	-750
845.659	-1583
845.751	-699
845.842	-2120
845.934	-1455
846.025	-1322
846.116	-1992
846.208	-2080
846.299	-2483
846.390	-650
846.482	-1644
846.573	-1814
846.664	-1744
846.755	-1621
846.846	-1618
846.937	-2011
847.029	-1673
847.120	-2248
847.211	-1039
847.302	-769
847.393	-2056
847.484	-1937
847.575	-1323
847.666	-1461
847.757	-1602
847.847	-2119
847.938	-761
848.029	-2364
848.120	-1081
848.211	-950
848.302	-1984
848.392	-1725
848.483	-1295
848.574	-2350
848.664	-2141
848.755	-904
848.846	-1461
848.936	-824
849.027	-311
849.118	-833
849.208	-939
849.299	-1449
849.389	-871
849.480	-441
849.570	285
849.661	1954
849.751	3694
849.841	-589
849.932	-1697
850.022	-2015
850.112	-1331
850.203	-1412
850.293	-1413
850.383	-941
850.474	-1654
850.564	-2055
850.654	-1305
850.744	-2014
850.834	-1156
850.924	-866
851.014	-472
851.104	-1655
851.194	-1978
851.284	-1927
851.374	-1263
851.464	-1713
851.554	-699
851.644	-1870
851.734	-800
851.824	-1335
851.914	-1148
852.004	-1090
852.094	-2071
852.183	-1324
852.273	-881
852.363	-1019
852.452	-2081
852.542	-1079
852.632	-1177
852.721	-1857
852.811	-976
852.901	-1394
852.990	-1889
853.080	-1742
853.169	-1133
853.259	-1362
853.348	-2199
853.438	-1160
853.527	-135
853.617	-1318
853.706	364
853.795	1659
853.885	6805
853.974	12615
854.063	25923
854.152	36807
854.242	9486
854.331	317
854.420	-1544
854.509	-1325
854.598	-1025
854.687	-1051
854.777	-1082
854.866	-1496
854.955	-511
855.044	-1589
855.133	-650
855.222	-2296
855.311	-1740
855.400	-1688
855.488	-1370
855.577	-726
855.666	-237
855.755	-173
855.844	258
855.933	-226
856.021	-923
856.110	-1139
856.199	-1340
856.288	-1851
856.376	-1990
856.465	-1956
856.554	-977
856.642	-1466
856.731	-1654
856.819	-1026
856.908	-2123
856.996	-984
857.085	-1961
857.173	-1120
857.262	-1362
857.350	-551
857.438	-1297
857.527	-2209
857.615	-1486
857.703	-1738
857.792	-1675
857.880	-2806
857.968	-1393
858.056	-1338
858.145	-1403
858.233	-1213
858.321	-2142
858.409	-635
858.497	-1389
858.585	-1515
858.673	-1449
858.761	-2204
858.849	-1330
858.937	-1919
859.025	-1384
859.113	-1526
859.201	-1891
859.289	-1109
859.377	-980
859.465	-1420
859.552	-1390
859.640	-2208
859.728	-1795
859.816	-1073
859.903	-1154
859.991	-1750
860.079	-944
860.166	-2037
860.254	-1899
860.342	-1927
860.429	-1813
860.517	-1944
860.604	-1015
860.692	-1666
860.779	-1856
860.867	-1427
860.954	-1943
861.042	-1865
861.129	-955
861.216	-2178
861.304	-1887
861.391	-1800
861.478	-1718
861.565	-1315
861.653	-1392
861.740	-3050
861.827	-2015
861.914	-1196
862.001	-2036
862.089	-1346
862.176	-882
862.263	-1840
862.350	-1917
862.437	-2018
862.524	-1261
862.611	-1866
862.698	-1447
862.785	-953
862.871	-674
862.958	-1542
863.045	-1345
863.132	-2338
863.219	-1703
863.306	-2472
863.392	-1691
863.479	-1267
863.566	-971
863.652	-1373
863.739	-1749
863.826	-1237
863.912	-1357
863.999	-1748
864.086	-987
864.172	-2291
864.259	-2354
864.345	-2121
864.432	-1374
864.518	-1820
864.604	-1464
864.691	-2299
864.777	-1155
864.863	-890
864.950	-609
865.036	-1569
865.122	-650
865.209	-1042
865.295	-384
865.381	-1197
865.467	-1116
865.553	-1343
865.639	-987
865.726	-1135
865.812	1653
865.898	3718
865.984	7235
866.070	15809
866.156	15515
866.242	1393
866.328	-852
866.414	-1609
866.499	-1034
866.585	-1748
866.671	-1594
866.757	-1197
866.843	-1403
866.928	-1485
867.014	-1751
867.100	-1220
867.186	-1764
867.271	-2076
867.357	-1957
867.442	-1760
867.528	-1531
867.614	-1652
867.699	-865
867.785	-776
867.870	-355
867.956	-925
868.041	-256
868.127	-1063
868.212	-670
868.297	-1253
868.383	-1544
868.468	-1591
868.553	-1292
868.639	-1522
868.724	-1526
868.809	-1482
868.894	-867
868.979	-1628
869.065	-302
869.150	-1912
869.235	-2260
869.320	-1699
869.405	-1464
869.490	-2092
869.575	-1876
869.660	-1368
869.745	-1254
869.830	-2209
869.915	-1035
870.000	-1575
870.085	-1708
870.169	-2168
870.254	-1248
870.339	-1360
870.424	-1724
870.509	-1777
870.593	-1522
870.678	-2603
870.763	-1012
870.847	-647
870.932	-2069
871.016	-1290
871.101	-1563
871.186	-1064
871.270	-1429
871.355	-2011
871.439	-1718
871.523	-1661
871.608	-1357
871.692	-1462
871.777	-1004
871.861	-1384
871.945	-2050
872.030	-1584
872.114	-1188
872.198	-1729
872.282	-1045
872.367	-1660
872.451	-2271
872.535	-1432
872.619	-1442
872.703	-1566
872.787	-1767
872.871	-2105
872.955	-1483
873.039	-1460
873.123	-1416
873.207	-1221
873.291	-1579
873.375	-2361
873.459	-1207
873.543	-2433
873.627	-1354
873.711	-1768
873.794	-2025
873.878	-1843
873.962	-2081
874.045	-2292
874.129	-2094
874.137	-2006
874.213	-1129
874.245	-1153
874.296	-1192
874.352	-1514
874.380	-1673
874.460	-1496
874.464	-1490
874.547	-1464
874.568	-1491
874.631	-1584
874.676	-1468
874.714	-1375
874.784	-1311
874.798	-1300
874.881	-797
874.892	-802
874.965	-807
874.999	-1147
875.048	-1610
875.107	-1335
875.131	-1226
875.215	-1080
875.215	-1080
875.298	-1176
875.323	-1305
875.381	-1566
875.430	-1883
875.465	-2133
875.538	-1871
875.548	-1827
875.631	-1611
875.646	-1525
875.714	-1204
875.753	-1325
875.798	-1395
875.861	-1876
875.881	-2043
875.964	-1067
875.968	-1081
876.047	-1302
876.076	-1349
876.130	-1483
876.183	-1297
876.213	-1160
876.291	-973
876.296	-966
876.379	-1007
876.398	-1110
876.462	-1360
876.506	-1169
876.545	-1095
876.613	-977
876.628	-910
876.711	-1796
876.721	-1674
876.794	-816
876.828	-994
876.877	-1302
876.935	-1664
876.960	-1757
877.043	-1299
877.043	-1296
877.125	-640
877.150	-711
877.208	-826
877.258	-1091
877.291	-1228
877.365	-1156
877.374	-1176
877.456	-1132
877.472	-1188
877.539	-1078
877.579	-792
877.622	-669
877.687	-1319
877.704	-1478
877.787	-2043
877.794	-2007
877.869	-1555
877.901	-1412
877.952	-1148
878.008	-813
878.034	-732
878.115	-1436
878.117	-1442
878.199	-1473
878.222	-1205
878.282	-730
878.329	-701
878.364	-681
878.437	-213
878.447	-133
878.529	-1859
878.544	-1707
878.611	-1029
878.651	-1161
878.694	-1297
878.758	-1197
878.776	-1171
878.858	-941
878.865	-932
878.941	-861
878.972	-925
879.023	-953
879.078	-1235
879.105	-1343
879.185	-1395
879.187	-1399
879.269	-1139
879.292	-1271
879.351	-1436
879.399	-857
879.433	-468
879.506	-591
879.516	-594
879.598	-1061
879.613	-1028
879.680	-1055
879.720	-1040
879.762	-933
879.827	-980
879.844	-971
879.926	-938
879.933	-904
880.007	-1244
880.040	-1537
880.089	-1291
880.147	-1549
880.171	-1824
880.253	-1470
880.254	-1471
880.335	-1137
880.360	-911
880.417	-360
880.467	-789
880.499	-928
880.574	-119
880.580	-93
880.662	-968
880.680	-1016
880.744	-923
880.787	-1072
880.825	-1264
880.893	-1452
880.907	-1515
880.989	-1237
881.000	-1280
881.070	-1168
881.106	-975
881.152	-810
881.213	-1064
881.233	-1189
881.315	-1445
881.319	-1433
881.396	-704
881.426	-688
881.478	-1176
881.532	-1213
881.559	-1002
881.639	-1437
881.641	-1454
881.722	-1041
881.745	-1134
881.803	-952
881.852	-740
881.885	-796
881.958	-816
881.966	-803
882.047	-1231
882.064	-1205
882.129	-1113
882.171	-1097
882.210	-972
882.277	-799
882.291	-879
882.372	-1369
882.383	-1425
882.454	-942
882.489	-697
882.535	-707
882.596	-887
882.616	-937
882.697	-1446
882.702	-1414
882.778	-208
882.808	-68
882.859	-466
882.914	-784
882.940	-756
883.020	-812
883.021	-810
883.102	-609
883.127	-581
883.183	-538
883.233	-755
883.264	-763
883.339	-665
883.345	-652
883.426	-586
883.445	-538
883.507	-799
883.551	-1138
883.587	-1203
883.657	-853
883.668	-771
883.749	-218
883.763	-214
883.830	-382
883.869	-406
883.910	-538
883.975	-553
883.991	-543
884.072	-778
884.081	-790
884.152	-285
884.187	-140
884.233	-197
884.292	-253
884.314	-249
884.394	-76
884.398	-86
884.475	-823
884.504	-973
884.555	-601
884.610	-335
884.636	-409
884.716	-1066
884.716	-1065
884.797	-875
884.821	-936
884.877	-972
884.927	-1057
884.958	-878
885.033	-330
885.038	-343
885.118	-626
885.139	-735
885.199	-749
885.244	-649
885.279	-519
885.350	-279
885.359	-249
885.439	-87
885.456	-152
885.520	-770
885.561	-813
885.600	-496
885.667	-397
885.680	-474
885.760	-671
885.773	-702
885.840	-373
885.878	-226
885.920	-299
885.984	-431
886.000	-473
886.080	-720
886.089	-770
886.160	-733
886.195	-505
886.240	-464
886.300	-732
886.320	-679
886.400	-513
886.406	-490
886.480	-555
886.511	-612
886.560	-728
886.616	-944
886.640	-813
886.720	-386
886.722	-379
886.800	-266
886.827	-201
886.879	18
886.932	82
886.959	-4
887.038	-198
887.039	-197
887.119	-508
887.143	-582
887.198	-375
887.248	-119
887.278	-94
887.354	-280
887.358	-290
887.437	-542
887.459	-546
887.517	-65
887.564	195
887.596	-17
887.669	-572
887.676	-598
887.755	-828
887.774	-899
887.835	-815
887.880	-690
887.914	-509
887.985	-222
887.994	-199
888.073	-216
888.090	-165
888.153	-127
888.195	-156
888.232	-227
888.300	-370
888.311	-304
888.391	51
888.405	139
888.470	-87
888.510	-296
888.549	-350
888.615	-450
888.628	-501
888.708	-786
888.720	-821
888.787	-527
888.825	-417
888.866	-414
888.930	-396
888.945	-319
889.024	97
889.035	147
889.103	-258
889.140	-485
889.182	-408
889.245	-277
889.261	-205
889.340	89
889.349	123
889.419	-210
889.454	-396
889.498	-464
889.559	-549
889.577	-449
889.656	-11
889.664	32
889.735	-160
889.768	-256
889.814	-81
889.873	157
889.978	-579
890.083	300
890.187	-196
890.292	-298
890.397	-317
890.501	-417
890.606	-295
890.710	220
890.815	-494
890.919	-2
891.024	-369
891.128	1365
891.233	437
891.337	-646
891.442	-540
891.546	-320
891.650	-723
891.755	125
891.859	89
891.963	-267
892.068	578
892.172	-108
892.276	-157
892.380	406
892.484	-138
892.589	-174
892.693	-390
892.797	-976
892.901	-356
893.005	-516
893.109	-936
893.213	208
893.317	-346
893.421	-46
893.525	-1072
893.629	-208
893.733	-620
893.837	-1194
893.941	-856
894.045	370
894.148	-698
894.252	-433
894.356	-132
894.460	64
894.564	241
894.667	-343
894.771	-927
894.875	-450
894.978	-555
895.082	-507
895.186	-153
895.289	-339
895.393	-571
895.496	141
895.600	-1361
895.703	-267
895.807	-201
895.910	-1449
896.014	-1223
896.117	-207
896.221	101
896.324	603
896.427	-1589
896.531	-660
896.634	57
896.737	-515
896.840	-965
896.944	-80
897.047	-536
897.150	-160
897.253	-797
897.356	119
897.460	-1588
897.563	-251
897.666	-151
897.769	-125
897.872	-35
897.975	-817
898.078	-505
898.181	-353
898.284	-965
898.387	35
898.490	-593
898.593	-483
898.695	-391
898.798	256
898.901	-801
899.004	149
899.107	-122
899.209	-446
899.312	-718
899.415	86
899.518	-944
899.620	-316
899.723	-917
899.826	-111
899.928	-301
900.031	-448
900.133	-1201
900.236	-965
900.338	-1033
900.441	-473
900.543	-1379
900.646	-95
900.748	-973
900.851	-765
900.953	-975
901.055	-1116
901.158	-757
901.260	-219
901.362	-393
901.465	-298
901.567	-660
901.669	-79
901.771	-465
901.873	127
901.976	-1760
902.078	-972
902.180	-976
902.282	-1046
902.384	-745
902.486	-467
902.588	-864
902.690	-485
902.792	-353
902.894	-281
902.996	-1473
903.098	-351
903.200	-1123
903.302	-204
903.404	-191
903.505	-1461
903.607	-680
903.709	-994
903.811	-732
903.913	-1155
904.014	-774
904.116	-980
904.218	-824
904.319	18
904.421	52
904.523	151
904.624	-160
904.726	-416
904.827	-339
904.929	-49
905.030	-1269
905.132	-338
905.233	-845
905.335	-635
905.436	-259
905.537	-416
905.639	-739
905.740	-251
905.841	-895
905.943	-10
906.044	-762
906.145	124
906.247	-733
906.348	-453
906.449	-1106
906.550	-1059
906.651	7
906.752	-170
906.854	-837
906.955	-919
907.056	-543
907.157	-578
907.258	-912
907.359	-844
907.460	-159
907.561	-701
907.662	198
907.762	-894
907.863	-275
907.964	-455
908.065	-712
908.166	-122
908.267	-792
908.367	-624
908.468	-1252
908.569	-386
908.670	-1201
908.770	455
908.871	-673
908.971	-937
909.072	-705
909.173	-395
909.273	-1792
909.374	-784
909.474	-942
909.575	-108
909.675	-132
909.776	-36
909.876	-1041
909.977	-694
910.077	-341
910.177	-1242
910.278	-611
910.378	-466
910.478	-1440
910.579	-949
910.679	-887
910.779	17
910.879	-394
910.980	356
911.080	-1260
911.180	7
911.280	-327
911.380	-87
911.480	-304
911.580	-328
911.680	-784
911.780	-517
911.880	-707
911.980	-1147
912.080	-1216
912.180	-571
912.280	-614
912.380	-350
912.480	-1322
912.580	164
912.679	-123
912.779	-53
912.879	-716
912.979	12
913.078	-2022
913.178	-304
913.278	-978
913.377	446
913.477	-90
913.577	-882
913.676	-1212
913.776	-20
913.875	-288
913.975	-654
914.074	-630
914.174	-578
914.273	-930
914.373	-711
914.472	-358
914.572	-649
914.671	-1312
914.770	-819
914.870	-768
914.969	-478
915.068	-687
915.167	-214
915.267	-570
915.366	-371
915.465	-1439
915.564	-337
915.663	-943
915.763	-913
915.862	-1279
915.961	-543
916.060	-987
916.159	-771
916.258	-535
916.357	-1121
916.456	-1067
916.555	-1250
916.654	-687
916.752	-252
916.851	-806
916.950	8
917.049	-1322
917.148	-151
917.247	-565
917.345	-875
917.444	9
917.543	295
917.642	-450
917.740	-352
917.839	-209
917.937	-93
918.036	-13
918.135	-1013
918.233	-737
918.332	-331
918.430	-1047
918.529	-1167
918.627	-123
918.726	-838
918.824	-903
918.923	-956
919.021	-1591
919.119	-472
919.218	-985
919.316	-748
919.414	-1352
919.512	-638
919.611	-1145
919.709	-971
919.807	-976
919.905	-404
920.003	-287
920.102	-646
920.200	-1038
920.298	-483
920.396	-1215
920.494	-527
920.592	-783
920.690	-111
920.788	-839
920.886	-994
920.984	-621
921.082	-252
921.180	-656
921.277	-740
921.375	-1322
921.473	-336
921.571	-1159
921.669	-664
921.766	-1266
921.864	-516
921.962	-1383
922.060	-696
922.157	-913
922.255	-955
922.352	-557
922.450	-287
922.548	-366
922.645	-1170
922.743	-859
922.840	-741
922.938	-971
923.035	-824
923.133	-129
923.230	110
923.327	-1857
923.425	-784
923.522	-841
923.619	-199
923.717	-958
923.814	-393
923.911	-2189
924.008	-328
924.106	-744
924.203	-791
924.300	-1038
924.397	-737
924.494	-416
924.591	1
924.688	-1594
924.786	-1020
924.883	-495
924.979	-948
925.077	6
925.173	-624
925.270	-777
925.367	-958
925.464	-656
925.561	-198
925.658	-998
925.755	-65
925.852	-1045
925.948	-845
926.045	-597
926.142	-617
926.239	152
926.335	247
926.432	-481
926.529	-12
926.625	-176
926.722	-4
926.818	-350
926.915	-159
927.011	-1873
927.108	-161
927.204	-955
927.301	-436
927.397	-1316
927.494	-1863
927.590	-877
927.687	-558
927.783	-405
927.879	-730
927.976	-686
928.072	-626
928.168	-425
928.264	-659
928.361	-1982
928.457	-1199
928.553	-897
928.649	-1333
928.745	-1388
928.841	-872
928.937	-787
929.033	-600
929.129	-1044
929.225	-818
929.321	-867
929.417	-1386
929.513	-1374
929.609	-701
929.705	-578
929.801	-1043
929.897	-1697
929.993	-1370
930.089	-1955
930.184	-1152
930.280	-1078
930.376	-384
930.471	-1653
930.567	-647
930.663	-1035
930.758	-1094
930.854	-816
930.950	-384
931.045	-683
931.141	-1215
931.236	-1655
931.332	-596
931.427	-1224
931.523	-981
931.618	-725
931.714	-1131
931.809	-1527
931.905	-738
932.000	-1011
932.095	-855
932.191	-1101
932.286	-2306
932.381	-549
932.476	-1050
932.572	-654
932.667	-760
932.762	-1158
932.857	-674
932.952	-840
933.047	-1252
933.142	-1150
933.237	-774
933.332	-1550
933.427	-558
933.522	-1650
933.617	-371
933.712	-1154
933.807	-1522
933.902	-1487
933.997	-870
934.092	-961
934.187	-1179
934.282	-786
934.376	-718
934.471	-879
934.566	-1376
934.661	-789
934.755	-1478
934.850	-677
934.945	-1117
935.039	-717
935.134	-1355
935.228	-1037
935.323	-1231
935.417	-779
935.512	-785
935.606	-1001
935.701	-386
935.795	-1089
935.890	-667
935.984	-1461
936.079	-1725
936.173	-990
936.267	-1035
936.362	-977
936.456	-654
936.550	-403
936.644	-519
936.738	-622
936.833	-1092
936.927	-704
937.021	-1751
937.115	-956
937.209	-2141
937.303	-365
937.397	-617
937.491	-793
937.585	-1083
937.679	-1129
937.773	-1194
937.867	-1725
937.961	-781
938.055	-1382
938.149	-869
938.243	-1316
938.337	-917
938.430	-1199
938.524	-687
938.618	911
938.712	1005
938.805	-827
938.899	-918
938.993	-1038
939.086	-666
939.180	31
939.274	1028
939.367	-857
939.461	-442
939.554	-1375
939.648	-937
939.741	-379
939.835	-64
939.928	-215
940.022	-345
940.115	-1681
940.208	15
940.302	-792
940.395	-1326
940.488	-1715
940.582	348
940.675	-1399
940.768	-1015
940.861	-525
940.954	-284
941.048	-992
941.141	-438
941.234	-1842
941.327	-231
941.420	-606
941.513	-398
941.606	-1294
941.699	163
941.792	-1270
941.885	-868
941.978	-963
942.071	-481
942.164	-1758
942.257	-817
942.349	-608
942.442	-898
942.535	-1407
942.628	-1057
942.721	-856
942.813	-1679
942.906	-934
942.999	-392
943.091	-2218
943.184	-1054
943.277	-517
943.369	-62
943.462	-1493
943.554	-647
943.647	-1396
943.739	-1146
943.832	-1117
943.924	-959
944.017	-929
944.109	-1634
944.201	-781
944.294	-589
944.386	-1462
944.478	-1037
944.571	-1019
944.663	-1242
944.755	-667
944.847	-335
944.940	-744
945.032	-1739
945.124	-1018
945.216	-245
945.308	-1080
945.400	-621
945.492	-1304
945.584	-1179
945.676	-1129
945.768	-800
945.860	39
945.952	-1456
946.044	-1090
946.136	-588
946.228	-981
946.320	-763
946.412	-1125
946.503	-963
946.595	165
946.687	-695
946.779	-1067
946.870	-591
946.962	-2009
947.054	-1043
947.145	-848
947.237	-1036
947.329	-750
947.420	-934
947.512	-1006
947.603	-912
947.695	-1137
947.786	-1263
947.878	-815
947.969	-600
948.061	-1809
948.152	-1216
948.243	-1656
948.335	-778
948.426	-1438
948.517	-1381
948.609	-807
948.700	-1121
948.791	-1775
948.882	-907
948.973	-1507
949.065	-911
949.156	-1234
949.247	-1018
949.338	-842
949.429	-1193
949.520	-1359
949.611	-1563
949.702	-976
949.793	-1052
949.884	-1238
949.975	-1300
950.066	-1385
950.157	-1428
950.247	-1015
950.338	-1108
950.429	-1051
950.520	-468
950.611	-1692
950.701	-1128
950.792	-1687
950.883	-775
950.973	-777
951.064	-667
951.155	-1334
951.245	-826
951.336	-1292
951.427	-1014
951.517	-746
951.608	-468
951.698	-1786
951.788	-1168
951.879	-1062
951.969	-1095
952.060	-1036
952.150	-1163
952.240	-52
952.331	-1938
952.421	322
952.511	-1846
952.602	-941
952.692	-1140
952.782	-1444
952.872	-642
952.962	-726
953.052	-947
953.143	-1410
953.233	-992
953.323	-882
953.413	-1267
953.503	-989
953.593	-1103
953.683	-1149
953.773	-1671
953.863	-763
953.953	-900
954.042	-811
954.132	-1440
954.222	20
954.312	-1225
954.402	-580
954.492	-1091
954.581	-1290
954.671	-1443
954.761	-1731
954.850	42
954.940	-439
955.030	-366
955.119	-1083
955.209	-567
955.298	-1744
955.388	-652
955.477	-798
955.567	-1326
955.656	-555
955.746	-691
955.835	-1361
955.925	-1578
956.014	-1661
956.103	-1456
956.193	-1077
956.282	-1247
956.371	-897
956.461	-1012
956.550	-1662
956.639	-1336
956.728	-1455
956.817	-931
956.906	-1947
956.995	-618
957.085	-912
957.174	-809
957.263	-883
957.352	-892
957.441	-688
957.530	-1507
957.619	-962
957.708	-1218
957.796	-1320
957.885	-458
957.974	-1405
958.063	-584
958.152	-1990
958.241	-1117
958.329	-1576
958.418	-630
958.507	-2354
958.596	86
958.684	-1270
958.773	-1238
958.861	-1410
958.950	-1102
959.039	-892
959.127	-1617
959.216	-288
959.304	-831
959.393	-458
959.481	-371
959.570	-749
959.658	-1215
959.746	-2128
959.835	-1131
959.923	-1630
960.011	-1469
960.100	-605
960.188	-1531
960.276	-1907
960.365	-945
960.453	-1472
960.541	-2091
960.629	-1489
960.717	-1165
960.805	-1829
960.893	-643
960.981	-1983
961.069	-414
961.158	-1845
961.245	-846
961.333	-1706
961.421	-1546
961.509	-1207
961.597	-1400
961.685	-1160
961.773	-643
961.861	-1688
961.949	-280
962.036	-1405
962.124	-1162
962.212	-1847
962.299	-1119
962.387	-1458
962.475	-1609
962.562	-2063
962.650	-254
962.738	-671
962.825	-1147
962.913	-1155
963.000	-974
963.088	-1107
963.175	-1446
963.263	-1131
963.350	-1358
963.438	-1668
963.525	-1387
963.612	-965
963.700	-1671
963.787	-707
963.874	-823
963.962	-1499
964.049	-757
964.136	-1174
964.223	-1447
964.310	-1967
964.398	-871
964.485	-1493
964.572	-923
964.659	-1483
964.746	-1721
964.833	-1562
964.920	-1846
965.007	-1133
965.094	-562
965.181	-1202
965.268	-1400
965.355	-1419
965.441	-1297
965.528	-1846
965.615	-422
965.702	-1639
965.789	-1933
965.875	-1367
965.962	-1987
966.049	-2270
966.136	-867
966.222	-1843
966.309	-314
966.395	-2299
966.482	-549
966.569	-1489
966.655	-693
966.742	-1616
966.828	-1418
966.915	-2265
967.001	-1721
967.087	-2343
967.174	-1706
967.260	-1022
967.347	-384
967.433	-1283
967.519	-690
967.605	-2393
967.692	-1434
967.778	-1076
967.864	-957
967.950	-1378
968.036	-1907
968.123	-1833
968.209	-1447
968.295	-1913
968.381	-215
968.467	-494
968.553	-2171
968.639	-948
968.725	-1630
968.811	-1851
968.897	-1242
968.983	-1182
969.069	-2172
969.154	-766
969.240	-1274
969.326	-2160
969.412	-2041
969.497	-1390
969.583	-1686
969.669	-1611
969.755	-523
969.840	-2159
969.926	-1096
970.012	-2043
970.097	-960
970.183	-1865
970.268	-1367
970.354	-1076
970.439	-2399
970.525	-1304
970.610	-2539
970.696	-1141
970.781	-973
970.866	-2169
970.952	-942
971.037	-2537
971.122	-1499
971.208	-1119
971.293	-1340
971.378	-2465
971.463	-1195
971.549	-1503
971.634	-1914
971.719	-1452
971.804	-2070
971.889	-1037
971.974	-1686
972.059	-1174
972.144	-1043
972.229	-1311
972.314	-1885
972.399	-1604
972.484	-1650
972.569	-1727
972.654	-2008
972.739	-673
972.824	-2440
972.908	-1175
972.993	-2441
973.078	-2200
973.163	-1782
973.247	-1311
973.332	-2669
973.417	216
973.501	-1822
973.586	-1844
973.671	-1892
973.755	-1732
973.840	-393
973.924	-1215
974.009	-1913
974.093	-2784
974.178	32
974.262	-1778
974.346	-1976
974.431	-1325
974.515	-709
974.600	-2144
974.684	-652
974.768	-2010
974.852	-491
974.937	-1633
975.021	-1064
975.105	-1435
975.189	-922
975.273	-1769
975.358	-2142
975.442	-2826
975.526	-495
975.610	-1527
975.694	-1150
975.778	-846
975.862	-1822
975.946	-3210
976.030	-412
976.114	-1694
976.198	-1199
976.281	-2082
976.365	-312
976.449	-1481
976.533	-972
976.617	-1576
976.700	-2176
976.784	-1972
976.868	-979
976.951	-881
977.035	-1930
977.119	-1772
977.202	-1250
977.286	-1579
977.369	-1873
977.453	-1792
977.536	-1921
977.620	-1996
977.703	-1174
977.787	-2175
977.870	-1175
977.953	-697
978.037	-2064
978.120	7
978.203	-2467
978.287	-1427
978.370	-1659
978.453	-2683
978.536	-1638
978.620	-1171
978.703	-1264
978.786	-2768
978.869	-1331
978.952	-2160
979.035	-534
979.118	-1696
979.201	-1900
979.284	-971
979.367	-1809
979.450	-2098
979.533	-1535
979.616	-1531
979.699	-1482
979.782	-1364
979.865	-470
979.948	-1661
980.030	-1551
980.113	-1672
980.196	-2429
980.279	-801
980.361	-1146
980.444	-2217
980.526	-1108
980.609	-1841
980.692	-1983
980.774	-1563
980.857	-3079
980.939	-606
981.022	-1245
981.104	-1278
981.187	-1776
981.269	-1151
981.352	-979
981.434	-2207
981.516	-1883
981.599	-1278
981.681	-1450
981.763	-1590
981.846	-1456
981.928	-1841
982.010	-2149
982.092	-1961
982.174	-499
982.256	-1763
982.339	-1370
982.421	-1890
982.503	-1079
982.585	-2486
982.667	-1673
982.749	-2258
982.831	-1359
982.913	-2308
982.995	-807
983.077	-2397
983.158	-840
983.240	-2578
983.322	-1799
983.404	-1636
983.486	-2040
983.568	-1850
983.649	-1351
983.731	-1978
983.813	-1238
983.894	-968
983.976	-1365
984.058	-1805
984.139	-446
984.221	-1896
984.302	-1429
984.384	-1355
984.465	-2028
984.547	-1132
984.628	-2770
984.710	-1064
984.791	-1558
984.872	-1391
984.954	-1299
985.035	-1612
985.116	-1707
985.198	-2269
985.279	-893
985.360	-2258
985.441	-1656
985.522	-1985
985.604	-2383
985.685	-3938
985.766	-250
985.847	-888
985.928	-2129
986.009	-1522
986.090	-619
986.171	-788
986.252	-2113
986.333	-1294
986.414	-2150
986.495	-1365
986.576	-2035
986.656	-2258
986.737	-946
986.818	-2375
986.899	-1873
986.980	-1555
987.060	-1018
987.141	-1814
987.222	-1972
987.302	-1625
987.383	-508
987.464	-2175
987.544	-1240
987.625	-1380
987.705	-1332
987.786	-1633
987.866	-1512
987.947	-2398
988.027	-1884
988.108	-2480
988.188	-2145
988.268	-1937
988.349	-1626
988.429	-1855
988.509	-968
988.589	-1957
988.670	-3240
988.750	-906
988.830	-1680
988.910	-1834
988.990	-1572
989.070	-1724
989.151	-1671
989.231	-2930
989.311	-396
989.391	-1545
989.471	-1522
989.551	-2006
989.631	-1581
989.711	-1125
989.791	-2102
989.870	-2573
989.950	-562
990.030	-1902
990.110	-1743
990.190	-1965
990.269	-2136
990.349	-2132
990.429	-2212
990.509	-879
990.588	-1968
990.668	-977
990.747	-1723
990.827	-1383
990.907	-1790
990.986	-2587
991.066	-1053
991.145	-2067
991.225	-1199
991.304	-1289
991.383	-1101
991.463	-2472
991.542	-1233
991.622	-2221
991.701	-1748
991.780	-1767
991.859	-1999
991.939	-1870
992.018	-1381
992.097	-1790
992.176	-1150
992.256	-1988
992.335	-1977
992.414	-1492
992.493	-1511
992.572	-1054
992.651	-516
992.730	-2073
992.809	-2049
992.888	-2372
992.967	-2175
993.046	-989
993.125	-2407
993.203	-1990
993.282	-1823
993.361	-1181
993.440	-1787
993.519	-1801
993.597	-1473
993.676	-1719
993.755	-607
993.834	-2008
993.912	-2355
993.991	-658
994.069	-2538
994.148	-2155
994.226	-2130
994.305	-1694
994.384	-1551
994.462	-1023
994.540	-1972
994.619	-1937
994.697	-1695
994.776	-2085
994.854	-1250
994.932	-2162
995.011	-1457
995.089	-2291
995.167	-1906
995.245	-2111
995.324	-1965
995.402	-2323
995.480	-1529
995.558	-1664
995.636	-2605
995.714	-2174
995.792	-1271
995.870	-1993
995.948	-1669
996.026	-1037
996.104	-2029
996.182	-1050
996.260	-2165
996.338	-1681
996.416	-2101
996.494	-2052
996.572	-1086
996.649	-2200
996.727	-2047
996.805	-1536
996.883	-2009
996.960	-2175
997.038	-1189
997.116	-1454
997.193	-2039
997.271	-1386
997.348	-2233
997.426	-2168
997.504	-1648
997.581	-1639
997.658	-974
997.736	-1877
997.813	-2661
997.891	-1738
997.968	-2111
998.046	-1263
998.123	-1776
998.200	-1972
998.277	-1602
998.355	-2196
998.432	-2068
998.509	-2019
998.586	-1046
998.663	-1375
998.741	-1722
998.818	-1796
998.895	-2093
998.972	-2604
999.049	-1404
999.126	-1924
999.203	-1633
999.280	-2379
999.357	-2031
999.434	-2574
999.511	-1253
999.587	-1589
999.664	-1749
999.741	-1709
999.818	-1787
999.895	-2188
999.971	-2542
1000.048	-2467
1000.125	-1129
1000.202	-2396
1000.278	-1573
1000.355	-1674
1000.431	-1038
1000.508	-2443
1000.584	-1679
1000.661	-1987
1000.738	-2253
1000.814	-1588
1000.890	-1332
1000.967	-2894
1001.043	-1582
1001.120	-2768
1001.196	-1491
1001.272	-2775
1001.349	-1418
1001.425	-1407
1001.501	-2377
1001.577	-2716
1001.654	-1456
1001.730	-2137
1001.806	-1194
1001.882	-2789
1001.958	-917
1002.034	-1178
1002.110	-1917
1002.186	-2247
1002.262	-2134
1002.338	-2386
1002.414	-1085
1002.490	-1352
1002.566	-1932
1002.642	-1994
1002.718	-1151
1002.794	-1685
1002.870	-1852
1002.945	-1326
1003.021	-1793
1003.097	-2011
1003.173	-1815
1003.248	-2821
1003.324	-2342
1003.400	-2099
1003.475	-2229
1003.551	-2494
1003.626	-1137
1003.702	-2429
1003.777	-1653
1003.853	-1663
1003.928	-2637
1004.004	-2134
1004.079	-1679
1004.155	-1219
1004.230	-3095
1004.305	-946
1004.381	-1318
1004.456	-1558
1004.531	-2287
1004.607	-1776
1004.682	-2173
1004.757	-1828
1004.832	-1892
1004.907	-2681
1004.982	-1912
1005.057	-2033
1005.133	-1927
1005.208	-2081
1005.283	-2027
1005.358	-1159
1005.433	-1936
1005.508	-1507
1005.583	-2945
1005.657	-1918
1005.732	-2025
1005.807	-1915
1005.882	-1996
1005.957	-2148
1006.032	-1516
1006.106	-2212
1006.181	-2018
1006.256	-1955
1006.331	-2790
1006.405	-2332
1006.480	-1999
1006.554	-2439
1006.629	-2371
1006.704	-2468
1006.778	-1287
1006.853	-1338
1006.927	-1929
1007.002	-1995
1007.076	-1646
1007.150	-2307
1007.225	-1105
1007.299	-1445
1007.373	-2343
1007.448	-2029
1007.522	-737
1007.596	-1466
1007.671	-2320
1007.745	-1741
1007.819	-2159
1007.893	-2052
1007.967	-2267
1008.041	-2401
1008.115	-689
1008.190	-2514
1008.264	-1396
1008.338	-3142
1008.412	-2303
1008.486	-2400
1008.560	-1196
1008.633	-3693
1008.707	-1805
1008.781	-1289
1008.855	-1553
1008.929	-2074
1009.003	-1987
1009.076	-1643
1009.150	-2247
1009.224	-2598
1009.298	-1426
1009.371	-2635
1009.445	-1542
1009.519	-1411
1009.592	-2795
1009.666	-1261
1009.739	-1752
1009.813	-2438
1009.886	-762
1009.960	-3158
1010.033	-1286
1010.107	-2203
1010.180	-2285
1010.253	-2941
1010.327	-2482
1010.400	-2048
1010.473	-1821
1010.547	-440
1010.620	-1567
1010.693	-1657
1010.766	-2036
1010.840	-2004
1010.913	-464
1010.986	-2695
1011.059	-1363
1011.132	-1288
1011.205	-891
1011.278	-2060
1011.351	-1668
1011.424	-1418
1011.497	-1238
1011.570	-1531
1011.643	-1715
1011.716	-1610
1011.789	-2220
1011.862	-2030
1011.934	-1070
1012.007	-1808
1012.080	-1285
1012.153	-2263
1012.225	-688
1012.298	-2575
1012.371	-1767
1012.443	-1562
1012.516	-2062
1012.588	-1920
1012.661	-700
1012.733	-3233
1012.806	-1127
1012.879	-2230
1012.951	-1211
1013.023	-2418
1013.096	-2157
1013.168	-1864
1013.241	-1600
1013.313	-2105
1013.385	-1960
1013.458	-2054
1013.530	-1127
1013.602	-2277
1013.674	-1148
1013.746	-2480
1013.819	-2023
1013.891	-1137
1013.963	-1711
1014.035	-2783
1014.107	-1090
1014.179	-1084
1014.251	-1689
1014.323	-1616
1014.395	-1224
1014.467	-2085
1014.539	-2017
1014.611	-2422
1014.683	-1414
1014.754	-2084
1014.826	-2273
1014.898	-1585
1014.970	-2911
1015.042	-1309
1015.113	-1199
1015.185	-2250
1015.257	-2499
1015.328	-1526
1015.400	-1683
1015.471	-2210
1015.543	-2068
1015.615	-1111
1015.686	-2244
1015.757	-2006
1015.829	-1191
1015.901	-2395
1015.972	-2063
1016.043	-1885
1016.115	-1010
1016.186	-1309
1016.257	-2384
1016.328	-1276
1016.400	-668
1016.471	-2822
1016.542	-1752
1016.613	-975
1016.685	-1423
1016.756	-1564
1016.827	-2117
1016.898	-2258
1016.969	-1728
1017.040	-2600
1017.111	-1493
1017.182	-2303
1017.253	-1647
1017.324	-1687
1017.395	-2383
1017.466	-1522
1017.537	-2314
1017.608	-1561
1017.678	-2156
1017.749	-2345
1017.820	-1514
1017.891	-2095
1017.961	-2138
1018.032	-2069
1018.103	-1255
1018.173	-1988
1018.244	-2608
1018.315	-1347
1018.385	-2021
1018.456	-2478
1018.526	-2255
1018.597	-1502
1018.667	-1474
1018.738	-1602
1018.808	-1646
1018.878	-2611
1018.949	-1923
1019.019	-1610
1019.089	-2332
1019.160	-1775
1019.230	-2181
1019.300	-1250
1019.371	-2322
1019.441	-2216
1019.511	-2524
1019.581	-1478
1019.651	-2165
1019.721	-1609
1019.791	-1616
1019.861	-1875
1019.931	-1226
1020.001	-2085
1020.071	-2047
1020.141	-1992
1020.211	-1737
1020.281	-2102
1020.351	-1803
1020.421	-2396
1020.491	-1046
1020.560	-2373
1020.630	-2304
1020.700	-1919
1020.770	-2720
1020.839	-1011
1020.909	-1826
1020.979	-2142
1021.048	-2231
1021.118	-1959
1021.187	-1922
1021.257	-2282
1021.326	-1633
1021.396	-2295
1021.465	-644
1021.535	-1794
1021.604	-2203
1021.674	-2163
1021.743	-1883
1021.812	-1568
1021.882	-1792
1021.951	-2778
1022.020	-1749
1022.089	-1881
1022.159	-1935
1022.228	-1810
1022.297	-2082
1022.366	-1868
1022.435	-2328
1022.504	-2087
1022.573	-2061
1022.642	-2596
1022.711	-1729
1022.781	-1506
1022.849	-1275
1022.918	-2738
1022.987	-1919
1023.056	-1282
1023.125	-1829
1023.194	-2264
1023.263	-1970
1023.331	-2110
1023.400	-2160
1023.469	-2828
1023.538	-1230
1023.606	-2992
1023.675	-1644
1023.744	-1554
1023.812	-2322
1023.881	-1940
1023.949	-1961
1024.018	-2104
1024.086	-2060
1024.155	-1881
1024.223	-1931
1024.292	-1454
1024.360	-2156
1024.429	-3300
1024.497	-1692
1024.565	-2364
1024.634	-1622
1024.702	-2284
1024.770	-1225
1024.838	-2256
1024.907	-1381
1024.975	-2589
1025.043	-1617
1025.111	-2045
1025.179	-2011
1025.247	-2255
1025.315	-2665
1025.383	-1973
1025.451	-2674
1025.519	-2059
1025.587	-2173
1025.655	-2487
1025.723	-2188
1025.791	-1471
1025.859	-1668
1025.927	-1606
1025.995	-1233
1026.062	-1761
1026.130	-1807
1026.198	-2227
1026.266	-2522
1026.333	-1953
1026.401	-1876
1026.469	-2535
1026.536	-2118
1026.604	-2517
1026.671	-2027
1026.739	-2065
1026.806	-1483
1026.874	-2699
1026.941	-1944
1027.009	-2479
1027.076	-1929
1027.144	-1498
1027.211	-2984
1027.278	-1547
1027.345	-2198
1027.413	-2001
1027.480	-2285
1027.547	-2120
1027.614	-2256
1027.682	-1637
1027.749	-2008
1027.816	-1945
1027.883	-1786
1027.950	-1764
1028.017	-2230
1028.084	-1974
1028.151	-2605
1028.218	-2064
1028.285	-1707
1028.352	-2165
1028.419	-2128
1028.486	-2569
1028.553	-1811
1028.619	-2475
1028.686	-1644
1028.753	-2415
1028.820	-2205
1028.886	-2192
1028.953	-2391
1029.020	-2367
1029.086	-2044
1029.153	-2443
1029.220	-1529
1029.286	-2212
1029.353	-1604
1029.419	-2075
1029.486	-1912
1029.552	-2715
1029.619	-2424
1029.685	-1603
1029.751	-2254
1029.818	-1037
1029.884	-2343
1029.951	-2497
1030.017	-2117
1030.083	-1950
1030.149	-1538
1030.216	-2215
1030.282	-1161
1030.348	-2725
1030.414	-2105
1030.480	-2797
1030.546	-1823
1030.612	-2083
1030.678	-3077
1030.744	-2603
1030.810	-1774
1030.876	-2157
1030.942	-2331
1031.008	-1624
1031.074	-2212
1031.140	-2312
1031.206	-1620
1031.272	-2478
1031.337	-1525
1031.403	-2304
1031.469	-2065
1031.534	-1880
1031.600	-2636
1031.666	-1777
1031.731	-2132
1031.797	-2674
1031.863	-1703
1031.928	-2381
1031.994	-1933
1032.059	-2419
1032.125	-2793
1032.190	-2113
1032.256	-2448
1032.321	-2793
1032.386	-2307
1032.452	-2291
1032.517	-1576
1032.582	-1994
1032.647	-2025
1032.713	-2197
1032.778	-844
1032.843	-1701
1032.908	-2236
1032.974	-2582
1033.039	-2017
1033.104	-2959
1033.169	-2139
1033.234	-2779
1033.299	-1655
1033.364	-2604
1033.429	-2260
1033.494	-2259
1033.559	-1599
1033.624	-1615
1033.688	-2644
1033.753	-3257
1033.818	-2541
1033.883	-2230
1033.948	-1854
1034.013	-2060
1034.077	-2107
1034.142	-2818
1034.207	-2293
1034.271	-1683
1034.336	-2576
1034.400	-2765
1034.465	-2485
1034.530	-1754
1034.594	-1968
1034.658	-2417
1034.723	-2403
1034.787	-1994
1034.852	-1510
1034.916	-2613
1034.981	-2104
1035.045	-2004
1035.109	-1790
1035.173	-1913
1035.238	-1835
1035.302	-2131
1035.366	-2288
1035.430	-2070
1035.495	-2024
1035.559	-1369
1035.623	-2120
1035.687	-2653
1035.751	-1865
1035.815	-2293
1035.879	-2465
1035.943	-1921
1036.007	-2180
1036.071	-2453
1036.135	-1240
1036.198	-2685
1036.262	-1760
1036.326	-2643
1036.390	-2809
1036.454	-2407
1036.517	-2306
1036.581	-2234
1036.645	-2794
1036.709	-2056
1036.772	-2490
1036.836	-1834
1036.900	-1458
1036.963	-2642
1037.026	-1437
1037.090	-2228
1037.154	-1103
1037.217	-2266
1037.280	-1995
1037.344	-2507
1037.407	-2800
1037.471	-2443
1037.534	-2656
1037.597	-2258
1037.661	-2006
1037.724	-1828
1037.787	-2219
1037.850	-2670
1037.913	-1966
1037.977	-1684
1038.040	-2080
1038.103	-2581
1038.166	-2511
1038.229	-1965
1038.292	-1793
1038.355	-2219
1038.418	-1534
1038.481	-1859
1038.544	-2338
1038.607	-2162
1038.670	-2376
1038.732	-2009
1038.795	-2639
1038.858	-2563
1038.921	-1856
1038.984	-1269
1039.046	-2562
1039.109	-2903
1039.172	-1294
1039.234	-2247
1039.297	-2065
1039.360	-2268
1039.422	-2075
1039.485	-2810
1039.547	-2760
1039.610	-2358
1039.672	-2059
1039.734	-2771
1039.797	-1430
1039.859	-2835
1039.922	-2338
1039.984	-1827
1040.046	-1898
1040.109	-2470
1040.171	-2598
1040.233	-2196
1040.295	-1930
1040.358	-2561
1040.420	-2650
1040.482	-1872
1040.544	-2512
1040.606	-1628
1040.668	-2261
1040.730	-1697
1040.792	-2207
1040.854	-1988
1040.916	-1613
1040.978	-2394
1041.040	-1442
1041.102	-1676
1041.164	-2485
1041.225	-2755
1041.287	-2970
1041.349	-2432
1041.411	-1558
1041.472	-2615
1041.534	-2588
1041.596	-2005
1041.657	-2675
1041.719	-2402
1041.781	-2147
1041.842	-3191
1041.904	-2336
1041.965	-1881
1042.027	-2772
1042.088	-1922
1042.150	-2100
1042.211	-2868
1042.272	-1479
1042.334	-2420
1042.395	-2075
1042.456	-2386
1042.518	-1716
1042.579	-1720
1042.640	-2235
1042.701	-2362
1042.763	-1472
1042.824	-2026
1042.885	-2555
1042.946	-1990
1043.007	-2123
1043.068	-1493
1043.129	-2497
1043.190	-2385
1043.251	-2139
1043.312	-1479
1043.373	-1472
1043.434	-1739
1043.495	-1266
1043.556	-1997
1043.616	-1694
1043.677	-2841
1043.738	-2188
1043.799	-2506
1043.859	-2753
1043.920	-2692
1043.981	-2338
1044.041	-2133
1044.102	-2275
1044.162	-1710
1044.223	-2756
1044.284	-2399
1044.344	-2310
1044.405	-2535
1044.465	-1694
1044.525	-1959
1044.586	-1639
1044.646	-2547
1044.707	-1364
1044.767	-2581
1044.827	-2044
1044.887	-1640
1044.948	-1388
1045.008	-2126
1045.068	-1672
1045.128	-1451
1045.188	-2149
1045.249	-1333
1045.309	-777
1045.369	-1613
1045.429	-1530
1045.489	-2475
1045.549	-2696
1045.609	-2063
1045.669	-2827
1045.729	-1606
1045.789	-2378
1045.848	-2006
1045.908	-1331
1045.968	-1960
1046.028	-1120
1046.088	-2169
1046.147	-1214
1046.207	-1709
1046.267	-2384
1046.326	-1595
1046.386	-1929
1046.446	-738
1046.505	-814
1046.565	-1236
1046.624	-1643
1046.684	-1155
1046.743	-986
1046.803	-1359
1046.862	-868
1046.922	0
