'Start Wavelength	183.907
'End Wavelength	1046.922
'Gate Delay	5.000
'Gate Width (ms)	1.050
'Laser Output Level	0.000
'X Position	0.000
'Y Position	0.000
'Z Position	0.000
'Grid Point Number	1.000
'Shot Number	100.000
183.907	-111.000
183.977	-532.000
184.047	-116
184.116	212
184.186	550
184.256	285
184.325	-552
184.395	-427
184.465	1304
184.534	200
184.604	-42
184.674	-561
184.743	-441
184.813	128
184.883	94
184.952	-352
185.022	375
185.092	557
185.161	253
185.231	582
185.301	-409
185.370	650
185.440	-96
185.509	-272
185.579	90
185.649	42
185.718	-840
185.788	396
185.857	-136
185.927	-480
185.996	-759
186.066	155
186.136	-619
186.205	500
186.275	317
186.344	67
186.414	421
186.483	-56
186.553	891
186.622	1100
186.692	-113
186.761	272
186.831	-364
186.900	34
186.970	-174
187.039	4
187.109	598
187.178	195
187.248	194
187.317	291
187.387	-326
187.456	609
187.526	-871
187.595	92
187.664	-189
187.734	294
187.803	338
187.873	-631
187.942	-77
188.012	36
188.081	-260
188.150	-556
188.220	97
188.289	-44
188.358	-208
188.428	764
188.497	548
188.567	-451
188.636	104
188.705	44
188.775	-902
188.844	32
188.913	-45
188.983	-552
189.052	-146
189.121	-267
189.191	-276
189.260	706
189.329	278
189.399	373
189.468	429
189.537	331
189.606	619
189.676	-302
189.745	161
189.814	187
189.883	220
189.953	-110
190.022	516
190.091	332
190.161	-252
190.230	39
190.299	89
190.368	87
190.437	-565
190.507	159
190.576	-468
190.645	-159
190.714	190
190.783	-185
190.853	71
190.922	344
190.991	-375
191.060	-568
191.129	-348
191.198	-116
191.268	412
191.337	295
191.406	-128
191.475	14
191.544	-87
191.613	-43
191.682	-740
191.752	176
191.821	199
191.890	-384
191.959	8
192.028	359
192.097	237
192.166	-189
192.235	-145
192.304	-410
192.373	-362
192.442	485
192.511	-1044
192.580	352
192.650	188
192.719	24
192.788	250
192.857	296
192.926	-370
192.995	-287
193.064	-248
193.133	336
193.202	490
193.271	488
193.340	-276
193.409	71
193.478	206
193.547	-31
193.615	-317
193.684	672
193.753	160
193.822	912
193.891	79
193.960	117
194.029	-116
194.098	215
194.167	-619
194.236	21
194.305	188
194.374	123
194.443	-522
194.512	504
194.580	436
194.649	-383
194.718	995
194.787	701
194.856	-286
194.925	-188
194.994	-604
195.062	-16
195.131	-154
195.200	-257
195.269	-293
195.338	-286
195.407	-87
195.475	-454
195.544	568
195.613	-89
195.682	306
195.751	-586
195.819	343
195.888	153
195.957	557
196.026	289
196.094	241
196.163	-74
196.232	371
196.301	284
196.369	-259
196.438	278
196.507	137
196.576	15
196.644	-56
196.713	-260
196.782	-523
196.850	803
196.919	324
196.988	-284
197.056	-854
197.125	595
197.194	82
197.262	249
197.331	-186
197.400	-56
197.468	-489
197.537	-303
197.606	-464
197.674	754
197.743	-282
197.812	-184
197.880	63
197.949	-584
198.017	-473
198.086	137
198.155	-368
198.223	-222
198.292	-328
198.360	-316
198.429	24
198.497	-674
198.566	13
198.635	522
198.703	350
198.772	168
198.840	485
198.909	369
198.977	492
199.046	300
199.114	204
199.183	198
199.251	-285
199.320	183
199.388	-161
199.457	-453
199.525	-129
199.594	-5
199.662	-282
199.731	270
199.799	207
199.867	379
199.936	-288
200.004	805
200.073	-15
200.141	-521
200.210	-770
200.278	-188
200.346	-491
200.415	210
200.483	-582
200.552	240
200.620	39
200.688	-291
200.757	-205
200.825	-272
200.893	301
200.962	-335
201.030	-638
201.098	87
201.167	-209
201.235	70
201.303	-106
201.372	-102
201.440	-480
201.508	-165
201.577	90
201.645	-158
201.713	-491
201.781	-954
201.850	-70
201.918	85
201.986	-806
202.055	384
202.123	-219
202.191	-4
202.259	241
202.327	-24
202.396	268
202.464	439
202.532	-1070
202.600	213
202.669	-666
202.737	-739
202.805	-291
202.873	-184
202.941	62
203.009	360
203.078	302
203.146	107
203.214	-604
203.282	311
203.350	192
203.418	-211
203.487	418
203.555	107
203.623	-380
203.691	-47
203.759	-279
203.827	254
203.895	50
203.963	417
204.031	-184
204.099	314
204.168	-643
204.236	96
204.304	-474
204.372	221
204.440	217
204.508	-86
204.576	-822
204.644	168
204.712	-416
204.780	340
204.848	-317
204.916	-922
204.984	-399
205.052	58
205.120	-273
205.188	-228
205.256	300
205.324	121
205.392	-267
205.460	433
205.528	-154
205.596	-391
205.664	-136
205.732	293
205.799	-86
205.867	757
205.935	-247
206.003	759
206.071	-191
206.139	60
206.207	-288
206.275	441
206.343	19
206.411	695
206.478	-119
206.546	292
206.614	-29
206.682	280
206.750	-158
206.818	-69
206.885	-549
206.953	-580
207.021	465
207.089	83
207.157	-359
207.225	142
207.292	-197
207.360	-280
207.428	-356
207.496	-748
207.563	90
207.631	308
207.699	-927
207.767	-657
207.834	-573
207.902	-324
207.970	-82
208.038	98
208.105	-134
208.173	484
208.241	-592
208.309	595
208.376	-905
208.444	357
208.512	-726
208.579	-283
208.647	5
208.715	138
208.782	-574
208.850	700
208.918	-174
208.985	-552
209.053	-476
209.120	479
209.188	-63
209.256	-196
209.323	-647
209.391	54
209.459	1063
209.526	124
209.594	-922
209.661	15
209.729	44
209.796	832
209.864	159
209.932	-454
209.999	1059
210.067	235
210.134	504
210.202	227
210.269	387
210.337	52
210.404	-394
210.472	-369
210.539	-402
210.607	148
210.674	-179
210.742	33
210.809	20
210.877	248
210.944	73
211.012	-246
211.079	1178
211.146	-183
211.214	-552
211.281	557
211.349	108
211.416	-571
211.484	441
211.551	-467
211.618	-52
211.686	403
211.753	-666
211.821	-127
211.888	-145
211.955	-201
212.023	648
212.090	-527
212.157	264
212.225	284
212.292	292
212.359	392
212.427	1808
212.494	-51
212.561	748
212.629	305
212.696	-718
212.763	-358
212.831	153
212.898	576
212.965	-184
213.032	-468
213.100	-371
213.167	107
213.234	95
213.301	-60
213.369	-610
213.436	-30
213.503	-283
213.570	-173
213.638	-431
213.705	-559
213.772	-365
213.839	-63
213.906	-308
213.973	268
214.041	580
214.108	196
214.175	191
214.242	-427
214.309	422
214.376	143
214.444	-630
214.511	320
214.578	-377
214.645	664
214.712	5
214.779	-172
214.846	-875
214.913	632
214.980	179
215.048	436
215.115	-51
215.182	731
215.249	104
215.316	353
215.383	29
215.450	568
215.517	45
215.584	-33
215.651	143
215.718	-776
215.785	-266
215.852	351
215.919	977
215.986	-215
216.053	-8
216.120	-377
216.187	-257
216.254	284
216.321	-257
216.388	-300
216.455	165
216.522	690
216.589	139
216.656	225
216.722	-288
216.789	-539
216.856	512
216.923	451
216.990	314
217.057	143
217.124	-247
217.191	48
217.258	889
217.324	1619
217.391	921
217.458	812
217.525	193
217.592	431
217.659	-768
217.725	117
217.792	-172
217.859	510
217.926	-487
217.993	-146
218.059	183
218.126	281
218.193	-128
218.260	15
218.327	-217
218.393	448
218.460	285
218.527	-120
218.594	132
218.660	531
218.727	1350
218.794	-469
218.860	581
218.927	-262
218.994	230
219.061	59
219.127	-136
219.194	-265
219.261	927
219.327	85
219.394	-276
219.461	-1279
219.527	-69
219.594	-19
219.661	-354
219.727	-373
219.794	466
219.860	-203
219.927	162
219.994	610
220.060	644
220.127	199
220.193	184
220.260	316
220.326	780
220.393	349
220.460	755
220.526	387
220.593	-224
220.659	1386
220.726	820
220.792	1300
220.859	593
220.925	1597
220.992	2698
221.058	2896
221.125	1773
221.191	1527
221.258	-255
221.324	166
221.391	-31
221.457	321
221.524	25
221.590	126
221.657	1606
221.723	461
221.789	81
221.856	1174
221.922	21
221.989	176
222.055	39
222.121	-380
222.188	591
222.254	-289
222.321	-243
222.387	-72
222.453	-510
222.520	98
222.586	-590
222.652	242
222.719	-27
222.785	294
222.851	-364
222.918	-245
222.984	-17
223.050	490
223.116	-827
223.183	359
223.249	-1093
223.315	-367
223.382	-60
223.448	216
223.514	-317
223.580	120
223.647	-521
223.713	-449
223.779	-829
223.845	72
223.911	-157
223.978	-210
224.044	-672
224.110	-181
224.176	-311
224.242	109
224.309	-916
224.375	467
224.441	193
224.507	-301
224.573	-298
224.639	-9
224.705	-543
224.772	-1215
224.838	-561
224.904	520
224.970	-514
225.036	-107
225.102	-435
225.168	317
225.234	359
225.300	74
225.366	-102
225.432	-230
225.499	-170
225.565	-507
225.631	-203
225.697	-242
225.763	579
225.829	109
225.895	372
225.961	780
226.027	-133
226.093	201
226.159	744
226.225	1320
226.291	2094
226.357	3708
226.423	1311
226.489	1397
226.554	249
226.620	770
226.686	578
226.752	1040
226.818	1947
226.884	5046
226.950	4108
227.016	1364
227.082	1219
227.148	907
227.214	52
227.279	813
227.345	288
227.411	238
227.477	-262
227.543	586
227.609	-24
227.674	488
227.740	127
227.806	811
227.872	-299
227.938	492
228.003	255
228.069	632
228.135	215
228.201	100
228.267	-187
228.332	373
228.398	-276
228.464	636
228.530	-369
228.595	318
228.661	-196
228.727	-143
228.792	627
228.858	243
228.924	-711
228.990	1389
229.055	-270
229.121	687
229.187	-419
229.252	-16
229.318	337
229.384	444
229.449	174
229.515	-1180
229.581	-927
229.646	2020
229.712	-167
229.777	239
229.843	-376
229.909	-268
229.974	1024
230.040	253
230.105	-28
230.171	-539
230.236	289
230.302	268
230.368	842
230.433	369
230.499	861
230.564	335
230.630	-304
230.695	-479
230.761	220
230.826	-226
230.892	1178
230.957	90
231.023	-493
231.088	975
231.154	-83
231.219	915
231.284	390
231.350	1434
231.415	-103
231.481	1056
231.546	-108
231.612	-60
231.677	-68
231.742	-1017
231.808	943
231.873	-77
231.939	-1489
232.004	1276
232.069	773
232.135	151
232.200	-61
232.265	235
232.331	-23
232.396	651
232.461	59
232.527	358
232.592	-615
232.657	297
232.723	327
232.788	-146
232.853	758
232.918	813
232.984	-594
233.049	-292
233.114	-224
233.179	672
233.245	737
233.310	476
233.375	-396
233.440	258
233.506	-458
233.571	5
233.636	-17
233.701	963
233.766	-312
233.832	-155
233.897	-300
233.962	-826
234.027	718
234.092	1077
234.157	-179
234.222	-272
234.288	129
234.353	1275
234.418	1440
234.483	633
234.548	801
234.613	459
234.678	1247
234.743	341
234.808	1796
234.873	-340
234.938	1016
235.004	504
235.069	161
235.134	104
235.199	927
235.264	-165
235.329	-817
235.394	523
235.459	-1
235.524	-228
235.589	469
235.654	139
235.719	-1228
235.784	559
235.849	8
235.913	889
235.978	214
236.043	1202
236.108	224
236.173	-421
236.238	743
236.303	-92
236.368	-7
236.433	839
236.498	189
236.563	821
236.627	1847
236.692	5485
236.757	4923
236.822	1817
236.887	912
236.952	1236
237.017	418
237.081	1779
237.146	1236
237.211	3021
237.276	5785
237.341	9190
237.405	4117
237.470	2037
237.535	1417
237.600	1050
237.664	-21
237.729	-655
237.794	284
237.859	1585
237.923	449
237.988	1089
238.053	972
238.118	393
238.182	2630
238.247	3121
238.312	-375
238.376	994
238.441	-915
238.506	1612
238.570	-1014
238.635	1116
238.700	-240
238.764	-571
238.829	92
238.893	109
238.958	453
239.023	1072
239.087	-366
239.152	153
239.216	-560
239.281	747
239.346	4
239.410	578
239.475	71
239.539	2787
239.604	917
239.668	396
239.733	246
239.797	135
239.862	116
239.926	2190
239.991	426
240.055	404
240.120	32
240.184	-114
240.249	-78
240.313	-20
240.378	-108
240.442	1247
240.507	911
240.571	-195
240.635	30
240.700	908
240.764	-101
240.829	-315
240.893	-100
240.957	460
241.022	1575
241.086	1962
241.151	-175
241.215	-507
241.279	1072
241.344	1133
241.408	487
241.472	591
241.537	610
241.601	1011
241.665	-150
241.730	297
241.794	438
241.858	366
241.922	611
241.987	-46
242.051	191
242.115	-336
242.179	450
242.244	-226
242.308	736
242.372	226
242.436	-80
242.501	883
242.565	159
242.629	-363
242.693	420
242.757	229
242.822	374
242.886	1002
242.950	85
243.014	11
243.078	551
243.142	404
243.206	137
243.271	153
243.335	-356
243.399	1231
243.463	1971
243.527	8346
243.591	1932
243.655	1184
243.719	-1068
243.783	947
243.847	1220
243.911	784
243.975	1475
244.040	466
244.104	1013
244.168	427
244.232	-55
244.296	1183
244.360	1670
244.424	256
244.488	617
244.552	1486
244.615	-974
244.679	807
244.743	714
244.807	-203
244.871	176
244.935	987
244.999	-1235
245.063	84
245.127	548
245.191	1088
245.255	102
245.319	229
245.383	-752
245.446	1911
245.510	-955
245.574	581
245.638	257
245.702	-1093
245.766	1887
245.829	1062
245.893	-808
245.957	-205
246.021	324
246.085	763
246.149	664
246.212	2446
246.276	2259
246.340	726
246.404	490
246.467	1917
246.531	-47
246.595	1664
246.659	1230
246.722	262
246.786	1474
246.850	1140
246.913	810
246.977	568
247.041	634
247.104	463
247.168	862
247.232	1406
247.295	4499
247.359	2011
247.423	308
247.486	2174
247.550	1197
247.614	947
247.677	1272
247.741	971
247.804	348
247.868	825
247.932	803
247.995	4643
248.059	781
248.122	492
248.186	1948
248.249	2085
248.313	7038
248.376	7289
248.440	4564
248.503	1262
248.567	2076
248.630	1885
248.694	2946
248.757	3978
248.821	7398
248.884	4634
248.948	4032
249.011	6002
249.075	8606
249.138	7853
249.202	2329
249.265	1804
249.328	2650
249.392	514
249.455	1316
249.519	1916
249.582	1787
249.645	2895
249.709	1610
249.772	1188
249.835	1473
249.899	1345
249.962	2239
250.025	516
250.089	3090
250.152	4711
250.215	1293
250.279	537
250.342	1674
250.405	1463
250.468	-166
250.532	1554
250.595	3303
250.658	8423
250.721	14159
250.785	4688
250.848	3734
250.911	1449
250.974	1611
251.038	2232
251.101	4740
251.164	2716
251.227	2714
251.290	2126
251.354	3575
251.417	12366
251.480	11375
251.543	8389
251.606	25107
251.669	16084
251.732	5555
251.795	6811
251.859	6587
251.922	14559
251.985	7164
252.048	3548
252.111	2353
252.174	1780
252.237	4587
252.300	9929
252.363	9293
252.426	19227
252.489	6571
252.552	3678
252.615	1830
252.678	2901
252.741	6831
252.804	8667
252.867	20295
252.930	10709
252.993	6055
253.056	3776
253.119	2000
253.182	1407
253.245	2003
253.308	2831
253.371	1193
253.434	1654
253.497	2270
253.559	4323
253.622	2727
253.685	3495
253.748	2717
253.811	1667
253.874	2362
253.937	1262
254.000	1653
254.062	2945
254.125	3899
254.188	4440
254.251	3052
254.314	1091
254.376	2168
254.439	3212
254.502	2121
254.565	3227
254.628	5893
254.690	2070
254.753	1150
254.816	978
254.878	803
254.941	2081
255.004	2547
255.067	426
255.129	800
255.192	885
255.255	-521
255.317	414
255.380	978
255.443	-186
255.505	-321
255.568	-546
255.631	-141
255.693	849
255.756	-854
255.819	1143
255.881	-422
255.944	84
256.006	-43
256.069	-282
256.132	-29
256.194	612
256.257	657
256.319	1472
256.382	479
256.444	888
256.507	329
256.569	-391
256.632	245
256.694	653
256.757	4155
256.819	10862
256.882	3323
256.944	1679
257.007	1529
257.069	1279
257.132	416
257.194	1259
257.257	119
257.319	-399
257.381	-44
257.444	4221
257.506	11339
257.569	12112
257.631	5047
257.693	2386
257.756	913
257.818	524
257.880	985
257.943	929
258.005	-205
258.067	161
258.130	170
258.192	596
258.254	1130
258.317	1069
258.379	1565
258.441	1977
258.503	2087
258.566	1777
258.628	2756
258.690	-126
258.753	1317
258.815	2053
258.877	-142
258.939	91
259.001	1318
259.064	20
259.126	117
259.188	640
259.250	-141
259.312	851
259.375	1023
259.437	317
259.499	377
259.561	142
259.623	13
259.685	-238
259.747	-3
259.809	2506
259.872	3694
259.934	7075
259.996	6131
260.058	1628
260.120	688
260.182	194
260.244	-76
260.306	-411
260.368	393
260.430	-581
260.492	548
260.554	1737
260.616	125
260.678	4015
260.740	3691
260.802	527
260.864	20
260.926	-324
260.988	976
261.050	812
261.112	1125
261.174	5476
261.236	3420
261.298	269
261.359	1143
261.421	3127
261.483	-217
261.545	760
261.607	-144
261.669	828
261.731	567
261.793	3410
261.854	191
261.916	135
261.978	902
262.040	628
262.102	1078
262.164	-303
262.225	-187
262.287	60
262.349	1435
262.411	217
262.472	539
262.534	-15
262.596	1360
262.658	1337
262.719	-1119
262.781	706
262.843	636
262.904	1188
262.966	581
263.028	174
263.090	4335
263.151	12303
263.213	3223
263.275	823
263.336	284
263.398	810
263.459	-503
263.521	540
263.583	1491
263.644	1225
263.706	-384
263.767	-1071
263.829	-373
263.891	-485
263.952	-523
264.014	-1599
264.075	-182
264.137	1329
264.198	737
264.260	-192
264.321	-65
264.383	135
264.444	2785
264.506	719
264.567	149
264.629	1023
264.690	597
264.752	802
264.813	302
264.875	-697
264.936	-411
264.998	-487
265.059	-816
265.120	295
265.182	462
265.243	5300
265.305	4998
265.366	1159
265.427	1115
265.489	91
265.550	-1092
265.611	177
265.673	-424
265.734	-547
265.795	19
265.857	-587
265.918	-1086
265.979	2119
266.040	8924
266.102	8360
266.163	1745
266.224	677
266.286	59
266.347	-1426
266.408	-199
266.469	237
266.530	-207
266.592	-673
266.653	397
266.714	2078
266.775	-253
266.836	-814
266.898	-825
266.959	55
267.020	-545
267.081	210
267.142	-484
267.203	-436
267.264	-1117
267.326	897
267.387	-1037
267.448	-1079
267.509	-778
267.570	-28
267.631	-1073
267.692	-998
267.753	-802
267.814	-303
267.875	1471
267.936	2929
267.997	1072
268.058	644
268.119	-540
268.180	98
268.241	-395
268.302	129
268.363	-1137
268.424	-302
268.485	-465
268.546	-308
268.607	-573
268.668	-366
268.729	-821
268.790	-699
268.851	43
268.912	1610
268.972	1540
269.033	-319
269.094	-908
269.155	79
269.216	-131
269.277	-202
269.338	275
269.398	386
269.459	-435
269.520	-139
269.581	-259
269.642	700
269.702	-145
269.763	-32
269.824	-230
269.885	-236
269.945	1299
270.006	-38
270.067	-1173
270.128	-517
270.188	-475
270.249	-704
270.310	-905
270.370	-387
270.431	-682
270.492	-460
270.553	-564
270.613	1309
270.674	2808
270.734	414
270.795	-201
270.856	979
270.916	-1071
270.977	128
271.038	234
271.098	34
271.159	18
271.219	-30
271.280	-293
271.340	215
271.401	-519
271.462	835
271.522	905
271.583	-138
271.643	40
271.704	-929
271.764	-424
271.825	1910
271.885	8123
271.946	8698
272.006	2924
272.066	4387
272.127	7224
272.187	2090
272.248	375
272.308	448
272.369	5059
272.429	2668
272.489	1302
272.550	1247
272.610	1599
272.671	1124
272.731	165
272.791	733
272.852	-424
272.912	576
272.972	209
273.033	257
273.093	118
273.153	903
273.214	126
273.274	867
273.334	3500
273.394	7307
273.455	2898
273.515	2269
273.575	6364
273.635	2147
273.696	2515
273.756	6484
273.816	2240
273.876	769
273.936	1649
273.997	3885
274.057	248
274.117	305
274.177	896
274.237	8632
274.297	6794
274.358	4010
274.418	5610
274.478	4337
274.538	1433
274.598	900
274.658	3925
274.718	4080
274.778	1669
274.838	688
274.898	533
274.958	4708
275.018	6792
275.078	4003
275.138	1191
275.198	593
275.258	-211
275.318	248
275.378	809
275.438	2153
275.498	809
275.558	2727
275.618	6091
275.678	4703
275.738	2886
275.798	1460
275.858	425
275.918	-47
275.978	106
276.038	622
276.098	-779
276.157	1516
276.217	4979
276.277	1172
276.337	410
276.397	9
276.457	943
276.517	232
276.576	-288
276.636	-150
276.696	-68
276.756	3161
276.815	1891
276.875	157
276.935	134
276.995	827
277.055	-797
277.114	426
277.174	418
277.234	4360
277.293	404
277.353	492
277.413	-186
277.472	647
277.532	167
277.592	-46
277.651	1710
277.711	3631
277.771	983
277.830	6313
277.890	4823
277.950	3230
278.009	9916
278.069	3504
278.128	3131
278.188	3806
278.248	1807
278.307	4043
278.367	2490
278.426	-395
278.486	-169
278.545	-28
278.605	-508
278.664	-299
278.724	-752
278.783	2628
278.843	8611
278.902	2007
278.962	281
279.021	819
279.081	817
279.140	216
279.199	426
279.259	1696
279.318	913
279.378	1124
279.437	1747
279.496	10339
279.556	32767
279.615	23271
279.675	4962
279.734	2611
279.793	4388
279.853	6927
279.912	2463
279.971	997
280.031	308
280.090	2451
280.149	4632
280.208	3890
280.268	21453
280.327	20375
280.386	4026
280.445	3882
280.505	3429
280.564	890
280.623	419
280.682	1897
280.742	4267
280.801	401
280.860	-251
280.919	-123
280.978	-173
281.037	-571
281.097	-199
281.156	-348
281.215	-348
281.274	378
281.333	4695
281.392	3699
281.451	223
281.510	359
281.569	104
281.628	416
281.688	-274
281.747	-652
281.806	50
281.865	367
281.924	-385
281.983	-157
282.042	-893
282.101	-325
282.160	-280
282.219	-261
282.278	-964
282.337	2619
282.396	1258
282.454	262
282.513	395
282.572	5118
282.631	2375
282.690	772
282.749	-239
282.808	573
282.867	735
282.926	898
282.985	-507
283.043	395
283.102	-992
283.161	-140
283.220	1603
283.279	5718
283.338	608
283.396	-463
283.455	613
283.514	-269
283.573	1447
283.631	414
283.690	661
283.749	-647
283.808	1092
283.866	2593
283.925	-899
283.984	646
284.043	-93
284.101	1407
284.160	-87
284.219	602
284.277	-6
284.336	1589
284.395	6664
284.453	5076
284.512	1316
284.570	2069
284.629	1500
284.688	1271
284.746	1431
284.805	1534
284.863	1740
284.922	2374
284.981	3238
285.039	4273
285.098	9478
285.156	22721
285.215	45198
285.273	40979
285.332	25160
285.390	11981
285.449	7297
285.507	6082
285.566	3835
285.624	3101
285.683	1954
285.741	1209
285.799	1097
285.858	400
285.916	988
285.975	-148
286.033	112
286.091	493
286.150	-113
286.208	152
286.267	-16
286.325	-14
286.383	1014
286.442	1490
286.500	-225
286.558	-484
286.616	-37
286.675	762
286.733	-512
286.791	-105
286.850	928
286.908	837
286.966	2026
287.024	581
287.083	-868
287.141	573
287.199	-65
287.257	892
287.315	452
287.374	160
287.432	3641
287.490	1979
287.548	615
287.606	-114
287.664	498
287.723	1211
287.781	705
287.839	537
287.897	-123
287.955	1086
288.013	1764
288.071	7125
288.129	25684
288.187	65906
288.245	29937
288.303	10558
288.361	4905
288.419	3100
288.477	1812
288.535	1193
288.593	1087
288.651	558
288.709	-135
288.767	-44
288.825	-321
288.883	618
288.941	-493
288.999	287
289.057	-59
289.115	-1502
289.173	-376
289.231	118
289.289	-219
289.346	113
289.404	-334
289.462	597
289.520	422
289.578	271
289.636	-107
289.694	-476
289.751	-884
289.809	-481
289.867	-627
289.925	483
289.983	520
290.040	28
290.098	-771
290.156	216
290.214	-69
290.271	31
290.329	-555
290.387	164
290.444	-83
290.502	-446
290.560	-21
290.617	-278
290.675	-700
290.733	-13
290.790	251
290.848	-264
290.906	-1122
290.963	-69
291.021	101
291.078	365
291.136	257
291.194	1888
291.251	5695
291.309	1138
291.366	-708
291.424	-573
291.481	83
291.539	-901
291.596	-443
291.654	-1068
291.711	-284
291.769	-810
291.826	687
291.884	1154
291.941	-800
291.999	-277
292.056	-207
292.114	-373
292.171	201
292.228	-25
292.286	-99
292.343	918
292.401	1642
292.458	322
292.515	-106
292.573	226
292.630	836
292.687	395
292.745	211
292.802	410
292.859	2382
292.917	6244
292.974	3195
293.031	1042
293.089	-237
293.146	-249
293.203	232
293.260	-513
293.318	-213
293.375	1304
293.432	-464
293.489	53
293.546	-386
293.604	36
293.661	3245
293.718	10958
293.775	5200
293.832	2259
293.889	938
293.947	1198
294.004	-429
294.061	799
294.118	2045
294.175	6636
294.232	7125
294.289	2799
294.346	455
294.403	1501
294.460	152
294.517	-397
294.574	196
294.631	95
294.688	723
294.745	3013
294.802	11280
294.859	13459
294.916	4722
294.973	1277
295.030	1214
295.087	853
295.144	450
295.201	89
295.258	-304
295.315	584
295.372	4049
295.429	9002
295.486	3622
295.542	1967
295.599	4967
295.656	8955
295.713	5825
295.770	9327
295.827	2893
295.883	900
295.940	964
295.997	2630
296.054	2169
296.111	683
296.167	197
296.224	56
296.281	-315
296.338	-554
296.394	-425
296.451	990
296.508	3673
296.564	7565
296.621	4940
296.678	10693
296.734	14738
296.791	6571
296.848	1561
296.904	2288
296.961	6166
297.018	10801
297.074	7916
297.131	3242
297.187	1311
297.244	3858
297.301	10339
297.357	18716
297.414	6921
297.470	3110
297.527	70
297.583	1342
297.640	537
297.696	674
297.753	-259
297.809	9
297.866	-1010
297.922	187
297.979	-451
298.035	474
298.092	1458
298.148	5801
298.204	6281
298.261	2339
298.317	4998
298.374	12765
298.430	7666
298.486	2675
298.543	1557
298.599	974
298.656	2125
298.712	3768
298.768	10578
298.824	7362
298.881	1879
298.937	1489
298.993	-203
299.050	1041
299.106	970
299.162	609
299.218	986
299.275	607
299.331	567
299.387	3131
299.443	9917
299.500	13134
299.556	3465
299.612	1571
299.668	785
299.724	454
299.780	1342
299.837	831
299.893	2274
299.949	9438
300.005	12628
300.061	9264
300.117	15869
300.173	8560
300.229	3553
300.285	4021
300.341	5587
300.397	2793
300.453	1581
300.510	422
300.566	112
300.622	1306
300.678	3570
300.734	8530
300.790	9106
300.845	11999
300.901	7383
300.957	8796
301.013	8307
301.069	3135
301.125	1304
301.181	1813
301.237	1957
301.293	-309
301.349	159
301.405	1313
301.461	105
301.516	729
301.572	1431
301.628	2337
301.684	1854
301.740	4020
301.796	7083
301.851	5152
301.907	7172
301.963	9701
302.019	13044
302.074	33152
302.130	34681
302.186	16519
302.242	6580
302.297	4107
302.353	3532
302.409	7003
302.464	6356
302.520	5574
302.576	10976
302.631	15321
302.687	8618
302.743	2527
302.798	1752
302.854	741
302.910	1825
302.965	816
303.021	2684
303.076	3415
303.132	4248
303.187	5911
303.243	2692
303.299	1425
303.354	364
303.410	826
303.465	642
303.521	521
303.576	483
303.632	1068
303.687	3217
303.743	10287
303.798	9827
303.853	4432
303.909	1308
303.964	1604
304.020	2779
304.075	4214
304.130	3710
304.186	6925
304.241	8395
304.297	6281
304.352	2632
304.358	2471
304.407	1164
304.449	1300
304.463	1344
304.518	1124
304.539	1116
304.573	1119
304.629	1789
304.630	1815
304.684	3020
304.720	6130
304.739	7699
304.794	13063
304.811	11300
304.850	7044
304.902	2687
304.905	2409
304.960	1391
304.992	1279
305.015	1180
305.071	1408
305.083	1404
305.126	1413
305.173	552
305.181	402
305.236	425
305.264	553
305.292	719
305.347	929
305.354	1056
305.402	1830
305.445	1937
305.457	1962
305.512	1856
305.535	1987
305.567	2198
305.622	2150
305.626	2261
305.678	4583
305.716	9439
305.733	11244
305.788	14095
305.807	12267
305.843	9120
305.897	11052
305.898	11066
305.953	11237
305.988	7888
306.008	6073
306.063	3425
306.078	2925
306.118	1689
306.168	987
306.173	940
306.228	196
306.259	618
306.283	900
306.338	674
306.349	771
306.393	1228
306.440	1175
306.448	1150
306.503	1116
306.530	1185
306.558	1457
306.613	3491
306.620	3868
306.668	6718
306.711	10499
306.723	11188
306.778	9850
306.801	7654
306.833	4849
306.888	2857
306.892	2693
306.943	1054
306.982	1151
306.997	1190
307.052	1176
307.072	1014
307.107	657
307.162	1510
307.163	1510
307.217	1694
307.253	1930
307.272	1957
307.327	1974
307.343	1890
307.381	1716
307.434	1149
307.436	1177
307.491	3568
307.524	5945
307.546	7019
307.600	9202
307.614	8276
307.655	5006
307.704	3009
307.710	2848
307.765	2166
307.795	2451
307.819	2908
307.874	4526
307.885	4650
307.929	4579
307.975	3993
307.984	4055
308.038	6424
308.065	8358
308.093	12580
308.148	25391
308.156	28620
308.202	46524
308.246	57851
308.257	57642
308.312	36362
308.336	27338
308.366	20742
308.421	13084
308.426	12540
308.475	7677
308.517	5290
308.530	4778
308.585	4053
308.607	3885
308.639	3577
308.694	3422
308.697	3434
308.748	4254
308.787	5410
308.803	5375
308.857	4617
308.877	4000
308.912	3731
308.967	4047
308.967	4072
309.021	5217
309.058	6595
309.076	8209
309.130	15814
309.148	19134
309.185	33153
309.238	58461
309.239	58606
309.293	66571
309.328	62514
309.348	55772
309.402	30107
309.418	23660
309.457	15917
309.508	10042
309.511	9737
309.566	7517
309.598	6538
309.620	6261
309.674	6562
309.688	6841
309.729	6779
309.778	5810
309.783	5720
309.837	4813
309.868	4517
309.892	5234
309.946	7903
309.959	9017
310.001	13046
310.049	16553
310.055	16144
310.109	9968
310.139	6354
310.163	4741
310.218	2393
310.229	2096
310.272	1897
310.319	1732
310.326	1657
310.381	1132
310.409	1048
310.435	1284
310.489	1441
310.499	1540
310.543	1276
310.589	868
310.598	843
310.652	813
310.679	722
310.706	828
310.760	937
310.769	977
310.814	892
310.859	868
310.868	902
310.923	928
310.948	1030
310.977	927
311.031	633
311.038	597
311.085	467
311.128	222
311.139	194
311.193	277
311.218	226
311.247	683
311.301	1670
311.308	1784
311.356	1249
311.398	705
311.410	744
311.464	963
311.488	1064
311.518	768
311.572	222
311.578	169
311.626	598
311.668	912
311.680	900
311.734	852
311.758	821
311.788	988
311.842	1344
311.847	1376
311.896	1284
311.937	1270
311.950	1319
312.004	1499
312.027	1595
312.058	1340
312.112	877
312.117	836
312.165	833
312.207	842
312.297	651
312.386	545
312.476	779
312.566	2259
312.656	922
312.745	1048
312.835	1421
312.925	1089
313.015	1230
313.104	1248
313.194	667
313.284	752
313.374	1806
313.463	1346
313.553	957
313.643	364
313.732	1070
313.822	716
313.912	1105
314.001	671
314.091	359
314.180	894
314.270	1246
314.360	1836
314.449	459
314.539	1009
314.628	1015
314.718	640
314.808	944
314.897	562
314.987	1226
315.076	436
315.166	688
315.255	1197
315.345	1110
315.434	766
315.524	941
315.613	1007
315.703	1052
315.792	1894
315.881	1881
315.971	1252
316.060	1103
316.150	1444
316.239	1601
316.328	1242
316.418	499
316.507	646
316.597	1657
316.686	1450
316.775	227
316.865	1610
316.954	1134
317.043	985
317.133	394
317.222	334
317.311	730
317.400	-141
317.490	1480
317.579	1238
317.668	1176
317.757	1710
317.847	1908
317.936	3821
318.025	3347
318.114	2182
318.203	457
318.293	1596
318.382	2573
318.471	3104
318.560	2899
318.649	5994
318.738	1055
318.828	584
318.917	1268
319.006	921
319.095	2226
319.184	8495
319.273	5373
319.362	3712
319.451	634
319.540	965
319.629	2309
319.718	4129
319.807	1782
319.896	3308
319.985	11675
320.074	5237
320.163	938
320.252	1780
320.341	439
320.430	674
320.519	1963
320.608	1502
320.697	1043
320.786	1146
320.875	650
320.964	1451
321.053	2750
321.142	3324
321.230	3616
321.319	2233
321.408	6061
321.497	2765
321.586	2445
321.675	2880
321.764	3021
321.852	1828
321.941	3614
322.030	2680
322.119	1422
322.207	6108
322.296	2528
322.385	1757
322.474	2119
322.562	7912
322.651	4077
322.740	3368
322.829	3330
322.917	2511
323.006	1970
323.095	1357
323.183	1269
323.272	2152
323.361	3785
323.449	8550
323.538	2382
323.626	5520
323.715	3404
323.804	756
323.892	4666
323.981	3712
324.069	866
324.158	1749
324.246	2766
324.335	1596
324.424	2921
324.512	1473
324.601	1812
324.689	4178
324.778	9246
324.866	2147
324.954	634
325.043	664
325.131	616
325.220	1767
325.308	2052
325.397	1932
325.485	1518
325.574	942
325.662	384
325.750	725
325.839	690
325.927	265
326.015	-48
326.104	720
326.192	880
326.280	571
326.369	-328
326.457	850
326.545	2342
326.634	944
326.722	273
326.810	646
326.898	834
326.987	877
327.075	1715
327.163	2010
327.251	620
327.340	3433
327.428	5419
327.516	557
327.604	94
327.692	420
327.781	124
327.869	430
327.957	391
328.045	243
328.133	1249
328.221	954
328.309	1106
328.397	1461
328.485	469
328.574	1631
328.662	3825
328.750	2223
328.838	622
328.926	1037
329.014	1051
329.102	683
329.190	2051
329.278	1709
329.366	619
329.454	352
329.542	1139
329.630	-412
329.718	607
329.806	683
329.893	677
329.981	674
330.069	1623
330.157	7426
330.245	20499
330.333	10509
330.421	1305
330.509	1166
330.597	5114
330.684	3343
330.772	1409
330.860	581
330.948	1088
331.036	1148
331.123	-170
331.211	497
331.299	204
331.387	834
331.475	1564
331.562	622
331.650	219
331.738	633
331.825	1077
331.913	820
332.001	268
332.089	554
332.176	1211
332.264	2061
332.352	1341
332.439	140
332.527	-149
332.614	273
332.702	9
332.790	-64
332.877	213
332.965	1702
333.052	585
333.140	1170
333.228	1180
333.315	363
333.403	467
333.490	1137
333.578	437
333.665	1510
333.753	1007
333.840	284
333.928	17
334.015	2246
334.103	2503
334.190	9872
334.278	2341
334.365	818
334.452	300
334.540	233
334.627	-687
334.715	1238
334.802	1540
334.889	7598
334.977	8665
335.064	1378
335.151	214
335.239	155
335.326	835
335.413	4574
335.501	7038
335.588	1112
335.675	366
335.762	334
335.850	791
335.937	936
336.024	2247
336.111	9010
336.199	3667
336.286	514
336.373	606
336.460	1091
336.547	341
336.635	1087
336.722	403
336.809	150
336.896	693
336.983	3433
337.070	6682
337.157	10733
337.245	5051
337.332	3749
337.419	203
337.506	630
337.593	364
337.680	1907
337.767	5975
337.854	1721
337.941	1921
338.028	2324
338.115	1277
338.202	862
338.289	1644
338.376	5525
338.463	1721
338.550	3396
338.637	3510
338.724	876
338.811	2298
338.898	47
338.984	-18
339.071	851
339.158	1492
339.245	2212
339.332	1990
339.419	1418
339.506	1031
339.593	-641
339.679	731
339.766	680
339.853	446
339.940	1908
340.027	292
340.113	380
340.200	970
340.287	673
340.374	959
340.460	2119
340.547	107
340.634	1508
340.720	6164
340.807	4100
340.894	484
340.980	962
341.067	255
341.154	1101
341.240	947
341.327	2639
341.414	1339
341.500	2642
341.587	1357
341.674	880
341.760	2043
341.847	1778
341.933	-312
342.020	-505
342.106	230
342.193	-262
342.279	1689
342.366	1348
342.452	1724
342.539	868
342.625	1483
342.712	6688
342.798	2512
342.885	815
342.971	-669
343.058	208
343.144	127
343.230	743
343.317	184
343.403	594
343.490	636
343.576	-18
343.662	309
343.749	704
343.835	948
343.921	2411
344.008	15364
344.094	40681
344.180	8508
344.267	2017
344.353	8618
344.439	8742
344.525	3193
344.612	4007
344.698	4144
344.784	1645
344.870	1253
344.957	757
345.043	1172
345.129	777
345.215	2192
345.301	1466
345.387	717
345.474	-75
345.560	-129
345.646	-291
345.732	616
345.818	327
345.904	640
345.990	718
346.076	529
346.162	1348
346.249	777
346.335	-125
346.421	718
346.507	3838
346.593	14772
346.679	3385
346.765	704
346.851	512
346.937	-479
347.023	987
347.108	553
347.194	935
347.280	750
347.366	1066
347.452	2849
347.538	17325
347.624	12953
347.710	9361
347.796	921
347.882	295
347.967	164
348.053	475
348.139	-293
348.225	-285
348.311	264
348.397	826
348.482	731
348.568	498
348.654	116
348.740	-203
348.825	-772
348.911	2110
348.997	6677
349.083	17367
349.168	1777
349.254	1358
349.340	986
349.425	228
349.511	351
349.597	703
349.682	1198
349.768	9095
349.854	4417
349.939	727
350.025	-266
350.110	1330
350.196	1049
350.282	-60
350.367	-94
350.453	1093
350.538	-118
350.624	551
350.709	328
350.795	-411
350.880	66
350.966	1574
351.051	893
351.137	682
351.222	-3
351.308	2702
351.393	6693
351.479	2740
351.564	382
351.649	747
351.735	598
351.820	-54
351.906	371
351.991	960
352.076	4436
352.162	6467
352.247	724
352.332	601
352.418	2262
352.503	3320
352.588	10749
352.673	8114
352.759	1509
352.844	1353
352.929	838
353.014	889
353.100	679
353.185	774
353.270	985
353.355	1780
353.441	480
353.526	127
353.611	1358
353.696	2223
353.781	2068
353.866	235
353.952	1110
354.037	1687
354.122	4340
354.207	3118
354.292	933
354.377	545
354.462	254
354.547	675
354.632	607
354.717	399
354.802	84
354.887	267
354.972	-74
355.057	267
355.142	-432
355.227	750
355.312	1220
355.397	1999
355.482	6518
355.567	2134
355.652	2353
355.737	3094
355.822	10409
355.907	8632
355.991	947
356.076	343
356.161	-122
356.246	426
356.331	1188
356.416	1845
356.501	18012
356.585	19972
356.670	1955
356.755	2727
356.840	2027
356.924	9790
357.009	40807
357.094	16333
357.179	1881
357.263	1966
357.348	1294
357.433	1199
357.517	994
357.602	1085
357.687	691
357.771	1796
357.856	4891
357.941	3205
358.025	8886
358.110	42876
358.195	19819
358.279	2640
358.364	1182
358.448	5851
358.533	19254
358.617	12098
358.702	12843
358.787	4966
358.871	2312
358.956	921
359.040	127
359.125	794
359.209	85
359.294	1735
359.378	3798
359.462	1126
359.547	-190
359.631	365
359.716	-328
359.800	-271
359.885	782
359.969	270
360.053	524
360.138	369
360.222	742
360.306	1659
360.391	1798
360.475	2427
360.559	6440
360.644	5991
360.728	3016
360.812	9143
360.896	28993
360.981	9405
361.065	3550
361.149	933
361.233	336
361.318	-260
361.402	961
361.486	954
361.570	-334
361.654	1458
361.739	2685
361.823	16819
361.907	30411
361.991	4966
362.075	1320
362.159	2870
362.243	2919
362.327	680
362.411	2641
362.495	806
362.580	-59
362.664	500
362.748	-390
362.832	284
362.916	333
363.000	4345
363.084	15193
363.168	31961
363.252	6686
363.336	1585
363.420	1656
363.503	8696
363.587	8673
363.671	1676
363.755	195
363.839	1666
363.923	-133
364.007	1032
364.091	1207
364.175	1471
364.258	13293
364.342	5288
364.426	4677
364.510	1406
364.594	2266
364.677	4258
364.761	23323
364.845	18470
364.929	3599
365.013	3339
365.096	1995
365.180	2145
365.264	3419
365.347	13617
365.431	4686
365.515	733
365.598	-249
365.682	1024
365.766	345
365.849	1056
365.933	71
366.017	791
366.100	-709
366.184	-760
366.267	540
366.351	942
366.435	-340
366.518	-168
366.602	-165
366.685	-651
366.769	-639
366.852	567
366.936	2237
367.019	443
367.103	-722
367.186	1655
367.270	13
367.353	-595
367.436	508
367.520	15
367.603	442
367.687	-282
367.770	1845
367.853	1753
367.937	6895
368.020	12636
368.104	1471
368.187	1392
368.270	2804
368.353	2357
368.437	1853
368.520	3624
368.603	2525
368.687	6525
368.770	14178
368.853	2351
368.936	2631
369.020	1695
369.103	1094
369.186	-124
369.269	351
369.352	767
369.436	1449
369.519	801
369.602	-824
369.685	962
369.768	217
369.851	882
369.934	-170
370.018	72
370.101	1150
370.184	2613
370.267	971
370.350	1647
370.433	2772
370.516	12221
370.599	13914
370.682	2205
370.765	6658
370.848	9302
370.931	17601
371.014	6846
371.097	-538
371.180	782
371.263	-5
371.346	-1203
371.429	167
371.511	100
371.594	-78
371.677	1337
371.760	1900
371.843	2214
371.926	14776
372.009	37370
372.091	11865
372.174	5988
372.257	18241
372.340	6391
372.423	2291
372.505	3568
372.588	341
372.671	4629
372.754	16488
372.836	8147
372.919	3848
373.002	6322
373.085	1443
373.167	1844
373.250	5979
373.332	17860
373.415	23249
373.498	48359
373.580	17234
373.663	20027
373.746	30799
373.828	5261
373.911	1837
373.993	1469
374.076	6337
374.159	5927
374.241	3399
374.324	13926
374.406	9584
374.489	13935
374.571	43836
374.654	18159
374.736	6475
374.819	23963
374.901	36006
374.983	36649
375.066	5405
375.148	1850
375.231	4533
375.313	10141
375.395	3200
375.478	567
375.560	308
375.643	1220
375.725	5202
375.807	29983
375.890	21286
375.972	3295
376.054	2816
376.136	3024
376.219	1705
376.301	7741
376.383	26434
376.465	10192
376.548	3144
376.630	5518
376.712	22501
376.794	10411
376.877	702
376.959	-809
377.041	718
377.123	1091
377.205	332
377.287	-333
377.369	-201
377.452	-325
377.534	-1117
377.616	268
377.698	94
377.780	-506
377.862	81
377.944	481
378.026	-902
378.108	368
378.190	-700
378.272	360
378.354	-747
378.436	-265
378.518	43
378.600	2142
378.682	2762
378.764	9075
378.846	6905
378.928	492
379.010	1529
379.091	1496
379.173	250
379.255	-1290
379.337	-244
379.419	3254
379.501	14919
379.583	5852
379.664	-19
379.746	1592
379.828	8860
379.910	12170
379.991	11645
380.073	1469
380.155	19
380.237	-278
380.318	1
380.400	-362
380.482	715
380.564	1809
380.645	813
380.727	1457
380.809	744
380.890	412
380.972	-558
381.053	60
381.135	532
381.217	1511
381.298	9249
381.380	4395
381.461	2795
381.543	20198
381.624	26600
381.706	3960
381.787	881
381.869	1636
381.951	7651
382.032	36722
382.113	23992
382.195	2082
382.276	1943
382.358	4503
382.439	20999
382.521	22365
382.602	36133
382.684	13930
382.765	22389
382.846	17781
382.928	13160
383.009	6726
383.090	4283
383.172	17518
383.253	28262
383.334	13694
383.416	27467
383.497	14330
383.578	2509
383.659	4059
383.741	15987
383.822	46088
383.903	23554
383.984	13366
384.066	34303
384.147	20906
384.228	3021
384.309	723
384.390	150
384.471	664
384.553	638
384.634	1153
384.715	1130
384.796	-86
384.877	144
384.958	8325
385.039	10224
385.120	2474
385.201	1111
385.282	483
385.363	195
385.444	383
385.525	2193
385.606	14912
385.687	13793
385.768	2196
385.849	2127
385.930	15777
386.011	31993
386.092	7371
386.173	310
386.254	406
386.335	609
386.416	1062
386.496	4846
386.577	9165
386.658	2779
386.739	494
386.820	624
386.901	-1295
386.981	136
387.062	-742
387.143	137
387.224	7841
387.304	8052
387.385	2062
387.466	-688
387.547	1126
387.627	-1161
387.708	2823
387.789	16817
387.869	23783
387.950	6311
388.031	472
388.111	-1660
388.192	997
388.273	1898
388.353	981
388.434	-547
388.514	1625
388.595	18237
388.676	23745
388.756	10224
388.837	7679
388.917	4092
388.998	-898
389.078	-142
389.159	-106
389.239	-1541
389.320	1745
389.400	-937
389.480	3532
389.561	10623
389.641	5875
389.722	468
389.802	1238
389.883	3789
389.963	13701
390.043	8072
390.124	486
390.204	1664
390.284	8858
390.365	5330
390.445	3977
390.525	10683
390.605	10335
390.686	3303
390.766	1375
390.846	491
390.927	-565
391.007	-1605
391.087	944
391.167	-103
391.247	-668
391.328	36
391.408	935
391.488	64
391.568	-820
391.648	-344
391.728	426
391.808	1158
391.888	868
391.969	4885
392.049	9045
392.129	3326
392.209	3028
392.289	13051
392.369	5578
392.449	1532
392.529	641
392.609	1394
392.689	2067
392.769	11168
392.849	10400
392.929	5530
393.009	13788
393.089	10618
393.169	4269
393.248	12676
393.328	79999
393.408	85647
393.488	14107
393.568	2012
393.648	803
393.728	737
393.807	-360
393.887	626
393.967	886
394.047	180
394.127	1015
394.206	3884
394.286	14197
394.366	69992
394.446	78750
394.525	16427
394.605	3401
394.685	1563
394.764	4179
394.844	4864
394.924	3266
395.003	1632
395.083	684
395.163	756
395.242	-8
395.322	1131
395.402	-415
395.481	1730
395.561	2185
395.640	6933
395.720	5524
395.799	8320
395.879	6848
395.958	5386
396.038	21642
396.117	91591
396.197	104327
396.276	27478
396.356	6166
396.435	2795
396.515	2209
396.594	1473
396.673	4222
396.753	19149
396.832	78895
396.912	56238
396.991	11033
397.070	2357
397.150	-270
397.229	552
397.308	-109
397.388	234
397.467	333
397.546	289
397.625	-1138
397.705	1506
397.784	-357
397.863	-889
397.942	-772
398.022	-54
398.101	316
398.180	6010
398.259	2360
398.338	963
398.417	-412
398.497	-834
398.576	107
398.655	-1180
398.734	-295
398.813	-474
398.892	843
398.971	6839
399.050	2757
399.129	-754
399.208	-80
399.287	-14
399.366	-809
399.445	-733
399.524	-667
399.603	-1821
399.682	495
399.761	1351
399.840	8252
399.919	6644
399.998	171
400.077	-857
400.156	-995
400.235	130
400.313	-745
400.392	-1574
400.471	4386
400.550	6425
400.629	1062
400.708	-62
400.786	-1210
400.865	51
400.944	-1048
401.023	1907
401.102	-798
401.180	-493
401.259	-340
401.338	-960
401.416	193
401.495	-684
401.574	270
401.652	-1145
401.731	-431
401.810	-1705
401.888	-554
401.967	-1213
402.046	-533
402.124	73
402.203	-1447
402.281	-824
402.360	-267
402.438	1312
402.517	-798
402.596	-717
402.674	-1485
402.753	-937
402.831	-458
402.910	-235
402.988	-106
403.066	2270
403.145	2393
403.223	1218
403.302	2089
403.380	1336
403.459	1164
403.537	-1035
403.615	-302
403.694	-1698
403.772	-121
403.850	-777
403.929	-725
404.007	-1291
404.085	829
404.164	-251
404.242	-41
404.320	5816
404.398	19248
404.477	19139
404.555	30064
404.633	28010
404.711	15356
404.789	9316
404.868	815
404.946	-756
405.024	136
405.102	-585
405.180	-735
405.258	-1768
405.336	-121
405.415	-1590
405.493	275
405.571	455
405.649	-872
405.727	-2526
405.805	243
405.883	-1470
405.961	-375
406.039	-1077
406.117	-1866
406.195	250
406.273	2671
406.351	21782
406.429	13668
406.507	-128
406.585	-1332
406.663	-454
406.740	-401
406.818	-1448
406.896	-770
406.974	-368
407.052	-841
407.130	11269
407.208	17286
407.285	2516
407.363	-923
407.441	-727
407.519	-977
407.596	-706
407.674	672
407.752	3534
407.830	3303
407.907	39
407.985	-1727
408.063	-1280
408.141	-1453
408.218	-463
408.296	-2247
408.373	-1046
408.451	-722
408.529	-656
408.606	-1117
408.684	-1517
408.762	-484
408.839	-899
408.917	-1165
408.994	-1397
409.072	-1987
409.149	-2105
409.227	-500
409.304	-921
409.382	-950
409.459	-1415
409.537	-458
409.614	-1217
409.692	-1020
409.769	-1583
409.846	-397
409.924	-650
410.001	-1850
410.079	-1275
410.156	56
410.233	-973
410.311	-1200
410.388	-1559
410.465	-681
410.543	-1304
410.620	-427
410.697	-879
410.775	-647
410.852	-2442
410.929	-182
411.006	-262
411.083	-862
411.161	-531
411.238	-314
411.315	-1035
411.392	-810
411.469	-1187
411.547	-473
411.624	-2070
411.701	-1250
411.778	-884
411.855	-327
411.932	-1773
412.009	-1520
412.086	-339
412.163	-1331
412.240	-1146
412.317	79
412.394	-1608
412.471	-84
412.548	-1085
412.625	-1652
412.702	-617
412.779	-423
412.856	-359
412.933	-1179
413.010	-1307
413.087	-798
413.164	2311
413.241	4601
413.318	-664
413.395	-394
413.471	-879
413.548	-1372
413.625	-767
413.702	-2263
413.779	-1208
413.855	-1571
413.932	-1886
414.009	-1583
414.086	-1459
414.162	-715
414.239	-794
414.316	1985
414.393	9287
414.469	1249
414.546	-1511
414.623	-1741
414.699	-1252
414.776	-1226
414.853	-1602
414.929	-1029
415.006	-1438
415.082	-1098
415.159	-814
415.236	-1015
415.312	-615
415.389	-621
415.465	-1290
415.542	39
415.618	-1375
415.695	-902
415.771	-1422
415.848	-1324
415.924	-753
416.000	-1803
416.077	-946
416.153	-1980
416.230	-1862
416.306	-1503
416.383	-1545
416.459	-964
416.535	-2169
416.612	-1316
416.688	-1538
416.764	-1581
416.841	-2633
416.917	-1408
416.993	-1311
417.069	-1322
417.146	-669
417.222	-743
417.298	-1336
417.374	-1797
417.451	-1569
417.527	-1068
417.603	-913
417.679	-540
417.755	-732
417.831	-1794
417.908	-1635
417.984	-1256
418.060	-2213
418.136	-743
418.212	-490
418.288	-1326
418.364	-438
418.440	-1959
418.516	-935
418.592	-1265
418.668	-2
418.744	1148
418.820	621
418.896	-1165
418.972	-2064
419.048	-1233
419.124	386
419.200	-451
419.276	-1570
419.352	-1834
419.428	-1430
419.504	-1070
419.579	-1351
419.655	-1319
419.731	-1263
419.807	303
419.883	654
419.959	548
420.034	-547
420.110	-690
420.186	4171
420.262	4860
420.337	-1131
420.413	-660
420.489	-1448
420.565	-396
420.640	-1794
420.716	-1209
420.792	-2185
420.867	-996
420.943	-2301
421.019	-123
421.094	-1873
421.170	-1151
421.245	-1523
421.321	-572
421.397	-1743
421.472	363
421.548	575
421.623	1268
421.699	-1030
421.774	-803
421.850	-1945
421.925	424
422.001	-133
422.076	-910
422.152	-1126
422.227	-264
422.302	-142
422.378	718
422.453	101
422.529	6671
422.604	33862
422.679	81303
422.755	40577
422.830	8629
422.905	1732
422.981	-460
423.056	-1016
423.131	-557
423.207	-757
423.282	-1348
423.357	675
423.432	-531
423.508	-1137
423.583	319
423.658	16
423.733	-1414
423.808	-664
423.883	-440
423.959	-1216
424.034	-1979
424.109	-1337
424.184	-1848
424.259	-1596
424.334	-1071
424.409	-1868
424.484	-520
424.559	-1311
424.634	-1244
424.709	-815
424.784	-328
424.859	-2331
424.934	-691
425.009	2354
425.084	6035
425.159	449
425.234	-517
425.309	-1961
425.384	-8
425.459	191
425.534	-543
425.609	-1968
425.683	-1010
425.758	-1089
425.833	-1081
425.908	-959
425.983	461
426.058	5594
426.132	1599
426.207	-1270
426.282	-241
426.357	-1671
426.431	-1368
426.506	-1507
426.581	-791
426.655	-1228
426.730	-1321
426.805	-1634
426.879	-1036
426.954	-1008
427.029	-826
427.103	6186
427.178	18877
427.253	8098
427.327	-326
427.402	-892
427.476	938
427.551	-241
427.625	-773
427.700	-977
427.774	-1673
427.849	-1145
427.923	-1556
427.998	-1126
428.072	-1621
428.147	-814
428.221	1505
428.296	4850
428.370	2267
428.444	-1053
428.519	-1103
428.593	-805
428.667	-75
428.742	-160
428.816	118
428.890	2924
428.965	6935
429.039	1033
429.113	305
429.188	-895
429.262	-1274
429.336	-47
429.410	2061
429.485	242
429.559	272
429.633	-171
429.707	-1397
429.781	-610
429.855	3052
429.930	7277
430.004	3576
430.078	5738
430.152	4854
430.226	9828
430.300	11375
430.374	-369
430.448	-290
430.522	593
430.596	5486
430.670	4583
430.744	12262
430.818	23392
430.892	4838
430.966	-1078
431.040	-733
431.114	-2282
431.188	-1280
431.262	-1074
431.336	-1170
431.410	-808
431.484	-424
431.557	1004
431.631	-945
431.705	-1308
431.779	-310
431.853	3546
431.927	2524
432.000	-1577
432.074	-1945
432.148	-1252
432.222	-1056
432.295	-1047
432.369	-1790
432.443	-1362
432.516	5980
432.590	20022
432.664	7238
432.737	-796
432.811	-1315
432.885	-1511
432.958	-1057
433.032	-2104
433.106	-1599
433.179	-1476
433.253	-1048
433.326	-1440
433.400	-1561
433.473	-1657
433.547	-1949
433.620	-1945
433.694	-504
433.767	-290
433.841	-1830
433.914	-1168
433.988	-1527
434.061	-1064
434.134	-1620
434.208	-2496
434.281	-2113
434.355	-1720
434.428	-1350
434.501	-2359
434.575	-2196
434.648	-2119
434.721	-1765
434.795	-1429
434.868	-1573
434.941	-2421
435.014	-1776
435.088	-1843
435.161	-1338
435.234	-1466
435.307	-1084
435.381	-1909
435.454	-842
435.527	-1126
435.600	-1876
435.673	-1756
435.746	-1649
435.819	-1541
435.892	-1102
435.966	-1462
436.039	-1779
436.112	-1302
436.185	-1971
436.258	-1303
436.331	-2075
436.404	-1659
436.477	-1781
436.550	-1812
436.623	-1104
436.696	-2246
436.769	-1420
436.842	-2216
436.915	-1746
436.987	-1525
437.060	-763
437.133	-1700
437.206	-1986
437.279	-1376
437.352	-1616
437.425	-2551
437.498	-1391
437.570	-653
437.643	-705
437.716	-1128
437.789	-1132
437.861	-1070
437.934	1014
438.007	-120
438.080	-1603
438.152	-1203
438.225	-36
438.298	8949
438.370	31933
438.443	14408
438.516	1361
438.588	-309
438.661	-1820
438.734	-748
438.806	-1440
438.879	-1279
438.951	-1029
439.024	-167
439.096	-286
439.169	-993
439.241	-799
439.314	-2029
439.386	-1378
439.459	-363
439.531	-1083
439.604	-1280
439.676	-1244
439.749	-1961
439.821	-1625
439.893	-1390
439.966	-1775
440.038	-1150
440.110	-1169
440.183	-1380
440.255	-1995
440.327	-169
440.400	2238
440.472	16843
440.544	13186
440.617	-167
440.689	574
440.761	-458
440.833	979
440.905	675
440.978	-504
441.050	-1874
441.122	-861
441.194	-2102
441.266	-1394
441.338	-2402
441.411	-720
441.483	2646
441.555	6991
441.627	721
441.699	-760
441.771	-1071
441.843	-986
441.915	-1236
441.987	-1859
442.059	-918
442.131	-830
442.203	-1077
442.275	-1310
442.347	-694
442.419	-259
442.491	501
442.563	4689
442.635	2939
442.706	1773
442.778	1630
442.850	-1053
442.922	-1799
442.994	-901
443.066	-574
443.137	-692
443.209	-1419
443.281	-831
443.353	-900
443.425	2588
443.496	10406
443.568	13711
443.640	4436
443.711	455
443.783	-1562
443.855	-1081
443.926	-1116
443.998	-937
444.070	-1609
444.141	-1288
444.213	-730
444.285	265
444.356	-1551
444.428	-561
444.499	-1616
444.571	-1390
444.642	-1217
444.714	-1186
444.785	-1002
444.857	366
444.928	-420
445.000	372
445.071	-981
445.143	-200
445.214	-814
445.285	706
445.357	1449
445.428	8804
445.500	22805
445.571	17616
445.642	7444
445.714	2693
445.785	2439
445.856	-391
445.928	-321
445.999	-678
446.070	-687
446.141	410
446.213	-606
446.284	-899
446.355	-904
446.426	-2296
446.497	-1396
446.569	-899
446.640	-1125
446.711	-425
446.782	-1438
446.853	-918
446.924	-927
446.995	-551
447.066	-1229
447.138	-970
447.209	-1138
447.280	-1747
447.351	-1283
447.422	-1386
447.493	-1712
447.564	-1004
447.635	-972
447.706	-1172
447.777	-1564
447.847	-1521
447.918	-2130
447.989	-181
448.060	-467
448.131	-296
448.202	579
448.273	410
448.344	-1321
448.414	-1428
448.485	-1346
448.556	-1052
448.627	-1399
448.698	-412
448.768	-1499
448.839	-1381
448.910	-1481
448.981	-603
449.051	-1279
449.122	-1136
449.193	-1078
449.263	-1425
449.334	-2010
449.405	-782
449.475	-212
449.546	-1054
449.616	-1044
449.687	-179
449.758	-856
449.828	-830
449.899	-1485
449.969	-1596
450.040	-1244
450.110	-1384
450.181	-493
450.251	-1005
450.322	-1379
450.392	-389
450.463	-727
450.533	-1429
450.604	-850
450.674	-1212
450.744	-1183
450.815	-1505
450.885	-1072
450.955	-857
451.026	-1133
451.096	-1149
451.166	-1436
451.237	-838
451.307	396
451.377	837
451.447	-1442
451.518	-779
451.588	-1380
451.658	-878
451.728	-1091
451.799	934
451.869	2491
451.939	159
452.009	-1818
452.079	-729
452.149	-903
452.219	-734
452.289	1530
452.360	2270
452.430	-628
452.500	-361
452.570	-518
452.640	-468
452.710	-5
452.780	2538
452.850	2033
452.920	1360
452.990	314
453.060	256
453.129	-1275
453.199	-215
453.269	2498
453.339	9042
453.409	15635
453.479	11633
453.549	18460
453.619	19099
453.688	10176
453.758	735
453.828	-193
453.898	-636
453.968	-864
454.037	-322
454.087	-898
454.107	-1153
454.168	-1135
454.177	-1157
454.247	-888
454.249	-861
454.316	-745
454.330	-721
454.386	-755
454.411	-503
454.456	-454
454.492	673
454.525	1663
454.574	654
454.595	207
454.655	-293
454.665	-372
454.734	-941
454.736	-867
454.804	473
454.817	988
454.873	2194
454.898	2706
454.943	3300
454.979	1823
455.013	636
455.060	0
455.082	-82
455.141	1334
455.152	1609
455.221	3472
455.222	3644
455.291	10157
455.303	11509
455.360	15165
455.384	20170
455.430	23629
455.465	18452
455.499	14621
455.546	7935
455.569	5098
455.627	3099
455.638	2799
455.707	-91
455.708	-66
455.777	26
455.789	62
455.846	-32
455.869	-193
455.916	-379
455.950	-63
455.985	128
456.031	228
456.054	259
456.112	255
456.124	242
456.193	224
456.193	202
456.262	459
456.274	516
456.332	652
456.355	800
456.401	803
456.436	432
456.470	76
456.516	187
456.540	230
456.597	257
456.609	242
456.678	562
456.678	548
456.747	-24
456.759	18
456.817	124
456.840	142
456.886	99
456.920	357
456.955	595
457.001	478
457.024	488
457.082	825
457.093	832
457.162	905
457.163	928
457.232	774
457.243	788
457.301	561
457.324	535
457.370	777
457.405	910
457.439	863
457.485	926
457.508	1056
457.566	1248
457.577	1272
457.646	1754
457.647	1772
457.715	1782
457.727	1939
457.784	2716
457.808	2866
457.853	3103
457.889	3912
457.922	4085
457.969	3607
457.991	3666
458.050	4279
458.060	4300
458.129	4785
458.130	4830
458.198	5115
458.211	4870
458.267	2903
458.292	2394
458.336	2271
458.372	1933
458.405	2091
458.453	2913
458.474	3559
458.533	5412
458.543	5640
458.611	8444
458.614	8559
458.680	6225
458.694	5483
458.749	3825
458.775	2821
458.818	1712
458.855	1793
458.887	2015
458.936	1645
458.955	1412
459.016	1338
459.024	1367
459.093	1841
459.097	1871
459.162	2122
459.177	2211
459.230	2609
459.257	2812
459.299	3035
459.338	3106
459.368	3242
459.418	3939
459.437	3793
459.499	2879
459.505	2846
459.574	2079
459.579	2112
459.643	2652
459.659	2678
459.711	2876
459.740	2876
459.780	2949
459.820	3394
459.849	3593
459.900	3472
459.917	3340
459.981	3163
459.986	3140
460.054	2952
460.061	2992
460.123	3775
460.141	3827
460.191	4293
460.222	5006
460.260	5761
460.302	6144
460.328	5630
460.382	4537
460.397	4513
460.462	4523
460.465	4632
460.534	7855
460.543	8210
460.602	22851
460.623	28310
460.671	44645
460.703	57363
460.739	50385
460.783	41961
460.808	34358
460.864	8376
460.876	7261
460.944	4519
460.945	4476
461.013	3881
461.024	3744
461.081	3820
461.104	3978
461.150	3719
461.184	3415
461.218	3555
461.264	3867
461.286	3830
461.345	3627
461.355	3594
461.423	3718
461.425	3716
461.491	3690
461.505	3705
461.559	6073
461.585	7100
461.628	10945
461.665	14725
461.696	16252
461.745	18972
461.764	16137
461.825	6140
461.832	6086
461.901	4724
461.905	4665
461.969	3757
461.985	3722
462.037	4323
462.065	4514
462.105	4478
462.145	4467
462.173	5852
462.225	8275
462.241	9089
462.305	13137
462.310	12806
462.378	6817
462.385	6139
462.446	4874
462.465	4417
462.514	4319
462.545	4677
462.582	4762
462.625	4262
462.650	4125
462.705	4338
462.718	4392
462.785	4622
462.786	4650
462.854	5875
462.865	6066
462.922	7034
462.945	7596
462.990	6367
463.025	5082
463.058	4440
463.104	3746
463.126	3789
463.184	3727
463.194	3845
463.262	4871
463.264	4893
463.330	4348
463.344	4343
463.398	5162
463.424	5311
463.466	5075
463.504	5038
463.533	4971
463.583	4755
463.601	4924
463.663	5738
463.669	5858
463.737	6798
463.743	6905
463.805	9776
463.823	10593
463.873	15316
463.903	18203
463.940	19317
463.982	20539
464.008	16587
464.062	8199
464.076	7888
464.142	5569
464.144	5557
464.211	5226
464.221	5237
464.279	5664
464.301	5645
464.347	5454
464.381	5490
464.414	6184
464.461	7271
464.482	7659
464.540	8371
464.550	8174
464.617	6710
464.620	6651
464.685	7585
464.699	7762
464.753	9832
464.779	10838
464.820	11642
464.859	12510
464.888	12056
464.938	11158
464.956	11260
465.018	11337
465.023	11245
465.091	9903
465.098	9752
465.158	9725
465.177	9715
465.226	9694
465.257	9469
465.293	9603
465.336	10052
465.361	10779
465.416	12146
465.428	12540
465.495	14588
465.496	14654
465.563	20917
465.575	21972
465.631	25495
465.654	27071
465.698	18411
465.734	10919
465.765	10212
465.813	9090
465.833	9096
465.893	9269
465.900	9285
465.968	9251
465.972	9219
466.035	9157
466.052	9176
466.102	9677
466.131	9879
466.170	9903
466.210	9954
466.237	10173
466.290	10542
466.304	10444
466.369	9727
466.372	9774
466.439	10705
466.449	10810
466.506	11856
466.528	12230
466.573	14709
466.607	16519
466.641	22053
466.687	29669
466.708	32503
466.766	40223
466.775	37580
466.842	17083
466.845	16074
466.909	13256
466.925	12561
466.977	12472
467.004	12423
467.044	12509
467.083	12538
467.111	14112
467.163	16999
467.178	17686
467.242	20360
467.245	20273
467.312	17604
467.321	17211
467.379	16385
467.400	16037
467.446	16878
467.480	17425
467.559	16110
467.638	13974
467.717	13536
467.796	15405
467.875	15750
467.955	15656
468.034	19726
468.113	34316
468.192	50072
468.271	17917
468.350	13157
468.429	12850
468.508	13134
468.588	12861
468.667	12377
468.746	13916
468.825	12874
468.904	11790
468.983	13331
469.062	18292
469.141	21613
469.220	12728
469.299	11945
469.378	13378
469.456	16400
469.535	15356
469.614	14007
469.693	14101
469.772	16036
469.851	19799
469.930	15293
470.009	13364
470.088	13332
470.166	13977
470.245	14694
470.324	17251
470.403	15378
470.482	13563
470.560	12676
470.639	13378
470.718	14162
470.797	12705
470.875	13390
470.954	15910
471.033	17814
471.111	10526
471.190	10321
471.269	10268
471.347	10386
471.426	11242
471.505	12911
471.583	14137
471.662	13793
471.740	11531
471.819	12104
471.898	11797
471.976	11059
472.055	10982
472.133	12694
472.212	15120
472.290	15822
472.369	10829
472.447	10948
472.526	10630
472.604	11867
472.683	11947
472.761	11636
472.839	11163
472.918	11132
472.996	11085
473.075	11339
473.153	12014
473.231	10254
473.310	12154
473.388	11858
473.466	10599
473.545	13018
473.623	15801
473.701	14777
473.780	11071
473.858	10686
473.936	12802
474.014	10777
474.093	11850
474.171	14175
474.249	18651
474.327	14153
474.405	10164
474.484	10291
474.562	9629
474.640	9842
474.718	10938
474.796	9837
474.874	10701
474.952	9500
475.030	9736
475.108	9761
475.187	10968
475.265	10475
475.343	12414
475.421	13223
475.499	11018
475.577	11158
475.655	12666
475.733	19731
475.811	31255
475.889	28206
475.966	20629
476.044	10158
476.122	10544
476.200	11559
476.278	11103
476.356	9367
476.434	10012
476.512	10243
476.590	11704
476.667	10695
476.745	8858
476.823	9767
476.901	8129
476.979	9254
477.056	9308
477.134	9980
477.212	10284
477.290	9209
477.367	8482
477.445	7892
477.523	9546
477.601	9027
477.678	8715
477.756	9864
477.834	10583
477.911	7841
477.989	8964
478.066	8278
478.144	9638
478.222	9341
478.299	10212
478.377	10838
478.454	8670
478.532	8300
478.609	9007
478.687	9641
478.764	7968
478.842	7904
478.919	9717
478.997	9414
479.074	7727
479.152	8679
479.229	10888
479.307	8214
479.384	8064
479.461	6983
479.539	7993
479.616	8981
479.694	8499
479.771	8614
479.848	9038
479.926	10630
480.003	12287
480.080	8279
480.157	8164
480.235	6857
480.312	6892
480.389	7564
480.467	12327
480.544	13588
480.621	8881
480.698	8525
480.775	9698
480.853	9037
480.930	8363
481.007	8182
481.084	8910
481.161	12066
481.238	11256
481.315	6540
481.392	7375
481.470	7064
481.547	7890
481.624	7340
481.701	7376
481.778	7526
481.855	8387
481.932	10085
482.009	16640
482.086	11419
482.163	7395
482.240	7927
482.317	10442
482.393	9189
482.470	7465
482.547	7705
482.624	6737
482.701	7541
482.778	7456
482.855	7124
482.932	6681
483.009	6701
483.085	8008
483.162	9879
483.239	9583
483.316	6058
483.393	7521
483.469	7199
483.546	8600
483.623	8152
483.699	7027
483.776	7685
483.853	9369
483.930	11436
484.006	24328
484.083	42895
484.160	30931
484.236	50414
484.313	38887
484.389	28495
484.466	25950
484.543	23614
484.619	23341
484.696	24542
484.772	24195
484.849	24855
484.925	22373
485.002	22465
485.078	23729
485.155	23829
485.231	21881
485.308	21254
485.384	22087
485.461	23900
485.537	32638
485.614	37358
485.690	21538
485.766	20427
485.843	21522
485.919	24609
485.995	27429
486.072	18713
486.148	18491
486.224	19044
486.301	19931
486.377	21347
486.453	22228
486.530	22183
486.606	28760
486.682	31229
486.758	31995
486.835	35361
486.911	29633
486.987	40298
487.063	43807
487.139	51822
487.215	41691
487.292	25058
487.368	21977
487.444	22174
487.520	25741
487.596	23826
487.672	24769
487.748	34692
487.824	44857
487.900	28746
487.976	22221
488.052	21497
488.128	25655
488.204	21137
488.280	19304
488.356	21512
488.432	33525
488.508	47106
488.584	22007
488.660	17942
488.736	17743
488.812	18606
488.888	24220
488.964	27860
489.039	46886
489.115	69820
489.191	46130
489.267	19800
489.343	17666
489.418	15790
489.494	15898
489.570	14336
489.646	17422
489.722	15217
489.797	16068
489.873	20193
489.949	35764
490.024	32814
490.100	15549
490.176	15505
490.251	16616
490.327	20072
490.403	15344
490.478	14598
490.554	12893
490.629	12894
490.705	12803
490.781	14729
490.856	13495
490.932	15181
491.007	14777
491.083	15033
491.158	14287
491.234	16083
491.309	27379
491.385	28554
491.460	14777
491.536	14204
491.611	13558
491.686	14047
491.762	18261
491.837	30082
491.913	47725
491.988	63752
492.063	81740
492.139	26633
492.214	17160
492.289	11805
492.365	11534
492.440	13263
492.515	12794
492.590	12873
492.666	11007
492.741	13327
492.816	17913
492.891	13165
492.967	11993
493.042	12628
493.117	15123
493.192	16700
493.267	31333
493.342	106811
493.418	155484
493.493	25213
493.568	11131
493.643	10974
493.718	11577
493.793	15105
493.868	17927
493.943	12356
494.018	11258
494.093	10188
494.168	10368
494.243	9910
494.318	9811
494.393	9078
494.468	9267
494.543	8929
494.618	10673
494.693	9870
494.768	10023
494.842	9846
494.917	8522
494.992	10353
495.067	9867
495.142	9261
495.217	10353
495.292	11021
495.366	12289
495.441	14091
495.516	16694
495.591	20340
495.665	56130
495.740	132452
495.815	62177
495.890	14841
495.964	10516
496.039	13589
496.114	12490
496.188	13451
496.263	14010
496.338	11108
496.412	12709
496.487	14958
496.561	14657
496.636	15471
496.710	12544
496.785	13204
496.860	14293
496.934	13205
497.009	12425
497.083	12867
497.158	13058
497.232	15086
497.307	16782
497.381	14459
497.455	15364
497.530	19836
497.604	16137
497.679	16437
497.753	23064
497.827	27602
497.902	26128
497.976	31259
498.050	59279
498.125	200831
498.199	212826
498.273	37329
498.348	27673
498.422	24454
498.496	24249
498.570	22460
498.645	18632
498.719	19207
498.793	21918
498.867	27842
498.941	34556
499.016	80832
499.090	222059
499.164	79297
499.238	15795
499.312	11988
499.386	15553
499.460	14704
499.534	13784
499.609	15274
499.683	20340
499.757	20262
499.831	36852
499.905	140559
499.979	136763
500.053	22769
500.127	23315
500.201	17714
500.275	13135
500.349	12627
500.422	13597
500.496	18855
500.570	34628
500.644	78075
500.718	150624
500.792	34714
500.866	12124
500.940	14574
501.013	13085
501.087	12332
501.161	20421
501.235	24756
501.309	44773
501.382	124513
501.456	111569
501.530	25660
501.603	41436
501.677	18078
501.751	9467
501.825	10922
501.898	18863
501.972	50349
502.046	33188
502.119	10821
502.193	23214
502.266	54647
502.340	27016
502.413	23803
502.487	46472
502.561	26165
502.634	11018
502.708	9073
502.781	8368
502.855	7364
502.928	6328
503.002	6845
503.075	6190
503.149	7630
503.222	7460
503.295	8422
503.369	10496
503.442	12283
503.516	35186
503.589	90135
503.662	59307
503.736	19151
503.809	42696
503.882	35550
503.956	50020
504.029	45948
504.102	21446
504.175	22232
504.249	11512
504.322	9052
504.395	9678
504.468	6747
504.542	7064
504.615	5404
504.688	6249
504.761	5857
504.834	8144
504.907	8953
504.980	14381
505.053	7912
505.127	9443
505.200	11210
505.273	9581
505.346	5920
505.419	5242
505.492	6008
505.565	5346
505.638	5923
505.711	5245
505.784	4545
505.857	5199
505.930	6135
506.003	4995
506.076	7188
506.149	7721
506.221	8951
506.294	9801
506.367	18100
506.440	67139
506.513	35605
506.586	9901
506.659	5967
506.731	6053
506.804	6356
506.877	10098
506.950	7414
507.022	7177
507.095	5788
507.168	9035
507.241	6174
507.313	5656
507.386	5440
507.459	8411
507.531	6189
507.604	5595
507.677	5770
507.749	4817
507.822	8401
507.894	15344
507.967	19622
508.040	12349
508.112	10695
508.185	9718
508.257	9087
508.330	13633
508.402	9680
508.475	10982
508.547	10284
508.620	9398
508.692	12713
508.765	9978
508.837	7218
508.909	7955
508.982	8336
509.054	8812
509.127	7974
509.199	8068
509.271	6622
509.344	7055
509.416	7447
509.488	8045
509.560	8556
509.633	8785
509.705	10876
509.777	11013
509.849	14591
509.922	11713
509.994	10735
510.066	10606
510.138	10910
510.210	20439
510.283	17626
510.355	14609
510.427	13701
510.499	12837
510.571	12239
510.643	11611
510.715	15724
510.787	13335
510.859	11915
510.931	12226
511.003	14826
511.076	15210
511.148	10842
511.219	12017
511.291	16316
511.363	17376
511.435	11005
511.507	9726
511.579	11321
511.651	10664
511.723	9326
511.795	9073
511.867	9691
511.939	10110
512.010	15569
512.082	13908
512.154	8683
512.226	9935
512.298	14308
512.369	20521
512.441	15741
512.513	13791
512.585	11148
512.656	12016
512.728	11805
512.800	10456
512.871	10741
512.943	10477
513.015	8431
513.086	9935
513.158	10552
513.230	10308
513.301	12855
513.373	14661
513.444	10490
513.516	9353
513.588	8301
513.659	10328
513.731	10704
513.802	9927
513.874	17315
513.945	27833
514.016	12393
514.088	9396
514.159	9052
514.231	12288
514.302	17951
514.374	12991
514.445	11416
514.516	19597
514.588	14580
514.659	10377
514.730	15708
514.802	14614
514.873	10259
514.944	13882
515.016	11701
515.087	11779
515.158	13445
515.229	18009
515.301	11594
515.372	15547
515.443	12210
515.514	11802
515.585	8407
515.656	9966
515.728	9446
515.799	8302
515.870	9610
515.941	9312
516.012	9241
516.083	12609
516.154	11874
516.225	15002
516.296	14038
516.367	12347
516.438	13499
516.509	15521
516.580	20208
516.651	48165
516.722	166878
516.793	84003
516.864	21588
516.935	20247
517.006	22210
517.077	28297
517.148	54917
517.219	163067
517.289	270587
517.360	90736
517.431	32861
517.502	12343
517.573	12498
517.643	11668
517.714	13177
517.785	13920
517.856	12702
517.926	16040
517.997	17080
518.068	21342
518.138	27432
518.209	35611
518.280	106742
518.350	407940
518.421	166816
518.492	26394
518.562	15266
518.633	13900
518.703	11485
518.774	16858
518.845	21237
518.915	21278
518.986	14275
519.056	15679
519.127	24221
519.197	34950
519.268	73019
519.338	47697
519.408	14583
519.479	17588
519.549	12587
519.620	10197
519.690	7723
519.760	8192
519.831	8301
519.901	8717
519.971	8278
520.042	7845
520.112	9259
520.182	10431
520.253	11920
520.323	8661
520.393	11690
520.463	18978
520.534	11330
520.604	26375
520.674	12704
520.744	12468
520.814	26845
520.885	24681
520.955	23086
521.025	83462
521.095	31595
521.165	9727
521.235	7702
521.305	7290
521.375	7729
521.445	8661
521.515	9039
521.585	11073
521.655	10421
521.725	10126
521.795	10108
521.865	6167
521.935	10538
522.005	9463
522.075	6748
522.145	8276
522.215	7579
522.285	9769
522.355	12601
522.424	22422
522.494	19997
522.564	11942
522.634	20537
522.704	61348
522.774	22991
522.843	8182
522.913	6807
522.983	9552
523.053	7354
523.122	8759
523.192	9247
523.262	29666
523.331	31450
523.401	9039
523.471	5481
523.540	7096
523.610	4474
523.680	6007
523.749	6043
523.819	7634
523.888	6824
523.958	5364
524.027	6249
524.097	6038
524.166	5814
524.236	6170
524.305	7094
524.375	5306
524.444	4730
524.514	7224
524.583	5651
524.653	6721
524.722	8138
524.791	4953
524.861	6022
524.930	5047
524.999	5806
525.069	8267
525.138	6842
525.207	7495
525.277	6324
525.346	6451
525.415	6206
525.484	6724
525.554	6216
525.623	6563
525.692	5391
525.761	6898
525.830	6173
525.900	7033
525.969	7973
526.038	10431
526.107	13458
526.176	35012
526.245	30517
526.314	16793
526.383	24256
526.452	27104
526.522	45554
526.591	53534
526.660	32780
526.729	17540
526.797	18406
526.867	35910
526.935	161948
527.004	164047
527.073	73678
527.142	11446
527.211	7244
527.280	9043
527.349	8357
527.418	4697
527.487	5834
527.555	4353
527.624	4744
527.693	4564
527.762	5565
527.831	4498
527.899	4335
527.968	5344
528.037	3840
528.106	5959
528.174	10133
528.243	9371
528.312	10349
528.380	15157
528.449	4937
528.518	5560
528.586	3161
528.655	5205
528.723	4074
528.792	3662
528.861	4070
528.929	3786
528.998	5134
529.066	4719
529.135	5260
529.203	4393
529.272	3349
529.340	7009
529.409	7716
529.477	6042
529.545	6671
529.614	9049
529.682	7634
529.751	9132
529.819	11487
529.887	8737
529.956	7049
530.024	7206
530.092	5425
530.161	8169
530.229	10009
530.297	7138
530.365	7010
530.434	7799
530.502	6641
530.570	6970
530.638	4599
530.707	6986
530.775	7695
530.843	5618
530.911	6146
530.979	6742
531.047	5841
531.115	8088
531.183	6079
531.252	7036
531.320	6257
531.388	5964
531.456	7116
531.524	5990
531.592	7209
531.660	8583
531.728	6844
531.796	6446
531.864	7266
531.932	7567
532.000	6482
532.067	7667
532.135	8959
532.203	10600
532.271	10880
532.339	17306
532.407	30899
532.475	21754
532.542	13610
532.610	14011
532.678	14696
532.746	48024
532.814	124882
532.881	32442
532.949	11279
533.017	8452
533.084	8224
533.152	8050
533.220	7985
533.287	7724
533.355	7548
533.423	7670
533.490	7323
533.558	8532
533.625	8171
533.693	8227
533.761	9602
533.828	10220
533.896	10332
533.963	18743
534.031	21403
534.098	24205
534.166	15313
534.233	11011
534.300	13942
534.368	12641
534.435	10990
534.503	10581
534.570	10029
534.637	8396
534.705	9122
534.772	9763
534.840	9399
534.907	21238
534.974	23994
535.041	9225
535.109	8034
535.176	7133
535.243	7135
535.310	6572
535.378	5786
535.445	6398
535.512	6260
535.579	7096
535.646	6001
535.714	7403
535.781	10108
535.848	10311
535.915	10910
535.982	14334
536.049	13069
536.116	12947
536.183	10964
536.250	9293
536.317	9076
536.384	9973
536.451	11220
536.518	11151
536.585	7145
536.652	11072
536.719	12883
536.786	9895
536.853	9964
536.920	12608
536.987	15877
537.053	15375
537.120	58618
537.187	52524
537.254	7749
537.321	6599
537.388	7040
537.454	4595
537.521	5207
537.588	4824
537.654	6765
537.721	7037
537.788	7400
537.855	6582
537.921	5638
537.988	5464
538.055	5823
538.121	5847
538.188	5993
538.254	9127
538.321	14875
538.388	10248
538.454	6319
538.521	5296
538.587	4775
538.654	4878
538.720	4927
538.787	5398
538.853	5283
538.920	6587
538.986	5831
539.053	4577
539.119	6153
539.185	5461
539.252	6743
539.318	8898
539.385	8922
539.451	6695
539.517	7850
539.583	9292
539.650	15970
539.716	43761
539.782	12941
539.849	5942
539.915	6673
539.981	5522
540.047	6472
540.114	6716
540.180	7308
540.246	5578
540.312	7884
540.378	15343
540.444	15780
540.510	16221
540.576	48109
540.643	15355
540.709	5589
540.775	5606
540.841	5842
540.907	7195
540.973	12409
541.039	8923
541.105	10150
541.171	6370
541.237	5376
541.303	6329
541.369	8057
541.435	8412
541.500	12239
541.566	8568
541.632	4365
541.698	4037
541.764	6245
541.830	4788
541.896	3971
541.961	5464
542.027	5289
542.093	5400
542.159	6131
542.224	5996
542.290	9162
542.356	11905
542.421	14806
542.487	8682
542.553	5880
542.618	7026
542.684	5540
542.750	6358
542.815	7532
542.881	11799
542.947	40723
543.012	30614
543.078	5584
543.143	4773
543.209	6008
543.274	6238
543.340	6561
543.405	15760
543.471	23698
543.536	6832
543.602	5372
543.667	4324
543.732	5775
543.798	4689
543.863	5767
543.928	4737
543.994	3780
544.059	5025
544.124	5281
544.190	5229
544.255	5433
544.320	6436
544.386	5366
544.451	8181
544.516	8338
544.581	9159
544.646	24837
544.712	41151
544.777	8717
544.842	7073
544.907	7023
544.972	5654
545.037	5903
545.102	7143
545.168	6550
545.233	6738
545.298	7266
545.363	8677
545.428	8914
545.493	14685
545.558	32429
545.623	13490
545.688	6647
545.753	5994
545.818	4798
545.883	6899
545.947	5357
546.012	7256
546.077	6925
546.142	6248
546.207	6227
546.272	8879
546.337	7599
546.401	7948
546.466	7023
546.531	5563
546.596	6427
546.661	7038
546.725	7086
546.790	5686
546.855	6597
546.919	5904
546.984	7273
547.049	6167
547.113	7367
547.178	6848
547.243	7585
547.307	8915
547.372	9420
547.436	9675
547.501	8233
547.565	8598
547.630	9472
547.695	10695
547.759	9786
547.823	9218
547.888	8879
547.952	8527
548.017	8876
548.081	9874
548.146	12120
548.210	10464
548.274	7820
548.339	7931
548.403	8780
548.468	7811
548.532	6724
548.596	8208
548.660	7905
548.725	9721
548.789	9299
548.853	10483
548.917	8621
548.982	10977
549.046	11064
549.110	6793
549.174	6895
549.238	7869
549.303	7405
549.367	9216
549.431	7031
549.495	7178
549.559	7454
549.623	8741
549.687	10075
549.751	13558
549.815	10247
549.879	10708
549.943	8688
550.007	9985
550.071	9951
550.135	13174
550.199	9896
550.263	9735
550.327	9851
550.391	11867
550.455	9962
550.519	9661
550.582	10687
550.646	13504
550.710	15159
550.774	11400
550.838	10709
550.901	10522
550.965	11931
551.029	11883
551.093	13432
551.156	14551
551.220	22831
551.284	23852
551.347	14933
551.411	24975
551.475	25896
551.538	12699
551.602	11088
551.666	10357
551.729	9154
551.793	10464
551.856	9938
551.920	11209
551.983	11029
552.047	9533
552.110	9803
552.174	10148
552.237	9194
552.301	9428
552.364	9026
552.428	9121
552.491	8455
552.554	9777
552.618	8819
552.681	10461
552.745	9359
552.808	12621
552.871	15311
552.934	13223
552.998	10004
553.061	10676
553.124	11322
553.187	13103
553.251	13640
553.314	15892
553.377	17286
553.440	28160
553.503	92177
553.567	152608
553.630	24382
553.693	12706
553.756	11295
553.819	10250
553.882	9166
553.945	9122
554.008	8873
554.071	8155
554.134	9147
554.197	9359
554.260	8865
554.323	10007
554.386	9348
554.449	9558
554.512	9792
554.575	8218
554.638	8179
554.701	8651
554.764	8982
554.827	7437
554.889	6592
554.952	7581
555.015	6845
555.078	8090
555.141	8080
555.203	7869
555.266	8021
555.329	6758
555.391	6882
555.454	7378
555.517	6944
555.580	7299
555.642	5423
555.705	6893
555.768	6766
555.830	7140
555.893	6958
555.955	6295
556.018	5998
556.080	6562
556.143	6399
556.206	6333
556.268	6766
556.330	6884
556.393	6917
556.455	6753
556.518	8618
556.580	9311
556.643	6444
556.705	6457
556.767	5148
556.830	6294
556.892	6963
556.955	9852
557.017	7400
557.079	5728
557.142	5716
557.204	7224
557.266	12516
557.328	11588
557.391	5187
557.453	4985
557.515	4603
557.577	6902
557.639	7399
557.701	5888
557.764	4735
557.826	4768
557.888	5951
557.950	4989
558.012	5366
558.074	6888
558.136	11598
558.198	23269
558.260	10535
558.322	6047
558.384	6639
558.446	7906
558.508	9255
558.570	11919
558.632	16709
558.694	24251
558.756	20436
558.818	48984
558.880	126124
558.942	37282
559.003	25485
559.065	14176
559.127	8246
559.189	9070
559.251	7782
559.312	11001
559.374	21901
559.436	71244
559.498	37400
559.559	9130
559.621	8642
559.683	10360
559.744	13933
559.806	34174
559.868	47683
559.929	11757
559.991	8604
560.052	11507
560.114	22284
560.176	16566
560.237	15852
560.299	21801
560.360	7388
560.422	5887
560.483	5593
560.545	4928
560.606	4913
560.667	4662
560.729	4778
560.790	4545
560.852	4708
560.913	5734
560.974	4635
561.036	4551
561.097	4602
561.158	5659
561.220	6144
561.281	5383
561.342	5733
561.403	7129
561.465	7060
561.526	17045
561.587	22646
561.648	7478
561.709	5437
561.771	5404
561.832	4853
561.893	4961
561.954	5273
562.015	5090
562.076	5825
562.137	5495
562.198	4897
562.259	5577
562.320	5267
562.381	6230
562.442	7499
562.503	7741
562.564	5434
562.625	4942
562.686	5827
562.747	6484
562.808	5772
562.869	4541
562.930	6464
562.991	6745
563.051	5507
563.112	5287
563.173	5044
563.234	5213
563.294	5658
563.355	5358
563.416	5653
563.477	5583
563.537	5240
563.598	5653
563.659	5981
563.720	5234
563.780	5729
563.841	6119
563.901	5781
563.962	5314
564.023	5155
564.083	5725
564.144	4977
564.204	5541
564.265	5693
564.325	5956
564.386	10771
564.446	9004
564.507	5996
564.567	4621
564.628	6234
564.688	6589
564.749	6005
564.809	5956
564.869	7005
564.930	6249
564.990	6141
565.050	5635
565.111	6111
565.171	5567
565.231	5766
565.292	5614
565.352	5395
565.412	6593
565.472	5888
565.532	6781
565.593	6331
565.653	5912
565.713	5181
565.773	6878
565.833	6731
565.893	9397
565.953	6257
566.013	6196
566.074	5679
566.134	8127
566.194	10791
566.254	12713
566.314	8262
566.374	7807
566.434	8055
566.494	6967
566.554	6990
566.614	8738
566.673	8077
566.733	9190
566.793	8697
566.853	9049
566.913	8815
566.973	9955
567.033	9685
567.092	9974
567.152	9972
567.212	9005
567.272	10352
567.331	10468
567.391	9519
567.451	10555
567.511	11480
567.570	11967
567.630	9302
567.690	9465
567.749	8193
567.809	10174
567.868	11172
567.928	12128
567.988	13163
568.047	14767
568.107	16830
568.166	22049
568.226	29136
568.285	37803
568.345	37719
568.404	33316
568.464	32130
568.523	30431
568.582	29959
568.642	32603
568.701	36601
568.761	46452
568.820	61169
568.879	66933
568.939	57326
568.998	47564
569.057	39803
569.116	35011
569.176	28624
569.235	24488
569.294	21694
569.353	18972
569.413	17559
569.472	15553
569.531	13328
569.590	11914
569.649	11157
569.708	11331
569.767	10130
569.827	11415
569.886	9838
569.945	9582
570.004	9223
570.063	9082
570.122	8319
570.181	8835
570.240	8359
570.299	9118
570.358	8423
570.417	7332
570.475	7437
570.534	7454
570.593	8206
570.652	7273
570.711	7626
570.770	5892
570.829	7247
570.887	7048
570.946	7353
571.005	6686
571.064	6083
571.122	6389
571.181	6480
571.240	5697
571.299	5249
571.357	6881
571.416	6546
571.475	6791
571.533	5998
571.592	5590
571.650	5741
571.709	5156
571.768	5206
571.826	5028
571.885	5067
571.943	4823
572.002	4651
572.060	4999
572.119	4769
572.177	4565
572.236	4210
572.294	4264
572.352	5138
572.411	4301
572.469	4595
572.528	5327
572.586	5249
572.644	5344
572.703	7280
572.761	5297
572.819	4606
572.877	4601
572.936	4691
572.994	4117
573.052	3967
573.110	4014
573.169	4014
573.227	3684
573.285	3852
573.343	4447
573.401	3791
573.459	4277
573.517	4082
573.576	3772
573.634	3746
573.692	4326
573.750	3898
573.808	3594
573.866	5197
573.924	5622
573.982	4612
574.040	4143
574.098	4001
574.155	4462
574.213	4321
574.271	4122
574.329	4575
574.387	3532
574.445	4062
574.503	4442
574.560	3195
574.618	4100
574.676	3474
574.734	4378
574.792	4420
574.849	4244
574.907	3442
574.965	3055
575.022	3743
575.080	3325
575.138	4388
575.195	4645
575.253	4123
575.311	4975
575.368	3668
575.426	3239
575.483	4277
575.541	4024
575.598	4446
575.656	3794
575.713	3745
575.771	4006
575.828	3730
575.886	4079
575.943	4833
576.001	4796
576.058	3491
576.115	4655
576.173	4723
576.230	4418
576.287	5260
576.345	4430
576.402	4478
576.459	4199
576.517	3517
576.574	3998
576.631	4912
576.688	3969
576.746	3395
576.803	4983
576.860	4104
576.917	4808
576.974	4746
577.031	4203
577.089	4427
577.146	4871
577.203	4876
577.260	4831
577.317	3917
577.374	4889
577.431	4466
577.488	4354
577.545	4260
577.602	5436
577.659	5201
577.716	6806
577.773	8136
577.830	6277
577.886	5472
577.943	6001
578.000	5368
578.057	7178
578.114	8536
578.171	11652
578.227	15562
578.284	16132
578.341	12120
578.398	11240
578.454	9850
578.511	8941
578.568	7449
578.625	6254
578.681	5942
578.738	5168
578.794	4856
578.851	6335
578.908	5610
578.964	5937
579.021	4837
579.077	5345
579.134	4589
579.190	4056
579.247	4908
579.303	4121
579.360	4142
579.416	5491
579.473	5265
579.529	4715
579.586	4839
579.642	5773
579.698	6265
579.755	6974
579.811	7006
579.867	6969
579.924	7588
579.980	9472
580.036	10721
580.093	15170
580.149	24095
580.205	29696
580.261	22369
580.317	18116
580.374	14251
580.430	12090
580.486	10184
580.542	9103
580.598	8275
580.619	8269
580.654	8272
580.692	7386
580.710	6959
580.765	7322
580.767	7343
580.823	6915
580.838	6844
580.879	6683
580.911	6532
580.935	6425
580.984	6900
580.991	6982
581.047	7600
581.057	7544
581.103	7324
581.130	7521
581.159	7732
581.203	9587
581.215	10093
581.270	10024
581.276	9943
581.326	9273
581.349	8518
581.382	7383
581.422	7284
581.438	7267
581.494	6322
581.494	6319
581.550	6579
581.567	6297
581.606	5741
581.640	5719
581.661	5695
581.713	5625
581.717	5626
581.773	5823
581.786	5829
581.829	5848
581.859	5971
581.885	6118
581.932	6255
581.940	6259
581.996	6568
582.004	6392
582.052	5516
582.077	5669
582.107	5889
582.150	6232
582.163	6305
582.219	5701
582.223	5709
582.274	6021
582.296	6051
582.330	6060
582.368	5131
582.386	4742
582.441	6239
582.441	6243
582.497	6411
582.514	6725
582.552	7467
582.587	7477
582.608	7459
582.659	6875
582.663	6826
582.719	6603
582.732	6654
582.774	6901
582.805	6851
582.830	6834
582.877	7565
582.885	7691
582.941	7553
582.950	7610
582.996	7793
583.023	8504
583.052	9455
583.095	10823
583.107	11191
583.162	12998
583.168	13282
583.218	15676
583.240	14732
583.273	13253
583.313	12227
583.328	11827
583.384	10241
583.385	10205
583.439	9266
583.458	8923
583.494	8397
583.531	7985
583.549	7753
583.603	7227
583.605	7204
583.660	7332
583.676	7365
583.715	7556
583.748	7172
583.770	6962
583.820	7276
583.825	7283
583.881	7114
583.893	6844
583.936	6010
583.965	6141
583.991	6256
584.038	6699
584.046	6793
584.101	6768
584.110	6743
584.156	6481
584.183	6698
584.211	6955
584.255	7167
584.266	7195
584.321	6862
584.328	6862
584.376	6849
584.400	6911
584.431	7043
584.472	6479
584.486	6304
584.541	7479
584.545	7452
584.596	6735
584.617	6753
584.651	6962
584.689	7106
584.706	7072
584.761	7937
584.762	7933
584.816	7370
584.834	7385
584.871	7183
584.906	7290
584.926	7390
584.978	7720
584.980	7728
585.035	7855
585.051	7881
585.090	8111
585.123	8570
585.145	8688
585.195	8100
585.200	8108
585.254	9375
585.267	9692
585.309	10405
585.340	11256
585.364	11718
585.412	10851
585.419	10737
585.473	10221
585.484	10101
585.528	9623
585.556	10620
585.583	11901
585.628	13485
585.637	13978
585.692	19859
585.700	21218
585.747	27774
585.772	25069
585.801	19878
585.845	12476
585.856	11081
585.910	10059
585.917	9997
585.965	9929
585.989	9660
586.019	9486
586.061	9826
586.074	9890
586.128	10379
586.133	10355
586.183	9790
586.205	9864
586.237	10116
586.277	10572
586.292	10716
586.346	10320
586.349	10363
586.401	11113
586.421	11164
586.455	11205
586.493	12184
586.509	12628
586.564	12875
586.565	12961
586.618	16680
586.637	16751
586.672	15665
586.709	13652
586.727	12868
586.781	12725
586.781	12712
586.835	12917
586.853	13120
586.889	13534
586.925	13677
586.944	13691
586.996	13820
586.998	13807
587.052	14588
587.068	14648
587.106	14693
587.140	14769
587.161	14881
587.212	15559
587.215	15589
587.269	16568
587.284	16801
587.323	16894
587.356	17172
587.377	17456
587.427	18405
587.431	18477
587.485	20281
587.499	20508
587.539	20543
587.571	21162
587.593	21585
587.643	22473
587.648	22589
587.702	24735
587.715	25299
587.755	26803
587.786	27895
587.810	28646
587.858	30276
587.864	30422
587.917	33295
587.930	34059
587.971	36553
588.001	38695
588.025	40511
588.073	44440
588.079	44961
588.133	51109
588.145	52656
588.187	56958
588.217	60470
588.241	64111
588.288	72540
588.295	73554
588.348	85433
588.360	88316
588.402	100083
588.431	109715
588.456	117324
588.503	134225
588.510	136948
588.564	164547
588.575	171462
588.617	197930
588.646	220460
588.671	245168
588.718	301075
588.725	311672
588.778	411716
588.789	434988
588.832	559918
588.861	643971
588.886	716616
588.932	806676
588.939	803730
588.993	754555
589.004	763595
589.047	765385
589.075	727727
589.100	652892
589.147	478359
589.154	460602
589.207	348139
589.218	330167
589.261	297408
589.290	284810
589.314	286078
589.361	303959
589.368	311170
589.421	392345
589.433	413312
589.475	539291
589.504	625540
589.528	679406
589.576	735902
589.582	724545
589.635	663528
589.647	639156
589.689	483559
589.718	364137
589.742	303495
589.790	204197
589.795	196768
589.849	145211
589.861	135281
589.902	113157
589.932	98820
589.955	90154
590.004	75066
590.009	73674
590.062	62812
590.075	60422
590.115	53952
590.146	49988
590.168	47524
590.218	42694
590.222	42261
590.275	38862
590.289	38050
590.328	35307
590.360	33489
590.381	32400
590.431	29945
590.435	29695
590.488	27467
590.503	26847
590.541	25803
590.574	25245
590.594	24487
590.645	22740
590.647	22624
590.700	21238
590.716	20926
590.753	19940
590.787	19033
590.806	18695
590.859	18154
590.859	18097
590.912	17482
590.930	17365
590.965	16714
591.001	16155
591.018	15813
591.071	14746
591.072	14781
591.124	15049
591.143	15108
591.177	14239
591.214	13559
591.230	13652
591.283	14003
591.285	14055
591.336	13342
591.356	13054
591.389	13142
591.427	13471
591.442	13244
591.495	12233
591.498	12204
591.547	11458
591.569	11146
591.600	11035
591.640	11057
591.653	11143
591.706	11512
591.711	11590
591.759	10675
591.782	10232
591.811	10997
591.853	12200
591.864	11958
591.917	10858
591.924	10723
591.969	10830
591.995	10931
592.022	10451
592.066	9739
592.075	9747
592.127	10016
592.137	10097
592.180	10564
592.208	10901
592.233	10411
592.279	9545
592.285	9480
592.338	9209
592.350	9177
592.390	9189
592.421	9241
592.443	9039
592.491	8704
592.495	8685
592.548	8818
592.562	8890
592.600	8288
592.633	7807
592.653	7654
592.704	7306
592.705	7359
592.775	7989
592.846	7742
592.916	7515
592.987	7895
593.058	7624
593.128	7365
593.199	7474
593.270	8047
593.341	7505
593.411	7608
593.482	6898
593.553	7885
593.623	6757
593.694	7239
593.764	7343
593.835	7458
593.906	6482
593.976	7072
594.047	5988
594.117	7315
594.188	7196
594.258	6606
594.329	6443
594.399	6011
594.470	6025
594.540	6753
594.611	5999
594.681	6787
594.751	6046
594.822	6844
594.892	6715
594.963	6411
595.033	6086
595.103	6447
595.174	6662
595.244	7954
595.314	8935
595.384	7274
595.455	6024
595.525	6436
595.595	6231
595.665	6410
595.736	5707
595.806	5659
595.876	6271
595.946	6624
596.016	5806
596.087	6399
596.157	5903
596.227	6403
596.297	6268
596.367	6284
596.437	6225
596.507	8158
596.577	8807
596.647	7139
596.717	5686
596.787	6741
596.857	6239
596.927	6759
596.997	6821
597.067	6782
597.137	7834
597.207	8629
597.277	5336
597.347	6933
597.417	6280
597.487	7138
597.557	7186
597.626	6743
597.696	7084
597.766	7912
597.836	8182
597.906	7134
597.975	6027
598.045	6885
598.115	7042
598.185	5729
598.254	7075
598.324	8123
598.394	7015
598.464	6766
598.533	7129
598.603	6634
598.672	6234
598.742	7435
598.812	6341
598.881	6952
598.951	6562
599.020	6153
599.090	6846
599.159	6820
599.229	6629
599.299	7301
599.368	6208
599.437	7029
599.507	6690
599.576	7482
599.646	8035
599.715	9543
599.785	6871
599.854	7218
599.924	7167
599.993	6630
600.062	6645
600.132	6860
600.201	7343
600.270	7583
600.340	7252
600.409	7495
600.478	7818
600.547	8003
600.617	7155
600.686	7553
600.755	7071
600.824	7484
600.894	7381
600.963	7295
601.032	7902
601.101	7459
601.170	6677
601.239	6650
601.308	7022
601.378	7078
601.447	7327
601.516	8002
601.585	8046
601.654	8018
601.723	8084
601.792	7919
601.861	8483
601.930	11333
601.999	9218
602.068	8536
602.137	8527
602.206	8816
602.275	9327
602.343	9114
602.412	9615
602.481	8697
602.550	9299
602.619	9771
602.688	9037
602.756	8497
602.825	8694
602.894	8988
602.963	8268
603.032	9071
603.100	8143
603.169	8614
603.238	9263
603.307	8628
603.375	8778
603.444	8996
603.513	8318
603.581	8588
603.650	8557
603.719	7911
603.787	6994
603.856	8450
603.924	7410
603.993	7171
604.061	8374
604.130	8945
604.198	8517
604.267	8237
604.335	7784
604.404	8314
604.472	7970
604.541	8462
604.609	8602
604.678	8711
604.746	9061
604.815	9180
604.883	8821
604.951	9120
605.020	8701
605.088	9149
605.156	8722
605.225	8434
605.293	7459
605.361	8250
605.429	7466
605.498	8542
605.566	7545
605.634	8866
605.702	8191
605.771	7936
605.839	8136
605.907	8116
605.975	7566
606.043	8071
606.111	8487
606.180	8472
606.248	9812
606.316	10949
606.384	7075
606.452	8406
606.520	7082
606.588	6553
606.656	5467
606.724	5128
606.792	6235
606.860	5297
606.928	5027
606.996	5070
607.064	3914
607.132	4877
607.200	5186
607.267	5542
607.335	4939
607.403	6108
607.471	5007
607.539	5786
607.607	5390
607.674	4147
607.742	5332
607.810	5269
607.878	5236
607.946	5297
608.013	4652
608.081	5043
608.149	5414
608.216	4333
608.284	5907
608.352	5051
608.419	3746
608.487	6844
608.555	4682
608.622	5403
608.690	5039
608.757	4953
608.825	4981
608.893	5425
608.960	4774
609.028	6256
609.095	5737
609.163	5537
609.230	4975
609.298	4714
609.365	4350
609.432	4980
609.500	4770
609.567	6290
609.635	5678
609.702	5818
609.769	6133
609.837	5554
609.904	6048
609.971	4470
610.039	6730
610.106	8820
610.173	13978
610.241	33576
610.308	41719
610.375	27979
610.442	8434
610.509	5862
610.577	5983
610.644	5624
610.711	4838
610.778	6070
610.845	5892
610.912	6390
610.980	7199
611.047	11785
611.114	8101
611.181	5825
611.248	5320
611.315	6463
611.382	4603
611.449	5002
611.516	5891
611.583	5903
611.650	5553
611.717	6173
611.784	5366
611.851	6568
611.918	7073
611.984	6578
612.051	9909
612.118	20501
612.185	48045
612.252	38830
612.319	9381
612.386	7269
612.452	6106
612.519	7026
612.586	6874
612.653	7161
612.719	5968
612.786	6017
612.853	5985
612.919	5349
612.986	6035
613.053	5619
613.120	4872
613.186	4281
613.253	5596
613.319	5636
613.386	3943
613.453	5803
613.519	5342
613.586	6391
613.652	8430
613.719	7396
613.785	6225
613.852	5831
613.918	5283
613.985	7958
614.051	11242
614.118	24106
614.184	27557
614.250	7720
614.317	5599
614.383	5392
614.449	5569
614.516	6029
614.582	5514
614.648	5257
614.715	3922
614.781	4785
614.847	5071
614.914	5206
614.980	4251
615.046	5669
615.112	5614
615.179	4307
615.245	5489
615.311	6192
615.377	9940
615.443	11314
615.509	7868
615.575	6680
615.642	5686
615.708	6421
615.774	5804
615.840	6958
615.906	9200
615.972	12551
616.038	22873
616.104	39273
616.170	70190
616.236	69208
616.302	16485
616.368	8981
616.434	6683
616.500	6811
616.565	7179
616.631	7963
616.697	6511
616.763	7261
616.829	8888
616.895	13568
616.961	14613
617.026	8289
617.092	5799
617.158	6628
617.224	4823
617.289	5755
617.355	4580
617.421	3902
617.487	5858
617.552	5588
617.618	4470
617.684	3300
617.749	6719
617.815	5220
617.880	4984
617.946	5321
618.012	4161
618.077	4971
618.143	4897
618.208	5589
618.274	5076
618.339	5454
618.405	3839
618.470	5040
618.536	3856
618.601	5776
618.667	4667
618.732	4413
618.798	4573
618.863	4554
618.928	4868
618.994	4949
619.059	5657
619.124	6329
619.190	4818
619.255	4217
619.320	3969
619.386	4557
619.451	3420
619.516	4988
619.581	4393
619.647	3883
619.712	3160
619.777	5000
619.842	4203
619.907	5067
619.972	4177
620.038	5160
620.103	4174
620.168	3530
620.233	4600
620.298	3984
620.363	4166
620.428	4655
620.493	3742
620.558	4576
620.623	4250
620.688	4463
620.753	4289
620.818	4378
620.883	4642
620.948	5382
621.013	4291
621.078	4066
621.143	3371
621.207	6318
621.272	4615
621.337	4828
621.402	4684
621.467	5468
621.532	6012
621.596	5464
621.661	4757
621.726	4933
621.791	3959
621.855	5790
621.920	4907
621.985	5373
622.049	6258
622.114	5474
622.179	5366
622.243	6653
622.308	5112
622.373	6006
622.437	5150
622.502	4525
622.566	5488
622.631	4468
622.695	5212
622.760	5694
622.824	4723
622.889	5170
622.953	5633
623.018	7671
623.082	7608
623.147	5426
623.211	4954
623.276	5232
623.340	4271
623.404	5443
623.469	5305
623.533	4954
623.597	4730
623.662	4424
623.726	4081
623.790	4715
623.854	3964
623.919	5386
623.983	3453
624.047	4625
624.111	4686
624.176	4181
624.240	4286
624.304	6403
624.368	4806
624.432	4639
624.496	4353
624.560	5524
624.625	5234
624.689	4411
624.753	4776
624.817	5332
624.881	4078
624.945	4014
625.009	3962
625.073	4628
625.137	4216
625.201	5070
625.265	5261
625.329	4590
625.393	5133
625.456	4932
625.520	3903
625.584	5197
625.648	5662
625.712	6924
625.776	12628
625.839	15004
625.903	6995
625.967	4417
626.031	7314
626.095	9501
626.158	5023
626.222	2985
626.286	4090
626.349	2957
626.413	2999
626.477	4887
626.540	3303
626.604	2725
626.668	3876
626.731	3011
626.795	3680
626.858	4378
626.922	3578
626.986	3693
627.049	2683
627.113	3592
627.176	3746
627.240	2723
627.303	2042
627.366	3202
627.430	3445
627.493	3637
627.557	1905
627.620	4046
627.684	2918
627.747	3129
627.810	1977
627.874	3678
627.937	1881
628.000	4483
628.064	2512
628.127	2115
628.190	3070
628.253	3381
628.317	2544
628.380	2896
628.443	2360
628.506	2627
628.569	2940
628.632	2661
628.696	2501
628.759	2219
628.822	1763
628.885	2286
628.948	3156
629.011	2730
629.074	2240
629.137	2147
629.200	1856
629.263	4049
629.326	2439
629.389	2943
629.452	2057
629.515	2353
629.578	2988
629.641	2942
629.704	2610
629.767	2403
629.830	3092
629.892	1922
629.955	1769
630.018	3468
630.081	1859
630.144	4402
630.207	1325
630.269	3906
630.332	1516
630.395	3026
630.458	1905
630.520	1706
630.583	3413
630.646	1412
630.708	1661
630.771	1838
630.834	2409
630.896	1607
630.959	1604
631.021	2264
631.084	1640
631.146	1772
631.209	1727
631.272	1345
631.334	1865
631.397	1409
631.459	1770
631.522	2764
631.584	1690
631.646	2276
631.709	2049
631.771	2034
631.834	2196
631.896	2479
631.958	2308
632.021	1880
632.083	1354
632.145	2136
632.208	1474
632.270	2517
632.332	1581
632.395	1216
632.457	2078
632.519	2299
632.581	2790
632.643	578
632.706	2036
632.768	937
632.830	1892
632.892	2486
632.954	1302
633.016	2537
633.078	1542
633.141	1227
633.203	1481
633.265	2037
633.327	1443
633.389	879
633.451	1572
633.513	1621
633.575	1321
633.637	2420
633.698	1962
633.760	1977
633.822	2090
633.884	2659
633.946	1487
634.008	1581
634.070	2176
634.132	4482
634.193	2133
634.255	1825
634.317	1274
634.379	2346
634.441	1187
634.502	1052
634.564	2257
634.626	1950
634.687	1537
634.749	1685
634.811	1758
634.873	1439
634.934	1157
634.996	1637
635.057	2286
635.119	1253
635.181	1563
635.242	1626
635.304	-211
635.365	3992
635.427	1106
635.488	2246
635.550	517
635.611	1426
635.673	173
635.734	1980
635.796	763
635.857	2187
635.918	828
635.980	2834
636.041	1274
636.102	1875
636.164	1817
636.225	2503
636.286	-277
636.348	2020
636.409	884
636.470	541
636.531	2043
636.593	1311
636.654	2707
636.715	1706
636.776	1303
636.838	964
636.899	1514
636.960	505
637.021	452
637.082	930
637.143	712
637.204	515
637.265	-161
637.326	1482
637.387	1572
637.448	270
637.509	1432
637.570	1152
637.631	1157
637.692	894
637.753	-6
637.814	1319
637.875	1008
637.936	1792
637.997	1125
638.058	1434
638.119	857
638.179	228
638.240	767
638.301	893
638.362	975
638.423	667
638.483	2366
638.544	6
638.605	1342
638.666	867
638.726	1680
638.787	1152
638.848	-37
638.908	1435
638.969	454
639.030	1077
639.090	207
639.151	517
639.211	1503
639.272	2227
639.332	2291
639.393	2101
639.453	66
639.514	796
639.574	726
639.635	1587
639.695	1574
639.756	699
639.816	1184
639.877	782
639.937	2734
639.997	3478
640.058	1257
640.118	779
640.178	1885
640.239	574
640.299	397
640.359	107
640.420	-99
640.480	1394
640.540	-281
640.600	829
640.661	1201
640.721	713
640.781	2538
640.841	206
640.901	928
640.961	1144
641.021	1223
641.082	1052
641.142	1738
641.202	2445
641.262	-542
641.322	1837
641.382	90
641.442	1416
641.502	662
641.562	1698
641.622	861
641.682	1229
641.742	698
641.802	554
641.861	765
641.921	623
641.981	1352
642.041	773
642.101	982
642.161	176
642.221	44
642.280	1161
642.340	380
642.400	425
642.460	1765
642.519	221
642.579	455
642.639	1960
642.698	-1420
642.758	3109
642.818	346
642.877	83
642.937	492
642.997	904
643.056	2183
643.116	158
643.175	1913
643.235	-4
643.294	15
643.354	1017
643.414	722
643.473	1139
643.532	640
643.592	870
643.651	2147
643.711	4800
643.770	7887
643.830	18298
643.889	47635
643.948	14314
644.008	2388
644.067	1043
644.126	69
644.186	320
644.245	1360
644.304	103
644.363	2245
644.423	-163
644.482	1362
644.541	1192
644.600	-1278
644.659	227
644.719	-225
644.778	1181
644.837	614
644.896	4297
644.955	7081
645.014	3755
645.073	1460
645.132	1350
645.191	1264
645.250	582
645.309	2285
645.368	597
645.427	798
645.486	-49
645.545	1892
645.604	-701
645.663	382
645.722	264
645.781	902
645.840	696
645.898	634
645.957	1794
646.016	496
646.075	4322
646.134	6494
646.192	17043
646.251	31363
646.310	5914
646.369	220
646.427	1638
646.486	-290
646.545	383
646.603	570
646.662	868
646.721	281
646.779	-229
646.838	-284
646.896	1728
646.955	546
647.014	1529
647.072	1376
647.131	4327
647.189	2529
647.248	-45
647.306	563
647.365	499
647.423	-475
647.481	1370
647.540	-1042
647.598	645
647.657	-208
647.715	710
647.773	-447
647.832	1418
647.890	-593
647.948	207
648.007	957
648.065	-678
648.123	-431
648.181	1872
648.240	1512
648.298	968
648.356	-25
648.414	790
648.472	217
648.531	1040
648.589	31
648.647	353
648.705	-221
648.763	302
648.821	-806
648.879	-273
648.937	477
648.995	561
649.053	-163
649.111	687
649.169	1484
649.227	2469
649.285	3602
649.343	14072
649.401	9623
649.459	4030
649.516	4377
649.574	1926
649.632	9094
649.690	13483
649.748	3022
649.806	2590
649.863	7984
649.921	4647
649.979	1424
650.037	476
650.094	-658
650.152	365
650.210	-238
650.268	942
650.325	-467
650.383	-9
650.440	-1222
650.498	781
650.556	266
650.613	-15
650.671	345
650.728	695
650.786	-320
650.843	118
650.901	-1103
650.958	-61
651.016	469
651.073	829
651.131	-688
651.188	-1096
651.246	143
651.303	-695
651.360	626
651.418	-44
651.475	303
651.532	-621
651.590	-245
651.647	-898
651.704	105
651.762	83
651.819	164
651.876	-1078
651.933	419
651.990	390
652.048	-1902
652.105	-102
652.162	355
652.219	-828
652.276	300
652.333	863
652.390	-702
652.448	1168
652.505	-217
652.562	60
652.619	353
652.676	2338
652.733	2699
652.790	122
652.847	-896
652.904	340
652.961	-1177
653.017	-991
653.074	457
653.131	236
653.188	-1373
653.245	-1093
653.302	-415
653.359	-552
653.415	342
653.472	-443
653.529	605
653.586	-207
653.642	-953
653.699	305
653.756	-1197
653.813	-237
653.869	224
653.926	-714
653.983	-1306
654.039	352
654.096	-797
654.152	1142
654.209	-1218
654.266	296
654.322	-810
654.379	-396
654.435	-731
654.492	39
654.548	218
654.605	534
654.661	866
654.717	183
654.774	84
654.830	-188
654.887	-461
654.943	45
655.000	-321
655.056	187
655.112	-524
655.168	-698
655.225	-318
655.281	-933
655.337	138
655.394	71
655.450	203
655.506	-68
655.562	271
655.618	1021
655.675	-892
655.731	512
655.787	-1333
655.843	-86
655.899	-1200
655.955	12
656.011	325
656.067	-1111
656.123	-33
656.179	214
656.235	764
656.291	-993
656.347	438
656.403	-530
656.459	-676
656.515	-62
656.571	-39
656.627	-180
656.683	-15
656.739	515
656.795	-1493
656.850	197
656.906	103
656.962	-104
657.018	-775
657.074	-1195
657.129	-73
657.185	-174
657.241	96
657.297	-98
657.352	-476
657.408	-222
657.464	694
657.519	-283
657.575	-1845
657.630	-629
657.686	-650
657.742	-745
657.797	-1012
657.853	-1101
657.908	126
657.964	-921
658.019	-538
658.075	-475
658.130	331
658.186	-1680
658.241	367
658.297	-219
658.352	-382
658.407	-190
658.463	-996
658.518	-346
658.573	-837
658.629	-949
658.684	-515
658.739	-388
658.795	-564
658.850	-332
658.905	-1300
658.960	49
659.016	-536
659.071	-526
659.126	-356
659.181	40
659.236	992
659.291	1580
659.346	-237
659.401	-541
659.457	871
659.512	1543
659.567	1213
659.622	-860
659.677	-1140
659.732	-1303
659.787	-996
659.842	-176
659.897	-556
659.952	-52
660.007	280
660.061	-46
660.116	-889
660.171	-1100
660.226	-251
660.281	347
660.336	-1064
660.391	245
660.445	-499
660.500	47
660.555	-228
660.610	-860
660.664	-280
660.719	-821
660.774	-133
660.828	-240
660.883	260
660.938	199
660.992	-877
661.047	161
661.101	-370
661.156	-495
661.211	-1795
661.265	-377
661.320	-1210
661.374	-487
661.429	-1358
661.483	239
661.538	-1123
661.592	-1109
661.647	-743
661.701	-152
661.755	-476
661.810	-458
661.864	-1522
661.919	-924
661.973	-110
662.027	-647
662.081	-970
662.136	-1313
662.190	-1028
662.244	-368
662.299	-1062
662.353	-649
662.407	-1935
662.461	-1104
662.515	-606
662.569	-919
662.624	-142
662.678	-578
662.732	-703
662.786	-682
662.840	-1045
662.894	-370
662.948	-1466
663.002	-394
663.056	-725
663.110	-833
663.164	-1057
663.218	-762
663.272	-233
663.326	-440
663.380	-564
663.434	-631
663.488	-2182
663.542	-82
663.595	-1426
663.649	-1047
663.703	-632
663.757	-761
663.811	-1597
663.864	-305
663.918	-157
663.972	-595
664.026	-826
664.079	-900
664.133	-985
664.187	-516
664.240	-880
664.294	-410
664.348	-498
664.401	-766
664.455	-957
664.508	-1342
664.562	-963
664.615	-279
664.669	-601
664.722	-725
664.776	-1054
664.829	-792
664.883	-297
664.936	-1434
664.990	-633
665.043	168
665.097	-907
665.150	319
665.203	-1146
665.257	-600
665.310	-1101
665.363	-437
665.417	-823
665.470	-700
665.523	-1571
665.576	-19
665.630	-724
665.683	-329
665.736	-816
665.789	-1041
665.842	-750
665.895	-689
665.949	-1210
666.002	-492
666.055	-723
666.108	-229
666.161	-620
666.214	-770
666.267	-452
666.320	171
666.373	-71
666.426	-792
666.479	-713
666.532	-396
666.585	-1274
666.638	8
666.691	-1227
666.744	-549
666.796	-1755
666.849	-607
666.902	-310
666.955	-108
667.008	-1894
667.060	-1176
667.113	-836
667.166	-643
667.219	-217
667.271	280
667.324	-1051
667.377	-816
667.430	-340
667.482	-294
667.535	-284
667.587	-909
667.640	-741
667.693	-1384
667.745	-499
667.798	770
667.850	-442
667.903	-492
667.955	-684
668.008	-1075
668.060	-476
668.113	-320
668.165	-410
668.218	-111
668.270	-629
668.322	-592
668.375	-930
668.427	-147
668.479	-1027
668.532	-720
668.584	-237
668.636	-966
668.689	-271
668.741	-826
668.793	-128
668.845	-1159
668.898	-569
668.950	-558
669.002	-1003
669.054	-996
669.106	-1633
669.158	-160
669.211	-767
669.263	-947
669.315	50
669.367	338
669.419	-440
669.471	535
669.523	142
669.575	27
669.627	-704
669.679	-547
669.731	-1095
669.783	292
669.835	-344
669.886	-420
669.938	-475
669.990	-223
670.042	-1040
670.094	-229
670.146	-23
670.197	652
670.249	944
670.301	1064
670.353	2156
670.404	3855
670.456	5243
670.508	11064
670.560	18666
670.611	34856
670.663	63527
670.715	145008
670.766	257878
670.818	106046
670.869	18763
670.921	7799
670.972	4532
671.024	2456
671.075	2152
671.127	1344
671.178	1097
671.230	257
671.281	-343
671.333	245
671.384	-552
671.436	-330
671.487	307
671.538	690
671.590	-1078
671.641	-135
671.692	766
671.744	984
671.795	868
671.846	-27
671.897	-15
671.949	-1212
672.000	-454
672.051	382
672.102	-717
672.153	-976
672.204	108
672.256	247
672.307	-404
672.358	-58
672.409	-112
672.460	-475
672.511	-562
672.562	-952
672.613	-351
672.664	-1227
672.715	-263
672.766	-211
672.817	-581
672.868	-1075
672.919	-590
672.970	-726
673.021	-1336
673.071	-983
673.122	-230
673.173	-420
673.224	-794
673.275	-773
673.326	-591
673.376	-1173
673.427	-1761
673.478	-1433
673.528	-328
673.579	-54
673.630	-1255
673.680	-581
673.731	-1463
673.782	-972
673.832	-1012
673.883	-579
673.934	-193
673.984	-1323
674.035	-824
674.085	-790
674.136	-1084
674.186	-1000
674.237	-1109
674.287	-511
674.338	-682
674.388	-1086
674.438	-888
674.489	-754
674.539	-1781
674.589	-1065
674.640	-1576
674.690	-890
674.740	-1513
674.791	-502
674.841	-958
674.891	-116
674.942	-866
674.992	-2041
675.042	-1196
675.092	-856
675.142	-1228
675.193	-1190
675.243	-742
675.293	-503
675.343	-1378
675.393	-1204
675.443	-539
675.493	-434
675.543	-1004
675.593	-811
675.643	-928
675.693	-846
675.743	-1521
675.793	-1094
675.843	-1345
675.893	-499
675.943	-887
675.993	-786
676.043	-1573
676.093	-772
676.142	-1155
676.192	-745
676.242	-1698
676.292	-577
676.341	-1673
676.391	-320
676.441	-671
676.491	-929
676.540	-1423
676.590	-305
676.640	-1651
676.689	-401
676.739	-1735
676.789	-793
676.838	-1283
676.888	-1079
676.937	-1686
676.987	-1223
677.037	-1428
677.086	-1652
677.136	-1053
677.185	-698
677.235	-1550
677.284	-1471
677.333	-2443
677.383	-1239
677.432	-1903
677.482	-425
677.531	-875
677.580	-1247
677.630	-1340
677.679	-1287
677.728	-999
677.778	-923
677.827	-105
677.876	-607
677.925	-1183
677.975	-1489
678.024	-1640
678.073	-939
678.122	-1188
678.171	-1839
678.220	-875
678.269	-1141
678.319	-1405
678.368	-1393
678.417	-1474
678.466	-804
678.515	-883
678.564	-1937
678.613	-1103
678.662	-897
678.711	-1566
678.760	-985
678.809	-661
678.857	-864
678.906	-1679
678.955	-1287
679.004	-1213
679.053	-1065
679.102	-1070
679.151	-1049
679.199	-1748
679.248	-1022
679.297	-891
679.346	-1038
679.394	-1043
679.443	-1141
679.492	-1162
679.540	-1580
679.589	-1777
679.638	-170
679.686	-814
679.735	-1453
679.784	-1202
679.832	-1107
679.881	-1085
679.929	-1241
679.978	-1213
680.026	-1863
680.075	-1032
680.123	-841
680.172	-1530
680.220	-743
680.268	-1666
680.317	-1765
680.365	-1261
680.414	-715
680.462	-676
680.510	-963
680.559	-1221
680.607	-850
680.655	-1127
680.703	-801
680.752	-1507
680.800	-789
680.848	-1637
680.896	-1454
680.945	-1399
680.993	-1222
681.041	-1035
681.089	-1111
681.137	-1724
681.185	-613
681.233	-1742
681.258	-1414
681.281	-1121
681.329	-986
681.377	-1257
681.380	-1219
681.425	-855
681.473	-1428
681.502	-901
681.521	-571
681.569	-868
681.617	-1041
681.624	-1059
681.665	-1330
681.713	-983
681.745	-1208
681.761	-1334
681.809	-783
681.857	-1039
681.867	-979
681.904	-870
681.952	-412
681.989	-563
682.000	-626
682.048	-825
682.096	-626
682.111	-519
682.143	-337
682.191	-1047
682.233	868
682.239	1139
682.286	-939
682.334	-606
682.354	-367
682.382	-86
682.430	-483
682.476	-292
682.477	-303
682.525	-401
682.572	-607
682.598	-644
682.620	-710
682.667	-388
682.715	874
682.720	764
682.763	-393
682.810	688
682.841	30
682.857	-353
682.905	-228
682.952	323
682.963	346
683.000	412
683.047	163
683.085	700
683.095	831
683.142	734
683.190	386
683.206	429
683.237	409
683.284	674
683.328	184
683.332	135
683.379	589
683.426	-234
683.449	202
683.473	635
683.521	500
683.568	-32
683.571	-4
683.615	194
683.662	602
683.693	879
683.709	982
683.757	52
683.804	1134
683.814	1087
683.851	947
683.898	1117
683.936	839
683.945	750
683.992	1363
684.039	973
684.057	903
684.086	785
684.133	650
684.179	616
684.180	602
684.227	1604
684.274	874
684.300	1288
684.321	1602
684.368	856
684.415	1473
684.422	1354
684.462	628
684.509	857
684.543	750
684.556	693
684.603	965
684.649	1300
684.665	1366
684.696	1493
684.743	994
684.786	1338
684.790	1357
684.837	1664
684.883	2000
684.908	1661
684.930	1352
684.977	2246
685.023	1657
685.029	1700
685.070	1807
685.117	1599
685.150	1195
685.164	1072
685.210	1788
685.257	2438
685.272	2518
685.303	2618
685.350	2002
685.393	1964
685.396	1954
685.443	2322
685.490	2311
685.514	2102
685.536	1906
685.583	2293
685.629	2197
685.636	2198
685.675	2167
685.722	2714
685.757	1822
685.768	1521
685.815	1861
685.861	2070
685.878	2227
685.908	2552
685.954	2199
686.000	3163
686.000	3175
686.047	2998
686.093	2857
686.121	3268
686.139	3443
686.185	3039
686.232	2759
686.242	2729
686.278	2527
686.324	2774
686.363	2903
686.370	2963
686.416	2696
686.463	3014
686.484	3128
686.509	3251
686.555	2869
686.601	3042
686.606	3089
686.647	3312
686.693	2946
686.727	2948
686.739	2967
686.785	3066
686.831	3213
686.848	3039
686.877	2762
686.923	2570
686.969	2950
686.969	2951
687.015	3465
687.061	3217
687.090	3426
687.107	3509
687.153	3504
687.199	3888
687.211	3720
687.245	3258
687.291	3695
687.332	3534
687.336	3532
687.382	3768
687.428	3624
687.453	3717
687.474	3693
687.520	3766
687.565	3384
687.574	3402
687.611	3629
687.657	3556
687.695	3988
687.702	4088
687.748	3921
687.794	4507
687.816	4640
687.839	4604
687.885	4005
687.931	3920
687.937	3885
687.976	3816
688.022	4006
688.058	3949
688.067	3944
688.113	3777
688.158	3902
688.179	4113
688.204	4287
688.249	4017
688.295	4529
688.300	4431
688.340	3962
688.386	4719
688.421	4452
688.431	4334
688.477	4284
688.522	4308
688.542	4406
688.567	4627
688.613	3647
688.658	3943
688.663	4004
688.703	4503
688.749	4584
688.784	4541
688.794	4524
688.839	4559
688.884	5121
688.905	4688
688.930	4191
688.975	4556
689.020	4517
689.026	4482
689.065	4289
689.110	4563
689.146	4735
689.155	4792
689.201	4387
689.246	5130
689.267	5118
689.291	5171
689.336	4896
689.381	5466
689.388	5410
689.426	5095
689.471	5488
689.509	5570
689.516	5572
689.561	5254
689.606	5305
689.630	5423
689.651	5610
689.696	5266
689.741	5742
689.750	5730
689.785	5720
689.830	5744
689.871	5679
689.875	5669
689.920	5919
689.965	5537
689.992	5684
690.010	5950
690.054	5611
690.099	6192
690.112	6406
690.144	6803
690.189	6379
690.233	6708
690.233	6721
690.278	6908
690.323	7054
690.354	7181
690.367	7373
690.412	7736
690.457	8314
690.474	8345
690.501	8445
690.546	9531
690.590	9871
690.595	9892
690.635	10760
690.680	12069
690.716	12794
690.724	13227
690.769	16019
690.813	18778
690.836	19694
690.857	22626
690.902	30021
690.946	36982
690.957	38673
690.991	54783
691.035	76687
691.077	97875
691.080	98431
691.124	103383
691.168	107802
691.198	110910
691.213	103738
691.257	82201
691.301	60401
691.318	52152
691.346	46483
691.390	36428
691.434	26724
691.439	25541
691.478	22318
691.522	19107
691.559	16256
691.567	16043
691.611	15064
691.655	13327
691.680	12542
691.699	12291
691.743	11275
691.787	10754
691.800	10419
691.831	9953
691.875	9858
691.919	9389
691.921	9354
691.964	9057
692.008	8818
692.041	8905
692.052	8997
692.096	8789
692.139	8944
692.162	8761
692.183	8584
692.227	8362
692.271	8439
692.282	8487
692.315	8906
692.359	8492
692.402	8997
692.403	9020
692.447	8785
692.490	9113
692.523	8992
692.534	8961
692.578	9266
692.622	9280
692.643	9293
692.666	9254
692.709	9274
692.753	8993
692.763	8975
692.797	9514
692.840	9861
692.884	10540
692.884	10566
692.928	10350
692.971	10671
693.004	10407
693.015	10385
693.059	10874
693.102	11263
693.124	11170
693.146	11565
693.189	12938
693.233	13835
693.245	14245
693.276	15510
693.320	16369
693.363	17606
693.365	17608
693.407	20648
693.450	23949
693.485	26378
693.493	27638
693.537	34254
693.580	40644
693.605	44433
693.624	51787
693.667	68492
693.710	85942
693.725	91876
693.753	122893
693.797	171711
693.840	221611
693.845	226983
693.883	236981
693.926	247004
693.966	256478
693.970	252176
694.013	201855
694.056	151717
694.086	116955
694.099	110192
694.142	87712
694.185	65339
694.206	54484
694.229	50312
694.272	42400
694.315	34493
694.326	32284
694.358	29666
694.401	26546
694.444	23088
694.446	22864
694.487	21231
694.530	19360
694.566	18037
694.573	17898
694.616	16293
694.659	14989
694.686	13923
694.702	13648
694.745	13082
694.787	12209
694.806	11979
694.830	12103
694.873	12193
694.916	11996
694.926	11967
694.959	11820
695.002	11499
695.044	11100
695.046	11062
695.087	10941
695.130	10759
695.166	10350
695.172	10388
695.215	10585
695.258	10871
695.286	10958
695.301	10869
695.343	10576
695.386	10325
695.406	10166
695.428	10082
695.471	9768
695.514	9595
695.526	9446
695.556	9414
695.599	9685
695.641	9909
695.646	9884
695.684	9804
695.726	9744
695.766	9672
695.769	9678
695.811	9416
695.854	9158
695.886	8862
695.896	8903
695.938	8988
695.981	9093
696.005	9177
696.023	9260
696.065	9192
696.108	9363
696.125	9346
696.150	9509
696.192	9803
696.235	10058
696.245	10079
696.277	10102
696.319	10234
696.361	10316
696.365	10290
696.404	10877
696.446	11540
696.485	11970
696.488	11977
696.530	11811
696.572	11577
696.604	11270
696.614	11161
696.656	10716
696.698	10192
696.724	9879
696.740	9906
696.783	9841
696.825	9724
696.844	9711
696.867	9638
696.909	9256
696.951	8971
696.964	8871
696.992	8998
697.034	8994
697.076	9092
697.083	9096
697.118	9402
697.160	9619
697.202	9785
697.203	9762
697.244	9519
697.286	9299
697.323	8811
697.327	8787
697.369	8635
697.411	8268
697.442	8025
697.453	8172
697.494	8663
697.536	9219
697.562	9489
697.578	9459
697.620	9319
697.661	9085
697.682	9001
697.703	9021
697.744	8976
697.786	9028
697.801	8958
697.828	9165
697.869	9498
697.911	9844
697.921	9907
697.952	9803
697.994	9626
698.035	9371
698.040	9315
698.077	9123
698.118	8894
698.160	8653
698.160	8624
698.201	9081
698.243	9520
698.279	9876
698.284	9889
698.325	9741
698.367	9574
698.399	9399
698.408	9463
698.449	9634
698.491	9793
698.518	9882
698.532	9938
698.573	10023
698.614	10093
698.638	10097
698.656	10099
698.697	10036
698.738	9983
698.757	9928
698.779	9827
698.820	9568
698.862	9311
698.877	9187
698.903	9411
698.944	9725
698.985	10041
698.996	10099
699.026	10013
699.067	9853
699.116	9633
699.235	10292
699.354	9839
699.474	9637
699.593	9600
699.713	10345
699.832	9239
699.951	9206
700.070	9927
700.190	9224
700.309	9749
700.428	9417
700.547	9033
700.667	9371
700.786	9779
700.905	9110
701.024	8686
701.143	8602
701.262	8327
701.381	8722
701.500	8600
701.619	9151
701.738	9946
701.857	8880
701.976	8441
702.095	8586
702.214	9007
702.333	8586
702.452	9221
702.571	8582
702.690	7991
702.809	8851
702.928	8308
703.047	9662
703.165	8714
703.284	8810
703.403	7705
703.522	8603
703.640	9282
703.759	9723
703.878	10724
703.997	7590
704.115	8017
704.234	7912
704.353	8435
704.471	7632
704.590	7193
704.708	8220
704.827	8328
704.946	7529
705.064	8318
705.183	7741
705.301	8970
705.420	10638
705.538	11051
705.656	10081
705.775	11288
705.893	23448
706.012	34066
706.130	10601
706.249	10161
706.367	9400
706.485	9234
706.604	9724
706.722	9565
706.840	10912
706.958	12152
707.077	9239
707.195	8956
707.313	8263
707.431	9119
707.549	8474
707.668	8969
707.786	9409
707.904	8042
708.022	8174
708.140	8701
708.258	7733
708.376	8167
708.494	8305
708.612	9176
708.730	11099
708.848	10982
708.966	9398
709.084	9680
709.202	9315
709.320	9606
709.438	9506
709.556	10289
709.674	8998
709.791	9161
709.909	8919
710.027	8763
710.145	9488
710.263	9227
710.380	8084
710.498	9141
710.616	8101
710.733	9103
710.851	9035
710.969	9608
711.086	9090
711.204	9306
711.322	8400
711.439	8880
711.557	9146
711.674	8728
711.792	8713
711.909	11113
712.027	11476
712.144	8725
712.262	8508
712.379	8450
712.497	11514
712.614	11840
712.732	11203
712.849	9911
712.966	10393
713.084	11672
713.201	9558
713.318	10270
713.436	9760
713.553	9482
713.670	9953
713.787	10648
713.905	10532
714.022	9813
714.139	9596
714.256	10381
714.373	10229
714.490	11916
714.608	15148
714.725	39677
714.842	51579
714.959	12275
715.076	8989
715.193	8753
715.310	9567
715.427	9520
715.544	8807
715.661	7606
715.778	8073
715.895	9578
716.011	8392
716.128	8135
716.245	8591
716.362	9311
716.479	9476
716.596	9075
716.713	9094
716.829	8644
716.946	7494
717.063	8325
717.180	8301
717.296	7741
717.413	8689
717.530	8602
717.646	7720
717.763	8363
717.880	8004
717.996	7900
718.113	7950
718.229	7700
718.346	7741
718.462	7602
718.579	8952
718.695	9125
718.812	9017
718.928	8900
719.045	8035
719.161	7217
719.277	7633
719.394	7901
719.510	8277
719.626	8004
719.743	8765
719.859	8702
719.975	9206
720.092	14690
720.208	26815
720.324	10123
720.440	8610
720.557	8333
720.673	9409
720.789	11249
720.905	18607
721.021	11173
721.137	7564
721.253	7451
721.369	7421
721.486	7841
721.602	9526
721.718	7697
721.834	6651
721.950	7121
722.066	6666
722.181	6424
722.297	7030
722.413	7316
722.529	7042
722.645	7294
722.761	7215
722.877	7342
722.993	6628
723.108	6745
723.224	6184
723.340	7968
723.456	7318
723.571	7423
723.687	6907
723.803	6769
723.918	6326
724.034	6204
724.150	6173
724.265	7197
724.381	9220
724.497	11172
724.612	6973
724.728	7056
724.843	6651
724.959	6461
725.074	9094
725.190	10847
725.305	6503
725.421	6729
725.536	5626
725.651	6527
725.767	5490
725.882	6173
725.997	6245
726.113	6966
726.228	5151
726.343	6040
726.459	5439
726.574	6176
726.689	6082
726.804	5622
726.920	6472
727.035	6650
727.150	5850
727.265	5969
727.380	6091
727.495	6233
727.610	5988
727.725	7189
727.841	8098
727.956	15830
728.071	14379
728.186	6503
728.301	5523
728.416	6454
728.531	6802
728.645	5539
728.760	5964
728.875	6370
728.990	5031
729.105	5040
729.220	5856
729.335	6200
729.449	5292
729.564	5839
729.679	4910
729.794	4986
729.908	6691
730.023	6256
730.138	4919
730.253	5473
730.367	5239
730.482	6241
730.596	5174
730.711	5074
730.826	6001
730.940	5968
731.055	5983
731.169	4879
731.284	5680
731.398	5175
731.513	6120
731.627	5713
731.742	5884
731.856	6646
731.970	5814
732.085	5330
732.199	5712
732.313	6459
732.428	7670
732.542	13423
732.656	10563
732.771	6173
732.885	4875
732.999	5107
733.113	5561
733.227	5424
733.342	5210
733.456	5049
733.570	5427
733.684	4859
733.798	5332
733.912	5403
734.026	5053
734.140	5284
734.254	5801
734.368	6679
734.482	7827
734.596	5065
734.710	4884
734.824	5146
734.938	4650
735.052	5468
735.166	5086
735.280	5422
735.393	4900
735.507	5159
735.621	4870
735.735	7482
735.849	5477
735.962	5113
736.076	4807
736.190	5308
736.303	4703
736.417	6717
736.531	5150
736.644	5559
736.758	4378
736.872	4823
736.985	4853
737.099	5247
737.212	4627
737.326	5196
737.439	5267
737.553	4477
737.666	5544
737.780	4791
737.893	4628
738.007	4828
738.120	4148
738.233	4893
738.347	5166
738.460	5202
738.573	5581
738.687	4738
738.800	4662
738.913	5455
739.026	5670
739.140	5131
739.253	6383
739.366	5316
739.479	4694
739.592	4764
739.705	5238
739.818	5262
739.932	4568
740.045	4943
740.158	5324
740.271	5445
740.384	5035
740.497	5019
740.610	6093
740.723	5656
740.836	5984
740.949	5915
741.062	4970
741.174	5497
741.287	4570
741.400	4877
741.513	5098
741.626	4846
741.739	4944
741.851	5419
741.964	5167
742.077	4250
742.189	5642
742.302	4585
742.415	5350
742.527	5466
742.640	4490
742.753	4436
742.865	5174
742.978	5588
743.090	4748
743.203	5212
743.316	5271
743.428	4635
743.541	5164
743.653	5204
743.766	4807
743.878	5024
743.990	5347
744.103	6609
744.215	6107
744.327	5404
744.440	5325
744.552	6141
744.664	5131
744.777	4853
744.889	4154
745.001	5363
745.113	4789
745.226	4969
745.338	6100
745.450	5427
745.562	5526
745.674	4865
745.786	5451
745.898	5188
746.010	5142
746.122	6394
746.234	5530
746.347	5687
746.459	5281
746.570	5593
746.682	5885
746.794	6024
746.906	4530
747.018	5067
747.130	5707
747.242	5395
747.354	5721
747.466	6741
747.577	5348
747.689	5116
747.801	6023
747.913	5225
748.024	5893
748.136	5418
748.248	6136
748.359	5929
748.471	6111
748.583	5700
748.694	5792
748.806	7038
748.918	6055
749.029	5936
749.141	5194
749.252	5908
749.364	6121
749.475	6435
749.587	5645
749.698	5398
749.809	5344
749.921	5429
750.032	5737
750.144	5324
750.255	5408
750.366	5658
750.478	5527
750.589	6060
750.700	6015
750.811	6105
750.923	5867
751.034	7785
751.145	6827
751.256	5252
751.367	5719
751.479	5495
751.590	5904
751.701	6504
751.812	5791
751.923	6290
752.034	6235
752.145	6316
752.256	5801
752.367	6615
752.478	6259
752.589	7043
752.700	6495
752.811	5924
752.922	6083
753.032	7027
753.143	6847
753.254	6435
753.365	7243
753.476	6315
753.586	6746
753.697	7040
753.808	7284
753.919	7427
754.029	5872
754.140	7594
754.251	7108
754.361	7123
754.472	7345
754.582	7108
754.693	7071
754.804	7971
754.914	7141
755.025	7487
755.135	7746
755.246	7790
755.356	7576
755.466	8379
755.577	7919
755.687	8039
755.798	7432
755.908	8907
756.018	7811
756.129	8196
756.239	8823
756.349	8694
756.460	8246
756.570	8305
756.680	7993
756.790	8964
756.900	9187
757.011	8837
757.121	9644
757.231	8957
757.341	10087
757.451	9177
757.561	8831
757.671	10330
757.781	8911
757.891	10022
758.001	9449
758.111	10608
758.221	10329
758.331	10825
758.441	11070
758.551	11827
758.661	11222
758.771	11408
758.880	10658
758.990	11627
759.100	12131
759.210	11367
759.320	12446
759.429	12099
759.539	12374
759.649	12809
759.758	13042
759.868	14070
759.978	13058
760.087	14572
760.197	15018
760.307	14002
760.416	15783
760.526	15500
760.635	15919
760.745	16121
760.854	16798
760.964	17383
761.073	17081
761.182	17915
761.292	18399
761.401	18910
761.511	20179
761.620	19772
761.729	21085
761.839	21867
761.948	22303
762.057	22938
762.166	23681
762.276	23803
762.385	26851
762.494	26447
762.603	27396
762.712	28779
762.822	29995
762.931	31837
763.040	33035
763.149	33277
763.258	36140
763.367	38543
763.476	40846
763.585	42942
763.694	45016
763.803	47968
763.912	51154
764.021	53354
764.130	57365
764.238	63747
764.347	66147
764.456	71518
764.565	78856
764.674	83403
764.783	92865
764.891	101417
765.000	113751
765.109	126995
765.217	143462
765.326	164434
765.435	191262
765.543	221427
765.652	264145
765.761	313457
765.869	375405
765.978	450433
766.086	523079
766.195	574097
766.303	538318
766.412	374661
766.520	330651
766.629	518622
766.737	585959
766.846	546620
766.954	465271
767.062	385925
767.171	315179
767.279	260036
767.387	212268
767.496	180767
767.604	155437
767.712	136682
767.820	122965
767.928	110932
768.037	103363
768.145	97238
768.253	92650
768.361	90399
768.469	91146
768.577	90887
768.685	97335
768.793	102461
768.901	110686
769.009	128389
769.117	151396
769.225	184952
769.333	234643
769.441	308005
769.549	409079
769.657	512876
769.765	512329
769.873	347065
769.981	452623
770.088	530951
770.196	449744
770.304	350542
770.412	275531
770.519	220820
770.627	180112
770.735	150857
770.842	127634
770.950	111042
771.058	97180
771.165	87656
771.273	77779
771.380	69861
771.488	64013
771.595	59127
771.703	53682
771.810	50416
771.918	45993
772.025	43266
772.133	40862
772.240	38399
772.348	36773
772.455	34147
772.562	31581
772.670	31000
772.777	29720
772.884	27283
772.991	27310
773.099	25189
773.206	23884
773.313	23619
773.420	23145
773.528	20787
773.635	21043
773.742	21052
773.849	19981
773.956	19103
774.063	18021
774.170	17796
774.277	17224
774.384	17567
774.491	16174
774.598	15971
774.705	15711
774.812	15488
774.919	15210
775.026	14512
775.133	14263
775.239	13899
775.346	12858
775.453	12680
775.560	13807
775.667	13388
775.773	13316
775.880	11830
775.987	11974
776.093	12304
776.200	11344
776.307	10499
776.413	11147
776.520	10598
776.627	10449
776.733	9987
776.840	9194
776.946	10544
777.053	10634
777.159	10485
777.266	9225
777.372	10952
777.478	9491
777.585	9656
777.691	8870
777.798	7890
777.904	9176
778.010	9675
778.117	8442
778.223	8478
778.329	7602
778.435	7405
778.542	8040
778.648	7548
778.754	7293
778.860	7653
778.966	7322
779.072	8009
779.178	7614
779.284	8288
779.391	8263
779.497	8530
779.603	13865
779.708	17645
779.815	39152
779.920	112272
780.026	229056
780.132	79652
780.238	20052
780.344	12866
780.450	9862
780.556	8853
780.661	7731
780.767	6540
780.873	6348
780.979	5923
781.085	5722
781.190	5498
781.296	6242
781.402	6053
781.507	4851
781.613	5129
781.719	4172
781.824	5055
781.930	5209
782.035	5409
782.141	4982
782.246	4916
782.352	4703
782.457	4275
782.563	4180
782.668	4319
782.773	4422
782.879	4672
782.984	4043
783.090	4755
783.195	3811
783.300	4053
783.405	3662
783.511	3117
783.616	4009
783.721	4270
783.826	4073
783.932	4008
784.037	3441
784.142	3579
784.247	3354
784.352	3438
784.457	3109
784.562	3364
784.667	3418
784.772	3668
784.877	3026
784.982	2969
785.087	2893
785.192	3435
785.297	3308
785.402	3148
785.507	2605
785.611	3675
785.716	3317
785.821	3171
785.926	3124
786.031	3261
786.135	3630
786.240	3414
786.345	3533
786.450	3155
786.554	2840
786.659	3082
786.763	2164
786.868	3755
786.973	3770
787.077	2868
787.182	2634
787.286	2774
787.391	2325
787.495	2496
787.600	2521
787.704	2948
787.809	2590
787.913	2760
788.017	2435
788.122	3313
788.226	2839
788.330	2619
788.435	2491
788.539	2829
788.643	1998
788.747	2814
788.852	1572
788.956	1724
789.060	3055
789.164	2624
789.268	1894
789.372	2895
789.476	1223
789.580	1579
789.684	1777
789.788	2725
789.892	2129
789.996	2196
790.100	2202
790.204	2796
790.308	1833
790.412	1852
790.516	2913
790.620	3169
790.724	1196
790.828	2681
790.931	1645
791.035	3252
791.139	1505
791.242	1669
791.346	2427
791.450	1845
791.554	1334
791.657	1217
791.761	2547
791.864	2572
791.968	2332
792.072	1659
792.175	1696
792.279	1484
792.382	2253
792.486	2490
792.589	1947
792.693	2161
792.796	1751
792.899	2697
793.003	1786
793.106	485
793.209	1654
793.313	2755
793.416	1012
793.519	2311
793.623	2099
793.726	3029
793.829	2821
793.932	1805
794.035	2088
794.138	2747
794.242	3115
794.345	4519
794.448	8952
794.551	18725
794.654	61220
794.757	145391
794.860	47307
794.963	8645
795.066	4287
795.169	4619
795.272	1873
795.375	3391
795.477	2093
795.580	1948
795.683	313
795.786	2136
795.889	958
795.991	2068
796.094	1868
796.197	535
796.300	2355
796.402	795
796.505	1068
796.608	376
796.710	1613
796.813	1099
796.915	177
797.018	2038
797.120	1848
797.223	516
797.326	2022
797.428	685
797.530	1376
797.633	1595
797.735	1946
797.838	1500
797.940	2584
798.042	1250
798.145	762
798.247	2104
798.349	770
798.452	1258
798.554	601
798.656	862
798.758	2141
798.860	950
798.962	1168
799.065	1484
799.167	861
799.269	1548
799.371	1635
799.473	1378
799.575	1084
799.677	1128
799.779	1878
799.881	1378
799.983	1451
800.085	1659
800.187	1967
800.289	125
800.390	1498
800.492	875
800.594	1726
800.696	1139
800.798	1153
800.899	329
801.001	197
801.103	672
801.205	914
801.306	974
801.408	921
801.509	1505
801.611	-113
801.713	1282
801.814	748
801.916	1522
802.017	1058
802.119	763
802.220	1295
802.322	-418
802.423	1939
802.525	-229
802.626	779
802.727	459
802.829	1205
802.930	-588
803.031	1978
803.133	474
803.234	14
803.335	700
803.436	393
803.538	858
803.639	89
803.740	1176
803.841	523
803.942	340
804.043	789
804.144	782
804.245	122
804.346	542
804.447	77
804.548	631
804.649	660
804.750	-79
804.851	849
804.952	865
805.053	860
805.154	-40
805.255	1613
805.355	728
805.456	244
805.557	-363
805.658	-557
805.758	397
805.859	799
805.960	448
806.061	353
806.161	602
806.262	-161
806.362	730
806.463	106
806.564	432
806.664	55
806.765	2072
806.865	1240
806.966	675
807.066	314
807.166	1196
807.267	971
807.367	-6
807.468	504
807.568	-3
807.668	954
807.769	1231
807.869	405
807.969	156
808.069	68
808.170	644
808.270	296
808.370	-132
808.470	-301
808.570	30
808.670	-580
808.770	740
808.870	121
808.970	417
809.070	106
809.170	951
809.271	1154
809.370	167
809.470	-90
809.570	527
809.670	-594
809.770	345
809.870	878
809.970	682
810.070	126
810.169	1017
810.269	-1057
810.369	1074
810.469	230
810.568	179
810.668	153
810.768	717
810.867	-262
810.967	944
811.066	-465
811.166	222
811.265	948
811.365	-491
811.464	-81
811.564	564
811.663	-7
811.763	-184
811.862	637
811.962	618
812.061	367
812.160	243
812.260	107
812.359	482
812.458	391
812.557	2699
812.657	5131
812.756	2741
812.855	331
812.954	642
813.053	937
813.153	782
813.252	-390
813.351	1243
813.450	122
813.549	-257
813.648	763
813.747	447
813.846	872
813.945	1400
814.044	413
814.143	472
814.242	505
814.341	-261
814.439	221
814.538	414
814.637	36
814.736	845
814.835	783
814.933	831
815.032	308
815.131	634
815.229	488
815.328	1274
815.427	650
815.525	1283
815.624	276
815.722	1214
815.821	1280
815.919	1400
816.018	287
816.116	1900
816.215	1318
816.313	1245
816.412	1177
816.510	1143
816.609	2797
816.707	1214
816.805	741
816.904	1627
817.002	1853
817.100	2574
817.198	2125
817.296	1930
817.395	2433
817.493	3797
817.591	3810
817.689	5708
817.787	8142
817.885	12645
817.983	21431
818.081	40733
818.179	89949
818.277	197287
818.375	237394
818.473	107567
818.571	44095
818.669	25780
818.767	19418
818.865	19200
818.963	21354
819.061	27481
819.158	43293
819.256	79800
819.354	159374
819.452	306008
819.549	289625
819.647	137057
819.745	61884
819.842	34426
819.940	21803
820.038	15462
820.135	11955
820.233	9578
820.330	7644
820.428	5639
820.525	5499
820.623	4105
820.720	3104
820.818	3777
820.915	2941
821.012	2992
821.110	1016
821.207	1934
821.304	859
821.402	1937
821.499	2279
821.596	2482
821.693	1921
821.791	2056
821.888	1258
821.985	1834
822.082	692
822.179	1755
822.276	195
822.373	1450
822.470	-126
822.567	657
822.664	111
822.761	1480
822.858	325
822.955	265
823.052	912
823.149	685
823.246	-25
823.343	-404
823.440	545
823.536	472
823.633	531
823.730	222
823.827	1302
823.923	362
824.020	1280
824.117	532
824.213	-158
824.310	1010
824.407	29
824.503	103
824.600	-103
824.696	319
824.793	315
824.889	-489
824.986	-302
825.082	237
825.179	116
825.275	-27
825.371	2
825.468	117
825.564	-780
825.660	756
825.757	953
825.853	118
825.949	-792
826.045	-280
826.142	-162
826.238	141
826.334	100
826.430	-1119
826.526	137
826.622	-18
826.718	-725
826.814	-209
826.910	654
827.006	-89
827.102	-251
827.198	329
827.294	263
827.390	178
827.486	43
827.582	-996
827.678	-1231
827.774	397
827.869	-468
827.965	1269
828.061	-284
828.157	-46
828.252	-598
828.348	-798
828.444	-106
828.539	-742
828.635	-650
828.731	383
828.826	-1524
828.922	313
829.017	-450
829.113	419
829.208	-832
829.304	-1202
829.399	860
829.495	-234
829.590	200
829.685	-460
829.781	-787
829.876	-579
829.971	-796
830.066	-477
830.162	-663
830.257	-481
830.352	-1079
830.447	1035
830.543	-20
830.638	-561
830.733	-236
830.828	-500
830.923	-232
831.018	-394
831.113	-339
831.208	-690
831.303	-37
831.398	-163
831.493	-243
831.588	-99
831.683	-1240
831.778	143
831.873	-185
831.967	390
832.062	-562
832.157	-173
832.252	362
832.346	-936
832.441	404
832.536	675
832.631	695
832.725	683
832.820	-807
832.914	-491
833.009	-1057
833.104	441
833.198	-339
833.293	-861
833.387	-927
833.482	-603
833.576	-773
833.670	531
833.765	-27
833.859	-681
833.954	-752
834.048	-209
834.142	3
834.237	-1465
834.331	-108
834.425	-1099
834.519	-1649
834.613	502
834.708	-211
834.802	-404
834.896	-1250
834.990	-353
835.084	-128
835.178	-385
835.272	-636
835.366	-1121
835.460	26
835.554	-317
835.648	-1236
835.742	-659
835.836	334
835.930	-1315
836.024	-749
836.117	507
836.211	-558
836.305	444
836.399	451
836.493	-1075
836.586	172
836.680	-647
836.774	-1218
836.867	946
836.961	-1472
837.055	-991
837.148	-560
837.242	228
837.335	-1063
837.429	-564
837.522	-963
837.616	-268
837.709	-1
837.803	304
837.896	-115
837.989	-848
838.083	668
838.176	96
838.269	87
838.363	-348
838.456	-934
838.549	-170
838.642	-300
838.735	1499
838.829	777
838.922	-1067
839.015	-755
839.108	-1338
839.201	-212
839.294	-223
839.387	-354
839.480	-1053
839.573	-637
839.666	-242
839.759	-681
839.852	-800
839.945	-21
840.038	-426
840.131	-490
840.223	68
840.316	417
840.409	-407
840.502	-808
840.594	152
840.687	-1558
840.780	-590
840.873	-505
840.965	-476
841.058	-112
841.150	-256
841.243	-999
841.336	153
841.428	-324
841.521	-1340
841.613	-562
841.706	33
841.798	-1308
841.890	-272
841.983	-1091
842.075	490
842.167	-834
842.260	-896
842.352	109
842.444	-370
842.537	32
842.629	1290
842.721	-401
842.813	-67
842.905	-1217
842.997	-297
843.090	-786
843.182	-378
843.274	-863
843.366	1664
843.458	3362
843.550	2598
843.642	-365
843.734	-158
843.826	-1014
843.918	777
844.009	-502
844.101	-605
844.193	-586
844.285	-956
844.377	-579
844.469	-397
844.560	-546
844.652	-628
844.744	247
844.835	-140
844.927	-421
845.019	-575
845.110	-473
845.202	352
845.293	86
845.385	-795
845.476	-512
845.568	72
845.659	-517
845.751	301
845.842	-456
845.934	-817
846.025	-740
846.116	-1156
846.208	-909
846.299	-1165
846.390	-46
846.482	-84
846.573	-10
846.664	-248
846.755	-206
846.846	125
846.937	-1507
847.029	-47
847.120	-255
847.211	-236
847.302	649
847.393	-907
847.484	-348
847.575	-713
847.666	-1108
847.757	-468
847.847	-816
847.938	-679
848.029	-787
848.120	-889
848.211	8
848.302	-1394
848.392	-1662
848.483	10
848.574	-1131
848.664	-619
848.755	-548
848.846	-666
848.936	-629
849.027	362
849.118	-838
849.208	-1048
849.299	-218
849.389	-349
849.480	-672
849.570	491
849.661	409
849.751	41
849.841	-15
849.932	-652
850.022	-945
850.112	22
850.203	-581
850.293	-924
850.383	-943
850.474	-939
850.564	-309
850.654	-804
850.744	-764
850.834	-178
850.924	-474
851.014	-1241
851.104	-666
851.194	-800
851.284	-198
851.374	68
851.464	-238
851.554	88
851.644	618
851.734	2042
851.824	2790
851.914	6148
852.004	13984
852.094	17564
852.183	3903
852.273	-304
852.363	-865
852.452	-851
852.542	-389
852.632	-74
852.721	91
852.811	-1504
852.901	-372
852.990	-612
853.080	-824
853.169	-449
853.259	-247
853.348	-989
853.438	-892
853.527	-31
853.617	-108
853.706	-293
853.795	-280
853.885	1569
853.974	2226
854.063	5953
854.152	8433
854.242	4013
854.331	69
854.420	-307
854.509	83
854.598	-96
854.687	-1274
854.777	-130
854.866	-1136
854.955	252
855.044	-1360
855.133	-432
855.222	-437
855.311	52
855.400	-175
855.488	-727
855.577	-991
855.666	-650
855.755	-27
855.844	406
855.933	471
856.021	100
856.110	-850
856.199	-262
856.288	-1124
856.376	-227
856.465	-1596
856.554	-58
856.642	-535
856.731	-514
856.819	-540
856.908	-955
856.996	-196
857.085	-687
857.173	15
857.262	-707
857.350	97
857.438	-959
857.527	-289
857.615	-974
857.703	-496
857.792	-836
857.880	-1373
857.968	-1404
858.056	-1792
858.145	-82
858.233	-712
858.321	-1178
858.409	-432
858.497	-451
858.585	-1662
858.673	-297
858.761	-894
858.849	-1679
858.937	-1074
859.025	-1368
859.113	-844
859.201	-902
859.289	-726
859.377	-1249
859.465	-912
859.552	-1214
859.640	-531
859.728	180
859.816	-661
859.903	-185
859.991	-1210
860.079	-426
860.166	-724
860.254	-1015
860.342	-428
860.429	-810
860.517	-1024
860.604	-296
860.692	-1173
860.779	-404
860.867	-889
860.954	-865
861.042	-795
861.129	-879
861.216	-252
861.304	-466
861.391	-1092
861.478	-451
861.565	-566
861.653	-141
861.740	-505
861.827	-853
861.914	-292
862.001	-1370
862.089	-871
862.176	-1118
862.263	-988
862.350	269
862.437	-917
862.524	-1321
862.611	-1177
862.698	-163
862.785	-921
862.871	-407
862.958	-1117
863.045	-1317
863.132	-261
863.219	110
863.306	-1647
863.392	-496
863.479	-982
863.566	-958
863.652	-540
863.739	-344
863.826	-623
863.912	-896
863.999	-1748
864.086	59
864.172	-1024
864.259	-1221
864.345	-905
864.432	-532
864.518	-1312
864.604	-485
864.691	-1256
864.777	-671
864.863	-378
864.950	-43
865.036	-716
865.122	-1220
865.209	-304
865.295	-578
865.381	-1414
865.467	-382
865.553	144
865.639	-1077
865.726	-901
865.812	349
865.898	812
865.984	1399
866.070	3108
866.156	4114
866.242	752
866.328	-547
866.414	-475
866.499	-881
866.585	-1408
866.671	-1284
866.757	-317
866.843	-1036
866.928	-637
867.014	-1205
867.100	239
867.186	-773
867.271	-1040
867.357	3
867.442	-156
867.528	-84
867.614	-517
867.699	-202
867.785	-671
867.870	-1011
867.956	-575
868.041	239
868.127	-1115
868.212	-796
868.297	-697
868.383	-954
868.468	217
868.553	-176
868.639	-114
868.724	-775
868.809	563
868.894	-345
868.979	-759
869.065	-1269
869.150	-985
869.235	-1253
869.320	-701
869.405	-1335
869.490	-1266
869.575	-759
869.660	-625
869.745	-883
869.830	-1003
869.915	-961
870.000	-536
870.085	-828
870.169	-1140
870.254	-154
870.339	-1125
870.424	-1010
870.509	-804
870.593	-561
870.678	-609
870.763	-940
870.847	-154
870.932	-1305
871.016	-524
871.101	-845
871.186	-414
871.270	-1263
871.355	-1477
871.439	-783
871.523	-1158
871.608	-1026
871.692	-880
871.777	-669
871.861	-769
871.945	-1300
872.030	-705
872.114	-1277
872.198	-1689
872.282	-485
872.367	-2194
872.451	-2005
872.535	-837
872.619	-987
872.703	-693
872.787	-1023
872.871	-1506
872.955	-108
873.039	-1121
873.123	-1092
873.207	-1046
873.291	-554
873.375	-1493
873.459	-698
873.543	-721
873.627	-564
873.711	-629
873.794	-925
873.878	-1424
873.962	-619
874.045	-833
874.129	-1545
874.137	-1469
874.213	-709
874.245	-586
874.296	-388
874.352	-707
874.380	-866
874.460	-734
874.464	-730
874.547	-982
874.568	-944
874.631	-834
874.676	-790
874.714	-735
874.784	-610
874.798	-593
874.881	-695
874.892	-730
874.965	-947
874.999	-996
875.048	-1081
875.107	-919
875.131	-850
875.215	-417
875.215	-416
875.298	-189
875.323	-338
875.381	-706
875.430	-1315
875.465	-1740
875.538	-1034
875.548	-938
875.631	-810
875.646	-876
875.714	-1212
875.753	-1252
875.798	-1276
875.861	-950
875.881	-868
875.964	-603
875.968	-610
876.047	-694
876.076	-874
876.130	-1186
876.183	-895
876.213	-754
876.291	-167
876.296	-119
876.379	-1402
876.398	-1105
876.462	-221
876.506	-500
876.545	-736
876.613	-718
876.628	-720
876.711	-580
876.721	-588
876.794	-543
876.828	-500
876.877	-527
876.935	-426
876.960	-355
877.043	-617
877.043	-617
877.125	-506
877.150	-390
877.208	-199
877.258	-888
877.291	-1340
877.365	-1071
877.374	-1028
877.456	-314
877.472	-303
877.539	-356
877.579	-635
877.622	-867
877.687	-44
877.704	159
877.787	93
877.794	63
877.869	-244
877.901	-360
877.952	-479
878.008	-297
878.034	-215
878.115	-99
878.117	-99
878.199	-895
878.222	-819
878.282	-531
878.329	-337
878.364	-222
878.437	-15
878.447	40
878.529	-782
878.544	-647
878.611	-402
878.651	-843
878.694	-984
878.758	-318
878.776	-227
878.858	-489
878.865	-510
878.941	-615
878.972	-477
879.023	-307
879.078	-647
879.105	-731
879.185	-739
879.187	-739
879.269	-415
879.292	-390
879.351	-540
879.399	-548
879.433	-298
879.506	-202
879.516	-222
879.598	65
879.613	-20
879.680	-730
879.720	-794
879.762	-512
879.827	-366
879.844	-392
879.926	-624
879.933	-580
880.007	-107
880.040	-308
880.089	-624
880.147	-521
880.171	-403
880.253	706
880.254	704
880.335	58
880.360	101
880.417	637
880.467	752
880.499	800
880.574	1618
880.580	1642
880.662	593
880.680	472
880.744	-88
880.787	-492
880.825	-520
880.893	-190
880.907	-142
880.989	38
881.000	5
881.070	-394
881.106	-345
881.152	-140
881.213	-205
881.233	-242
881.315	-488
881.319	-464
881.396	-185
881.426	-331
881.478	-118
881.532	260
881.559	232
881.639	-92
881.641	-92
881.722	558
881.745	456
881.803	241
881.852	413
881.885	388
881.958	-188
881.966	-241
882.047	-61
882.064	-141
882.129	114
882.171	329
882.210	285
882.277	322
882.291	321
882.372	236
882.383	193
882.454	175
882.489	188
882.535	119
882.596	270
882.616	263
882.697	112
882.702	91
882.778	264
882.808	303
882.859	-89
882.914	-267
882.940	-133
883.020	-47
883.021	-42
883.102	-181
883.127	45
883.183	123
883.233	96
883.264	255
883.339	427
883.345	424
883.426	149
883.445	138
883.507	40
883.551	-249
883.587	-254
883.657	214
883.668	199
883.749	-94
883.763	-229
883.830	-489
883.869	-289
883.910	136
883.975	392
883.991	293
884.072	-260
884.081	-272
884.152	387
884.187	460
884.233	73
884.292	-150
884.314	-80
884.394	-10
884.398	-17
884.475	-399
884.504	-377
884.555	127
884.610	463
884.636	447
884.716	235
884.716	238
884.797	260
884.821	112
884.877	44
884.927	39
884.958	1
885.033	256
885.038	271
885.118	118
885.139	128
885.199	322
885.244	367
885.279	379
885.350	294
885.359	267
885.439	229
885.456	202
885.520	211
885.561	239
885.600	323
885.667	165
885.680	60
885.760	-279
885.773	-335
885.840	144
885.878	344
885.920	278
885.984	208
886.000	264
886.080	456
886.089	475
886.160	512
886.195	484
886.240	364
886.300	386
886.320	455
886.400	618
886.406	611
886.480	574
886.511	644
886.560	661
886.616	469
886.640	492
886.720	909
886.722	905
886.800	529
886.827	469
886.879	757
886.932	974
886.959	724
887.038	-46
887.039	-34
887.119	616
887.143	877
887.198	926
887.248	729
887.278	733
887.354	896
887.358	901
887.437	815
887.459	821
887.517	952
887.564	975
887.596	902
887.669	697
887.676	677
887.755	445
887.774	370
887.835	428
887.880	495
887.914	422
887.985	186
887.994	216
888.073	528
888.090	588
888.153	498
888.195	408
888.232	403
888.300	447
888.311	446
888.391	294
888.405	289
888.470	493
888.510	543
888.549	671
888.615	949
888.628	804
888.708	-101
888.720	-248
888.787	607
888.825	1067
888.866	949
888.930	822
888.945	840
889.024	871
889.035	867
889.103	628
889.140	518
889.182	799
889.245	1177
889.261	1208
889.340	1335
889.349	1345
889.419	856
889.454	600
889.498	807
889.559	1105
889.577	1120
889.656	1163
889.664	1167
889.735	1273
889.768	1316
889.814	1187
889.873	1011
889.978	1214
890.083	1563
890.187	800
890.292	634
890.397	1210
890.501	1167
890.606	689
890.710	1530
890.815	1593
890.919	1140
891.024	1517
891.128	1486
891.233	850
891.337	433
891.442	1683
891.546	1135
891.650	1503
891.755	894
891.859	1703
891.963	518
892.068	804
892.172	993
892.276	649
892.380	738
892.484	1168
892.589	282
892.693	1228
892.797	847
892.901	776
893.005	38
893.109	217
893.213	979
893.317	946
893.421	971
893.525	379
893.629	502
893.733	102
893.837	483
893.941	791
894.045	2949
894.148	4737
894.252	13405
894.356	13167
894.460	2000
894.564	170
894.667	1014
894.771	766
894.875	487
894.978	631
895.082	519
895.186	471
895.289	1020
895.393	663
895.496	845
895.600	637
895.703	162
895.807	583
895.910	1040
896.014	484
896.117	794
896.221	686
896.324	167
896.427	529
896.531	146
896.634	75
896.737	695
896.840	64
896.944	991
897.047	511
897.150	131
897.253	354
897.356	673
897.460	-7
897.563	577
897.666	281
897.769	514
897.872	1040
897.975	173
898.078	375
898.181	-137
898.284	-811
898.387	327
898.490	573
898.593	531
898.695	362
898.798	-236
898.901	403
899.004	176
899.107	45
899.209	696
899.312	727
899.415	129
899.518	-212
899.620	616
899.723	739
899.826	1671
899.928	847
900.031	765
900.133	-88
900.236	954
900.338	-582
900.441	325
900.543	357
900.646	42
900.748	337
900.851	454
900.953	-204
901.055	515
901.158	697
901.260	74
901.362	-384
901.465	-87
901.567	-252
901.669	690
901.771	-225
901.873	511
901.976	145
902.078	677
902.180	722
902.282	-136
902.384	136
902.486	327
902.588	464
902.690	-351
902.792	210
902.894	504
902.996	-355
903.098	-55
903.200	-61
903.302	338
903.404	524
903.505	332
903.607	654
903.709	504
903.811	49
903.913	-44
904.014	305
904.116	75
904.218	78
904.319	738
904.421	-48
904.523	903
904.624	804
904.726	483
904.827	763
904.929	271
905.030	380
905.132	580
905.233	249
905.335	935
905.436	398
905.537	-211
905.639	248
905.740	-59
905.841	-313
905.943	584
906.044	-138
906.145	176
906.247	-290
906.348	298
906.449	161
906.550	295
906.651	426
906.752	-71
906.854	-493
906.955	497
907.056	385
907.157	469
907.258	486
907.359	-591
907.460	77
907.561	47
907.662	201
907.762	-368
907.863	-120
907.964	499
908.065	795
908.166	788
908.267	-56
908.367	535
908.468	-67
908.569	498
908.670	368
908.770	919
908.871	549
908.971	98
909.072	711
909.173	217
909.273	629
909.374	-222
909.474	560
909.575	240
909.675	-383
909.776	449
909.876	709
909.977	245
910.077	1032
910.177	-360
910.278	108
910.378	-352
910.478	706
910.579	116
910.679	-496
910.779	232
910.879	-236
910.980	98
911.080	280
911.180	-112
911.280	277
911.380	280
911.480	-374
911.580	363
911.680	198
911.780	177
911.880	-150
911.980	223
912.080	196
912.180	498
912.280	38
912.380	-75
912.480	-288
912.580	52
912.679	-1
912.779	-58
912.879	341
912.979	-356
913.078	-251
913.178	136
913.278	-243
913.377	240
913.477	-342
913.577	-14
913.676	1253
913.776	-530
913.875	753
913.975	5
914.074	-208
914.174	225
914.273	436
914.373	252
914.472	970
914.572	949
914.671	759
914.770	220
914.870	539
914.969	-112
915.068	-542
915.167	423
915.267	-104
915.366	-97
915.465	358
915.564	203
915.663	-47
915.763	109
915.862	-62
915.961	-256
916.060	-208
916.159	502
916.258	-127
916.357	350
916.456	136
916.555	-574
916.654	-436
916.752	-183
916.851	-414
916.950	-262
917.049	147
917.148	-709
917.247	695
917.345	286
917.444	39
917.543	-201
917.642	462
917.740	241
917.839	355
917.937	479
918.036	110
918.135	-577
918.233	-502
918.332	-758
918.430	54
918.529	46
918.627	-99
918.726	399
918.824	127
918.923	341
919.021	-473
919.119	-1014
919.218	-381
919.316	159
919.414	-602
919.512	49
919.611	831
919.709	78
919.807	-321
919.905	294
920.003	-387
920.102	483
920.200	-126
920.298	230
920.396	40
920.494	-62
920.592	656
920.690	-104
920.788	-160
920.886	-303
920.984	-314
921.082	148
921.180	1
921.277	209
921.375	193
921.473	-48
921.571	-529
921.669	402
921.766	403
921.864	142
921.962	173
922.060	-563
922.157	-14
922.255	-926
922.352	785
922.450	-21
922.548	-960
922.645	-422
922.743	-333
922.840	294
922.938	589
923.035	405
923.133	349
923.230	-356
923.327	43
923.425	-161
923.522	8
923.619	305
923.717	-93
923.814	-39
923.911	-100
924.008	935
924.106	146
924.203	128
924.300	-135
924.397	-157
924.494	1043
924.591	-375
924.688	287
924.786	733
924.883	-183
924.979	-502
925.077	484
925.173	116
925.270	-100
925.367	215
925.464	383
925.561	410
925.658	179
925.755	312
925.852	5
925.948	959
926.045	246
926.142	468
926.239	286
926.335	-1304
926.432	145
926.529	795
926.625	516
926.722	-346
926.818	47
926.915	-380
927.011	185
927.108	329
927.204	-60
927.301	-159
927.397	-7
927.494	179
927.590	-204
927.687	-122
927.783	-137
927.879	-529
927.976	-402
928.072	296
928.168	335
928.264	313
928.361	-708
928.457	-176
928.553	-10
928.649	-273
928.745	-489
928.841	-885
928.937	413
929.033	-100
929.129	104
929.225	-100
929.321	-237
929.417	-404
929.513	-45
929.609	181
929.705	-80
929.801	-21
929.897	395
929.993	-71
930.089	-277
930.184	249
930.280	-217
930.376	-227
930.471	-547
930.567	105
930.663	-228
930.758	-517
930.854	-90
930.950	-377
931.045	-323
931.141	-105
931.236	-90
931.332	-301
931.427	-642
931.523	126
931.618	402
931.714	-834
931.809	-145
931.905	-202
932.000	-531
932.095	-297
932.191	-277
932.286	-896
932.381	-69
932.476	-428
932.572	-431
932.667	-174
932.762	-44
932.857	524
932.952	-1364
933.047	-409
933.142	1
933.237	-1011
933.332	-554
933.427	466
933.522	-254
933.617	196
933.712	564
933.807	-772
933.902	-386
933.997	40
934.092	-504
934.187	-1216
934.282	-710
934.376	-95
934.471	485
934.566	-473
934.661	-316
934.755	-235
934.850	-497
934.945	-325
935.039	-63
935.134	-469
935.228	-838
935.323	321
935.417	-188
935.512	-193
935.606	502
935.701	-756
935.795	-469
935.890	-466
935.984	-251
936.079	-324
936.173	-17
936.267	66
936.362	-745
936.456	-461
936.550	-388
936.644	-341
936.738	380
936.833	12
936.927	327
937.021	365
937.115	-189
937.209	-748
937.303	-58
937.397	-388
937.491	518
937.585	-163
937.679	-844
937.773	-454
937.867	-759
937.961	78
938.055	-146
938.149	273
938.243	-564
938.337	-307
938.430	-330
938.524	-26
938.618	-815
938.712	-268
938.805	400
938.899	334
938.993	107
939.086	-759
939.180	-554
939.274	-273
939.367	-210
939.461	-61
939.554	-825
939.648	-1179
939.741	-603
939.835	-388
939.928	-1277
940.022	-270
940.115	-745
940.208	-164
940.302	-749
940.395	115
940.488	-222
940.582	-252
940.675	155
940.768	-432
940.861	-653
940.954	-115
941.048	-832
941.141	203
941.234	-53
941.327	-498
941.420	712
941.513	-317
941.606	-405
941.699	-829
941.792	-431
941.885	-125
941.978	-247
942.071	-301
942.164	-594
942.257	-49
942.349	-756
942.442	-506
942.535	63
942.628	-541
942.721	161
942.813	-1272
942.906	178
942.999	-196
943.091	-359
943.184	-356
943.277	-1515
943.369	-122
943.462	-480
943.554	-192
943.647	-866
943.739	-547
943.832	-651
943.924	-574
944.017	-543
944.109	-240
944.201	-144
944.294	-178
944.386	-564
944.478	-268
944.571	-1083
944.663	-627
944.755	-892
944.847	89
944.940	196
945.032	-775
945.124	-854
945.216	306
945.308	-30
945.400	125
945.492	-143
945.584	-601
945.676	597
945.768	-537
945.860	8
945.952	-1130
946.044	261
946.136	-429
946.228	-829
946.320	-587
946.412	-331
946.503	-1116
946.595	-90
946.687	-515
946.779	-1035
946.870	-772
946.962	-836
947.054	97
947.145	212
947.237	-256
947.329	-1162
947.420	-297
947.512	-290
947.603	-315
947.695	-529
947.786	-788
947.878	-598
947.969	-787
948.061	-1633
948.152	-9
948.243	-750
948.335	-772
948.426	-1093
948.517	-621
948.609	-664
948.700	-634
948.791	-112
948.882	-168
948.973	-670
949.065	-14
949.156	-147
949.247	-1450
949.338	168
949.429	439
949.520	-1261
949.611	-691
949.702	-335
949.793	-266
949.884	-232
949.975	26
950.066	-336
950.157	-241
950.247	-748
950.338	-455
950.429	-161
950.520	-721
950.611	-759
950.701	-157
950.792	-876
950.883	128
950.973	-469
951.064	-320
951.155	-274
951.245	-394
951.336	-1149
951.427	-426
951.517	-734
951.608	-53
951.698	-1035
951.788	-491
951.879	106
951.969	123
952.060	-339
952.150	-569
952.240	-419
952.331	-1301
952.421	299
952.511	-315
952.602	-401
952.692	-344
952.782	-322
952.872	-417
952.962	-507
953.052	-444
953.143	-1265
953.233	-271
953.323	-210
953.413	-464
953.503	-297
953.593	866
953.683	-450
953.773	-293
953.863	-166
953.953	-840
954.042	373
954.132	-341
954.222	-785
954.312	-446
954.402	-427
954.492	-644
954.581	921
954.671	-569
954.761	-294
954.850	320
954.940	-750
955.030	-48
955.119	-325
955.209	170
955.298	-951
955.388	-363
955.477	31
955.567	-484
955.656	-79
955.746	112
955.835	-315
955.925	-622
956.014	-89
956.103	-383
956.193	270
956.282	-5
956.371	21
956.461	-177
956.550	170
956.639	600
956.728	-35
956.817	57
956.906	-592
956.995	492
957.085	-340
957.174	-342
957.263	390
957.352	1234
957.441	-118
957.530	667
957.619	-113
957.708	-195
957.796	462
957.885	351
957.974	-436
958.063	-48
958.152	-125
958.241	1300
958.329	197
958.418	221
958.507	-124
958.596	1337
958.684	367
958.773	243
958.861	63
958.950	1929
959.039	1432
959.127	492
959.216	805
959.304	1254
959.393	969
959.481	2055
959.570	1468
959.658	495
959.746	1618
959.835	1434
959.923	1984
960.011	976
960.100	1299
960.188	458
960.276	452
960.365	394
960.453	389
960.541	374
960.629	575
960.717	-311
960.805	321
960.893	1328
960.981	362
961.069	1257
961.158	117
961.245	1176
961.333	598
961.421	-754
961.509	-363
961.597	526
961.685	218
961.773	-686
961.861	-178
961.949	268
962.036	-342
962.124	948
962.212	107
962.299	-19
962.387	-122
962.475	-390
962.562	-902
962.650	-134
962.738	558
962.825	-515
962.913	222
963.000	-158
963.088	-696
963.175	-562
963.263	-536
963.350	-1143
963.438	-408
963.525	-780
963.612	475
963.700	379
963.787	3659
963.874	816
963.962	-85
964.049	-1436
964.136	-414
964.223	-163
964.310	-249
964.398	-25
964.485	-588
964.572	-490
964.659	161
964.746	-193
964.833	-99
964.920	-528
965.007	140
965.094	-786
965.181	-755
965.268	-321
965.355	-507
965.441	-472
965.528	-1007
965.615	-433
965.702	-1072
965.789	-1485
965.875	-851
965.962	-711
966.049	-1267
966.136	-756
966.222	-776
966.309	-841
966.395	-994
966.482	-561
966.569	-631
966.655	-415
966.742	-1212
966.828	-1147
966.915	-236
967.001	-971
967.087	-1126
967.174	-681
967.260	-118
967.347	-777
967.433	-185
967.519	1590
967.605	-383
967.692	-396
967.778	-1279
967.864	-649
967.950	-1083
968.036	-973
968.123	-74
968.209	-966
968.295	-1145
968.381	-59
968.467	-401
968.553	-1139
968.639	-430
968.725	-1142
968.811	-730
968.897	255
968.983	-758
969.069	-1815
969.154	-560
969.240	-529
969.326	-1275
969.412	-820
969.497	-853
969.583	-849
969.669	-416
969.755	-744
969.840	-710
969.926	-1094
970.012	-1310
970.097	-711
970.183	-867
970.268	-471
970.354	-1100
970.439	-1786
970.525	972
970.610	-499
970.696	-346
970.781	-737
970.866	-1517
970.952	-971
971.037	-1130
971.122	-1507
971.208	-899
971.293	-52
971.378	-1467
971.463	-538
971.549	-1305
971.634	-473
971.719	-740
971.804	-1430
971.889	-485
971.974	-289
972.059	-1134
972.144	-749
972.229	-766
972.314	-1323
972.399	-1000
972.484	-1173
972.569	-569
972.654	-1823
972.739	-777
972.824	-301
972.908	-816
972.993	-742
973.078	-1741
973.163	-892
973.247	-1417
973.332	-2749
973.417	596
973.501	-1358
973.586	-1359
973.671	-969
973.755	-1297
973.840	367
973.924	-1053
974.009	-674
974.093	-1100
974.178	-345
974.262	-1086
974.346	-791
974.431	-849
974.515	-1207
974.600	-1057
974.684	-1262
974.768	-2104
974.852	-293
974.937	-1649
975.021	-886
975.105	-792
975.189	-576
975.273	-1143
975.358	-1881
975.442	-2479
975.526	-683
975.610	-1832
975.694	-1304
975.778	-701
975.862	-1059
975.946	-3002
976.030	446
976.114	-1743
976.198	-923
976.281	-1407
976.365	-717
976.449	-1337
976.533	-1391
976.617	-1404
976.700	-596
976.784	-118
976.868	-1358
976.951	-764
977.035	-1935
977.119	-1600
977.202	-1841
977.286	-918
977.369	-1518
977.453	-728
977.536	-1551
977.620	-1287
977.703	-1119
977.787	-1523
977.870	-717
977.953	-1163
978.037	-831
978.120	142
978.203	-1124
978.287	-517
978.370	-696
978.453	-1938
978.536	-1911
978.620	-1486
978.703	-1590
978.786	-1065
978.869	-755
978.952	-1857
979.035	-561
979.118	-810
979.201	-832
979.284	-330
979.367	-1347
979.450	-1470
979.533	-1827
979.616	-1427
979.699	-1134
979.782	-1191
979.865	-1110
979.948	-1294
980.030	-1991
980.113	-747
980.196	-2430
980.279	-503
980.361	-1026
980.444	-1291
980.526	-1180
980.609	-1307
980.692	-1313
980.774	-1188
980.857	-2556
980.939	-1200
981.022	-1527
981.104	-1546
981.187	-2295
981.269	-1303
981.352	-927
981.434	-1571
981.516	-1666
981.599	-591
981.681	-341
981.763	-1595
981.846	-1840
981.928	-1758
982.010	-1216
982.092	-3125
982.174	-593
982.256	-1410
982.339	-1965
982.421	-1302
982.503	-1210
982.585	-2011
982.667	-461
982.749	-798
982.831	-1549
982.913	-1837
982.995	-439
983.077	-2159
983.158	-555
983.240	-1943
983.322	-807
983.404	-1473
983.486	-1864
983.568	-1408
983.649	-783
983.731	-640
983.813	-1841
983.894	-1924
983.976	-1825
984.058	-1905
984.139	-1294
984.221	-2088
984.302	-552
984.384	-1625
984.465	-2163
984.547	-1919
984.628	-1294
984.710	-1651
984.791	-2057
984.872	-1637
984.954	-1584
985.035	-1933
985.116	-1718
985.198	-1803
985.279	-827
985.360	-1328
985.441	-1388
985.522	-965
985.604	-1145
985.685	-2920
985.766	-1591
985.847	-175
985.928	-1540
986.009	-1326
986.090	-2191
986.171	-986
986.252	-1763
986.333	-1642
986.414	-1757
986.495	-1231
986.576	-1666
986.656	-1986
986.737	-2073
986.818	-1531
986.899	-2041
986.980	-2246
987.060	-1616
987.141	-1959
987.222	-1647
987.302	-2195
987.383	-1479
987.464	-1381
987.544	-1348
987.625	-1607
987.705	-1618
987.786	-2292
987.866	-1046
987.947	-1525
988.027	-2307
988.108	-2150
988.188	-1057
988.268	-1495
988.349	-2002
988.429	-1180
988.509	-1588
988.589	-1820
988.670	-2439
988.750	-602
988.830	-1645
988.910	-1715
988.990	-803
989.070	-1694
989.151	-2156
989.231	-1723
989.311	-1839
989.391	-1933
989.471	-1445
989.551	-2151
989.631	-1323
989.711	-1416
989.791	-2725
989.870	-1667
989.950	-1212
990.030	-1623
990.110	-1818
990.190	-2256
990.269	-1955
990.349	-1951
990.429	-1599
990.509	-1483
990.588	-1885
990.668	-913
990.747	-973
990.827	-1786
990.907	-1143
990.986	-2953
991.066	-1963
991.145	-1814
991.225	-1858
991.304	-2597
991.383	-1214
991.463	-1898
991.542	-738
991.622	-1641
991.701	-2678
991.780	-1401
991.859	-2121
991.939	-1795
992.018	-2346
992.097	-994
992.176	-1879
992.256	-1341
992.335	-2168
992.414	-1021
992.493	-1952
992.572	-2318
992.651	-618
992.730	-1573
992.809	-1245
992.888	-1968
992.967	-1741
993.046	-2143
993.125	-2378
993.203	-1247
993.282	-1163
993.361	-1936
993.440	-2124
993.519	-2216
993.597	-1474
993.676	-2738
993.755	-961
993.834	-1444
993.912	-2088
993.991	-1182
994.069	-1918
994.148	-1573
994.226	-1819
994.305	-1193
994.384	-2057
994.462	-1280
994.540	-2059
994.619	-2167
994.697	-1652
994.776	-2307
994.854	-1030
994.932	-2193
995.011	-1780
995.089	-2117
995.167	-1295
995.245	-1846
995.324	-1222
995.402	-1495
995.480	-1167
995.558	-2295
995.636	-2132
995.714	-1520
995.792	140
995.870	-2526
995.948	-2047
996.026	-1448
996.104	-2344
996.182	-1260
996.260	-1864
996.338	-919
996.416	-2432
996.494	-1873
996.572	-1335
996.649	-1548
996.727	-2177
996.805	-2206
996.883	-2160
996.960	-1365
997.038	-1841
997.116	-1983
997.193	-2209
997.271	-1886
997.348	-1549
997.426	-1370
997.504	-2291
997.581	-695
997.658	-1891
997.736	-2057
997.813	-1770
997.891	-1324
997.968	-2116
998.046	-1738
998.123	-1716
998.200	-1708
998.277	-2326
998.355	-1487
998.432	-2014
998.509	-1388
998.586	-1070
998.663	-1651
998.741	-1751
998.818	-2516
998.895	-2552
998.972	-1284
999.049	-1838
999.126	-1680
999.203	-1431
999.280	-1745
999.357	-1515
999.434	-1823
999.511	-883
999.587	-1490
999.664	-1965
999.741	-965
999.818	-628
999.895	-2127
999.971	-2004
1000.048	-1182
1000.125	-442
1000.202	-2621
1000.278	-2187
1000.355	-1450
1000.431	-1969
1000.508	-2247
1000.584	-1497
1000.661	-1708
1000.738	-2800
1000.814	-1097
1000.890	-1963
1000.967	-1242
1001.043	-2115
1001.120	-3175
1001.196	-2194
1001.272	-2690
1001.349	-1542
1001.425	-1437
1001.501	-2220
1001.577	-1885
1001.654	-1795
1001.730	-1399
1001.806	-2165
1001.882	-2580
1001.958	-1815
1002.034	-675
1002.110	-2016
1002.186	-1825
1002.262	-2427
1002.338	-2112
1002.414	-1725
1002.490	-2043
1002.566	-2001
1002.642	-2359
1002.718	-2094
1002.794	-2035
1002.870	-1644
1002.945	-1392
1003.021	-1391
1003.097	-2236
1003.173	-2108
1003.248	-1788
1003.324	-1512
1003.400	-1514
1003.475	-1892
1003.551	-1682
1003.626	-1626
1003.702	-1915
1003.777	-1220
1003.853	-1399
1003.928	-1270
1004.004	-1201
1004.079	-2022
1004.155	-2427
1004.230	-2821
1004.305	-199
1004.381	-1599
1004.456	-1125
1004.531	-1333
1004.607	-1511
1004.682	-982
1004.757	-1739
1004.832	-1912
1004.907	-1976
1004.982	-1878
1005.057	-1219
1005.133	-1146
1005.208	-1339
1005.283	-1230
1005.358	-1614
1005.433	-2124
1005.508	-1422
1005.583	-2419
1005.657	-2328
1005.732	-1041
1005.807	-2236
1005.882	-1152
1005.957	-1554
1006.032	-1138
1006.106	-1883
1006.181	-1710
1006.256	-1405
1006.331	-1685
1006.405	-2335
1006.480	-1703
1006.554	-1853
1006.629	-1225
1006.704	-1228
1006.778	-780
1006.853	-798
1006.927	-2559
1007.002	-2521
1007.076	-1281
1007.150	-1895
1007.225	-2007
1007.299	-915
1007.373	-1893
1007.448	-790
1007.522	-672
1007.596	-1470
1007.671	-2440
1007.745	-1198
1007.819	-2266
1007.893	-1916
1007.967	-2266
1008.041	-1834
1008.115	-472
1008.190	-1491
1008.264	-1448
1008.338	-2220
1008.412	-1393
1008.486	-1304
1008.560	-2341
1008.633	-2240
1008.707	-2041
1008.781	-1335
1008.855	-1254
1008.929	-2285
1009.003	-2026
1009.076	-2042
1009.150	-1399
1009.224	-1970
1009.298	-1766
1009.371	-1989
1009.445	-1278
1009.519	-1153
1009.592	-2410
1009.666	-1759
1009.739	-1642
1009.813	-2408
1009.886	-826
1009.960	-2157
1010.033	-2122
1010.107	-1961
1010.180	-2079
1010.253	-2336
1010.327	-1779
1010.400	-1943
1010.473	-1002
1010.547	-1631
1010.620	-1363
1010.693	-1427
1010.766	-2018
1010.840	-1365
1010.913	-1306
1010.986	-1959
1011.059	-1346
1011.132	-1392
1011.205	-1479
1011.278	-1798
1011.351	-1601
1011.424	-1499
1011.497	-1817
1011.570	-1918
1011.643	-1280
1011.716	-1614
1011.789	-1796
1011.862	-1323
1011.934	-1052
1012.007	-2949
1012.080	-1062
1012.153	-1929
1012.225	-1518
1012.298	-1442
1012.371	-2005
1012.443	-1071
1012.516	-2761
1012.588	-1272
1012.661	-1483
1012.733	-2643
1012.806	-948
1012.879	-2047
1012.951	-1535
1013.023	-1951
1013.096	-2267
1013.168	-1986
1013.241	-1515
1013.313	-2384
1013.385	-1308
1013.458	-1640
1013.530	-1422
1013.602	-1708
1013.674	-1673
1013.746	-1832
1013.819	-1847
1013.891	-1699
1013.963	-1322
1014.035	-1848
1014.107	-1781
1014.179	-1252
1014.251	-1892
1014.323	-1441
1014.395	-1310
1014.467	-1549
1014.539	-1818
1014.611	-2118
1014.683	-1444
1014.754	-1868
1014.826	-2710
1014.898	-1874
1014.970	-2412
1015.042	-1682
1015.113	-1654
1015.185	-2185
1015.257	-2669
1015.328	-1583
1015.400	-1745
1015.471	-1933
1015.543	-2046
1015.615	-1796
1015.686	-1540
1015.757	-2079
1015.829	-1928
1015.901	-1933
1015.972	-2112
1016.043	-1756
1016.115	-1627
1016.186	-2171
1016.257	-1741
1016.328	-1481
1016.400	-1142
1016.471	-2299
1016.542	-2242
1016.613	-2339
1016.685	-1358
1016.756	-2164
1016.827	-1453
1016.898	-2524
1016.969	-1214
1017.040	-1791
1017.111	-2127
1017.182	-2128
1017.253	-2521
1017.324	-2570
1017.395	-1916
1017.466	-1750
1017.537	-1975
1017.608	-1663
1017.678	-1494
1017.749	-2158
1017.820	-1767
1017.891	-2539
1017.961	-2609
1018.032	-1799
1018.103	-1255
1018.173	-1848
1018.244	-1077
1018.315	-1681
1018.385	-1778
1018.456	-2271
1018.526	-2360
1018.597	-2479
1018.667	-2517
1018.738	-1813
1018.808	-1938
1018.878	-2322
1018.949	-1332
1019.019	-1248
1019.089	-1387
1019.160	-1808
1019.230	-2770
1019.300	-1496
1019.371	-1944
1019.441	-1238
1019.511	-1923
1019.581	-1825
1019.651	-1974
1019.721	-940
1019.791	-2438
1019.861	-2263
1019.931	-1398
1020.001	-2877
1020.071	-1389
1020.141	-2570
1020.211	-1700
1020.281	-2988
1020.351	-2289
1020.421	-2446
1020.491	-1761
1020.560	-2213
1020.630	-1969
1020.700	-2315
1020.770	-3450
1020.839	-2124
1020.909	-2934
1020.979	-1733
1021.048	-1841
1021.118	-2164
1021.187	-1858
1021.257	-2542
1021.326	-2391
1021.396	-2402
1021.465	-2428
1021.535	-2356
1021.604	-2208
1021.674	-1269
1021.743	-1495
1021.812	-1860
1021.882	-2067
1021.951	-2139
1022.020	-2415
1022.089	-1691
1022.159	-2589
1022.228	-939
1022.297	-1735
1022.366	-2550
1022.435	-1835
1022.504	-2376
1022.573	-2513
1022.642	-2265
1022.711	-2411
1022.781	-1758
1022.849	-2175
1022.918	-2595
1022.987	-2402
1023.056	-2306
1023.125	-2144
1023.194	-1930
1023.263	-1699
1023.331	-2007
1023.400	-2476
1023.469	-1973
1023.538	-1331
1023.606	-2147
1023.675	-2198
1023.744	-2297
1023.812	-2960
1023.881	-1990
1023.949	-2226
1024.018	-1678
1024.086	-2497
1024.155	-2557
1024.223	-2623
1024.292	-1040
1024.360	-1094
1024.429	-2241
1024.497	-1990
1024.565	-2084
1024.634	-1883
1024.702	-2243
1024.770	-1469
1024.838	-2522
1024.907	-1688
1024.975	-1947
1025.043	-1830
1025.111	-2006
1025.179	-2883
1025.247	-1299
1025.315	-2395
1025.383	-2235
1025.451	-1919
1025.519	-2463
1025.587	-2303
1025.655	-2394
1025.723	-2341
1025.791	-1910
1025.859	-2375
1025.927	-1291
1025.995	-1806
1026.062	-2047
1026.130	-1746
1026.198	-2324
1026.266	-1731
1026.333	-2028
1026.401	-1783
1026.469	-2437
1026.536	-2516
1026.604	-2269
1026.671	-2472
1026.739	-2284
1026.806	-2573
1026.874	-2281
1026.941	-2032
1027.009	-2643
1027.076	-1810
1027.144	-1500
1027.211	-2212
1027.278	-2452
1027.345	-2823
1027.413	-1703
1027.480	-2080
1027.547	-2203
1027.614	-2177
1027.682	-1949
1027.749	-2194
1027.816	-2475
1027.883	-2469
1027.950	-1697
1028.017	-2410
1028.084	-1781
1028.151	-2511
1028.218	-2041
1028.285	-1900
1028.352	-1902
1028.419	-2102
1028.486	-3013
1028.553	-1523
1028.619	-2349
1028.686	-1999
1028.753	-3081
1028.820	-2919
1028.886	-2120
1028.953	-1608
1029.020	-1605
1029.086	-2968
1029.153	-2704
1029.220	-1803
1029.286	-1741
1029.353	-2846
1029.419	-1930
1029.486	-2135
1029.552	-2925
1029.619	-1782
1029.685	-2226
1029.751	-2307
1029.818	-1376
1029.884	-3091
1029.951	-1422
1030.017	-1645
1030.083	-2326
1030.149	-2470
1030.216	-2207
1030.282	-2288
1030.348	-1900
1030.414	-1603
1030.480	-2545
1030.546	-2004
1030.612	-2253
1030.678	-2364
1030.744	-2526
1030.810	-1846
1030.876	-2196
1030.942	-2452
1031.008	-2802
1031.074	-2662
1031.140	-1342
1031.206	-2656
1031.272	-3163
1031.337	-2487
1031.403	-2564
1031.469	-2025
1031.534	-2224
1031.600	-2266
1031.666	-1975
1031.731	-2164
1031.797	-2263
1031.863	-2114
1031.928	-2190
1031.994	-2000
1032.059	-2237
1032.125	-2283
1032.190	-1827
1032.256	-2585
1032.321	-2963
1032.386	-2082
1032.452	-2651
1032.517	-2588
1032.582	-2585
1032.647	-1710
1032.713	-2402
1032.778	-2431
1032.843	-2247
1032.908	-2218
1032.974	-2670
1033.039	-2654
1033.104	-1857
1033.169	-3158
1033.234	-1790
1033.299	-2121
1033.364	-2161
1033.429	-2193
1033.494	-2092
1033.559	-2685
1033.624	-2576
1033.688	-2438
1033.753	-1967
1033.818	-2879
1033.883	-2869
1033.948	-2829
1034.013	-2692
1034.077	-2157
1034.142	-2233
1034.207	-2376
1034.271	-2454
1034.336	-1686
1034.400	-2108
1034.465	-1931
1034.530	-2218
1034.594	-2356
1034.658	-2419
1034.723	-2156
1034.787	-2966
1034.852	-1913
1034.916	-1960
1034.981	-2058
1035.045	-2040
1035.109	-2854
1035.173	-1811
1035.238	-2655
1035.302	-2144
1035.366	-2526
1035.430	-2696
1035.495	-2772
1035.559	-2263
1035.623	-2818
1035.687	-3012
1035.751	-2155
1035.815	-1681
1035.879	-2593
1035.943	-2751
1036.007	-2064
1036.071	-2427
1036.135	-3184
1036.198	-1863
1036.262	-2136
1036.326	-1785
1036.390	-1686
1036.454	-2210
1036.517	-2898
1036.581	-2776
1036.645	-2673
1036.709	-2815
1036.772	-3115
1036.836	-2908
1036.900	-2472
1036.963	-2398
1037.026	-2630
1037.090	-2369
1037.154	-3078
1037.217	-2742
1037.280	-2737
1037.344	-2263
1037.407	-2805
1037.471	-3335
1037.534	-2391
1037.597	-2390
1037.661	-2537
1037.724	-2332
1037.787	-2693
1037.850	-2681
1037.913	-2349
1037.977	-2129
1038.040	-2503
1038.103	-2630
1038.166	-3521
1038.229	-2226
1038.292	-1975
1038.355	-2878
1038.418	-2694
1038.481	-1938
1038.544	-2618
1038.607	-2417
1038.670	-2474
1038.732	-2264
1038.795	-2263
1038.858	-3045
1038.921	-2578
1038.984	-2662
1039.046	-2782
1039.109	-2342
1039.172	-2127
1039.234	-2057
1039.297	-2367
1039.360	-2621
1039.422	-2902
1039.485	-2976
1039.547	-1762
1039.610	-2516
1039.672	-2599
1039.734	-3396
1039.797	-2788
1039.859	-2414
1039.922	-2164
1039.984	-2474
1040.046	-2568
1040.109	-2269
1040.171	-2746
1040.233	-2590
1040.295	-1858
1040.358	-2556
1040.420	-2837
1040.482	-2783
1040.544	-2517
1040.606	-2292
1040.668	-2295
1040.730	-2023
1040.792	-3013
1040.854	-1802
1040.916	-2127
1040.978	-2219
1041.040	-2531
1041.102	-2621
1041.164	-2096
1041.225	-2446
1041.287	-2726
1041.349	-2585
1041.411	-2180
1041.472	-2702
1041.534	-2146
1041.596	-2523
1041.657	-2689
1041.719	-2649
1041.781	-2777
1041.842	-3256
1041.904	-1945
1041.965	-2944
1042.027	-2850
1042.088	-2569
1042.150	-2025
1042.211	-2314
1042.272	-1652
1042.334	-2725
1042.395	-2581
1042.456	-2717
1042.518	-1509
1042.579	-3186
1042.640	-3177
1042.701	-2318
1042.763	-3308
1042.824	-1817
1042.885	-2811
1042.946	-2714
1043.007	-2925
1043.068	-2642
1043.129	-2144
1043.190	-3160
1043.251	-2338
1043.312	-3570
1043.373	-2550
1043.434	-2597
1043.495	-2187
1043.556	-1987
1043.616	-2177
1043.677	-3023
1043.738	-2339
1043.799	-2158
1043.859	-1990
1043.920	-2230
1043.981	-2374
1044.041	-1724
1044.102	-2200
1044.162	-2143
1044.223	-2519
1044.284	-3087
1044.344	-2232
1044.405	-2226
1044.465	-2508
1044.525	-2238
1044.586	-2216
1044.646	-2177
1044.707	-2046
1044.767	-2310
1044.827	-1897
1044.887	-1990
1044.948	-2240
1045.008	-2171
1045.068	-2714
1045.128	-2172
1045.188	-2685
1045.249	-2200
1045.309	-2406
1045.369	-2703
1045.429	-2362
1045.489	-3128
1045.549	-2679
1045.609	-2268
1045.669	-2189
1045.729	-2354
1045.789	-2557
1045.848	-2569
1045.908	-2084
1045.968	-1956
1046.028	-2066
1046.088	-2641
1046.147	-1882
1046.207	-2449
1046.267	-2964
1046.326	-1501
1046.386	-1948
1046.446	-1241
1046.505	-1220
1046.565	-1837
1046.624	-1322
1046.684	-1311
1046.743	-1298
1046.803	-285
1046.862	-788
1046.922	0
