'Start Wavelength	183.907
'End Wavelength	1046.922
'Gate Delay	5.000
'Gate Width (ms)	1.050
'Laser Output Level	0.000
'X Position	0.000
'Y Position	0.000
'Z Position	0.000
'Grid Point Number	1.000
'Shot Number	100.000
183.907	-361.000
183.977	15.000
184.047	-263
184.116	251
184.186	793
184.256	-281
184.325	-162
184.395	309
184.465	858
184.534	423
184.604	-461
184.674	186
184.743	-472
184.813	394
184.883	-379
184.952	213
185.022	367
185.092	475
185.161	-187
185.231	63
185.301	-39
185.370	446
185.440	-35
185.509	220
185.579	262
185.649	641
185.718	494
185.788	923
185.857	185
185.927	-303
185.996	197
186.066	38
186.136	-176
186.205	-555
186.275	75
186.344	-64
186.414	15
186.483	-722
186.553	811
186.622	-119
186.692	476
186.761	-411
186.831	252
186.900	-24
186.970	380
187.039	-24
187.109	646
187.178	219
187.248	220
187.317	154
187.387	100
187.456	-180
187.526	376
187.595	48
187.664	173
187.734	29
187.803	717
187.873	-251
187.942	-454
188.012	436
188.081	-137
188.150	-17
188.220	412
188.289	507
188.358	497
188.428	425
188.497	-377
188.567	849
188.636	-472
188.705	-338
188.775	628
188.844	-51
188.913	763
188.983	187
189.052	-38
189.121	315
189.191	-435
189.260	398
189.329	-21
189.399	-257
189.468	287
189.537	550
189.606	-130
189.676	264
189.745	-562
189.814	1337
189.883	18
189.953	1024
190.022	910
190.091	1829
190.161	2389
190.230	1288
190.299	227
190.368	784
190.437	203
190.507	492
190.576	275
190.645	-163
190.714	136
190.783	309
190.853	608
190.922	439
190.991	-81
191.060	238
191.129	-999
191.198	160
191.268	160
191.337	258
191.406	490
191.475	679
191.544	719
191.613	1014
191.682	-181
191.752	-165
191.821	-120
191.890	330
191.959	-283
192.028	-12
192.097	441
192.166	-551
192.235	98
192.304	717
192.373	-99
192.442	88
192.511	48
192.580	247
192.650	112
192.719	44
192.788	66
192.857	320
192.926	-392
192.995	-82
193.064	1217
193.133	179
193.202	-558
193.271	695
193.340	618
193.409	816
193.478	272
193.547	649
193.615	623
193.684	1053
193.753	506
193.822	317
193.891	390
193.960	199
194.029	-31
194.098	145
194.167	226
194.236	635
194.305	-59
194.374	-479
194.443	94
194.512	235
194.580	983
194.649	518
194.718	118
194.787	449
194.856	-737
194.925	995
194.994	-59
195.062	812
195.131	321
195.200	-84
195.269	45
195.338	379
195.407	-369
195.475	184
195.544	336
195.613	32
195.682	565
195.751	475
195.819	158
195.888	636
195.957	873
196.026	1005
196.094	546
196.163	815
196.232	391
196.301	-145
196.369	227
196.438	470
196.507	-218
196.576	-216
196.644	110
196.713	-482
196.782	-85
196.850	423
196.919	-53
196.988	200
197.056	87
197.125	762
197.194	753
197.262	-296
197.331	-150
197.400	-54
197.468	-254
197.537	6
197.606	-712
197.674	1321
197.743	1868
197.812	752
197.880	1926
197.949	1082
198.017	1115
198.086	840
198.155	166
198.223	561
198.292	1739
198.360	910
198.429	-67
198.497	490
198.566	1146
198.635	2766
198.703	757
198.772	408
198.840	2226
198.909	1482
198.977	660
199.046	447
199.114	438
199.183	1046
199.251	-298
199.320	-99
199.388	19
199.457	-473
199.525	-51
199.594	-19
199.662	106
199.731	609
199.799	89
199.867	13
199.936	-548
200.004	1064
200.073	984
200.141	-348
200.210	-363
200.278	57
200.346	198
200.415	558
200.483	-54
200.552	476
200.620	-226
200.688	1059
200.757	231
200.825	-214
200.893	-125
200.962	46
201.030	-58
201.098	373
201.167	-85
201.235	145
201.303	-116
201.372	224
201.440	105
201.508	366
201.577	-111
201.645	77
201.713	-371
201.781	108
201.850	596
201.918	446
201.986	-143
202.055	-315
202.123	476
202.191	186
202.259	335
202.327	237
202.396	478
202.464	28
202.532	456
202.600	2083
202.669	49
202.737	-360
202.805	685
202.873	368
202.941	390
203.009	467
203.078	25
203.146	375
203.214	-701
203.282	-176
203.350	875
203.418	-700
203.487	777
203.555	184
203.623	-560
203.691	202
203.759	156
203.827	-80
203.895	-106
203.963	-158
204.031	-177
204.099	68
204.168	69
204.236	805
204.304	-280
204.372	442
204.440	-116
204.508	-533
204.576	-297
204.644	-158
204.712	-394
204.780	770
204.848	-40
204.916	1080
204.984	341
205.052	800
205.120	-210
205.188	78
205.256	226
205.324	-133
205.392	388
205.460	-65
205.528	711
205.596	717
205.664	271
205.732	845
205.799	2138
205.867	3676
205.935	247
206.003	546
206.071	955
206.139	361
206.207	179
206.275	264
206.343	-314
206.411	-341
206.478	295
206.546	287
206.614	436
206.682	870
206.750	580
206.818	434
206.885	-84
206.953	-596
207.021	222
207.089	218
207.157	-388
207.225	691
207.292	-655
207.360	198
207.428	254
207.496	-1005
207.563	149
207.631	625
207.699	-57
207.767	-430
207.834	-685
207.902	-49
207.970	285
208.038	464
208.105	-579
208.173	-154
208.241	325
208.309	775
208.376	-196
208.444	1455
208.512	276
208.579	-541
208.647	612
208.715	458
208.782	71
208.850	585
208.918	-273
208.985	777
209.053	197
209.120	126
209.188	258
209.256	626
209.323	64
209.391	707
209.459	631
209.526	172
209.594	-146
209.661	66
209.729	235
209.796	565
209.864	-172
209.932	-5
209.999	953
210.067	874
210.134	177
210.202	-269
210.269	964
210.337	654
210.404	-397
210.472	257
210.539	-198
210.607	232
210.674	251
210.742	340
210.809	494
210.877	468
210.944	1451
211.012	57
211.079	1363
211.146	666
211.214	581
211.281	334
211.349	362
211.416	767
211.484	888
211.551	355
211.618	328
211.686	1829
211.753	-546
211.821	664
211.888	460
211.955	826
212.023	-50
212.090	900
212.157	738
212.225	853
212.292	1554
212.359	5024
212.427	15495
212.494	5156
212.561	1327
212.629	1090
212.696	1146
212.763	382
212.831	-68
212.898	1437
212.965	86
213.032	870
213.100	963
213.167	798
213.234	531
213.301	705
213.369	469
213.436	457
213.503	-132
213.570	781
213.638	682
213.705	-320
213.772	-426
213.839	1069
213.906	1532
213.973	833
214.041	13
214.108	1104
214.175	194
214.242	730
214.309	1040
214.376	238
214.444	168
214.511	331
214.578	626
214.645	549
214.712	385
214.779	303
214.846	409
214.913	745
214.980	837
215.048	1235
215.115	1257
215.182	413
215.249	-1
215.316	-210
215.383	624
215.450	708
215.517	108
215.584	971
215.651	-335
215.718	882
215.785	794
215.852	-421
215.919	840
215.986	628
216.053	660
216.120	720
216.187	600
216.254	1242
216.321	440
216.388	427
216.455	776
216.522	1235
216.589	870
216.656	2593
216.722	1626
216.789	1550
216.856	1409
216.923	978
216.990	1058
217.057	188
217.124	729
217.191	73
217.258	1983
217.324	1513
217.391	3010
217.458	1531
217.525	583
217.592	989
217.659	224
217.725	1575
217.792	1532
217.859	2186
217.926	86
217.993	-44
218.059	669
218.126	204
218.193	683
218.260	953
218.327	444
218.393	161
218.460	-246
218.527	-18
218.594	651
218.660	1358
218.727	2373
218.794	-259
218.860	359
218.927	-179
218.994	-376
219.061	-260
219.127	589
219.194	1721
219.261	525
219.327	-51
219.394	491
219.461	631
219.527	395
219.594	1303
219.661	367
219.727	-683
219.794	444
219.860	-125
219.927	523
219.994	1053
220.060	1710
220.127	1223
220.193	891
220.260	533
220.326	875
220.393	2071
220.460	2765
220.526	1774
220.593	1528
220.659	2554
220.726	947
220.792	6413
220.859	3848
220.925	4487
220.992	7242
221.058	8497
221.125	8628
221.191	7237
221.258	1959
221.324	1341
221.391	210
221.457	384
221.524	865
221.590	1499
221.657	8540
221.723	5372
221.789	5182
221.856	4407
221.922	1614
221.989	1604
222.055	511
222.121	574
222.188	1377
222.254	150
222.321	342
222.387	213
222.453	621
222.520	-116
222.586	-375
222.652	732
222.719	-806
222.785	292
222.851	595
222.918	876
222.984	-240
223.050	-324
223.116	-1712
223.183	934
223.249	33
223.315	214
223.382	554
223.448	-213
223.514	-220
223.580	-117
223.647	249
223.713	80
223.779	-350
223.845	-109
223.911	287
223.978	-831
224.044	-520
224.110	-102
224.176	-34
224.242	-88
224.309	-491
224.375	141
224.441	-228
224.507	316
224.573	-188
224.639	837
224.705	-371
224.772	283
224.838	-306
224.904	251
224.970	276
225.036	0
225.102	-578
225.168	901
225.234	925
225.300	435
225.366	305
225.432	526
225.499	-359
225.565	-324
225.631	-281
225.697	329
225.763	339
225.829	988
225.895	516
225.961	1428
226.027	1063
226.093	452
226.159	1365
226.225	2092
226.291	4501
226.357	9239
226.423	4221
226.489	1769
226.554	1177
226.620	994
226.686	2021
226.752	2360
226.818	3804
226.884	13280
226.950	11278
227.016	2420
227.082	1799
227.148	1097
227.214	1409
227.279	864
227.345	-195
227.411	62
227.477	851
227.543	367
227.609	1273
227.674	708
227.740	-113
227.806	665
227.872	653
227.938	889
228.003	518
228.069	-330
228.135	222
228.201	62
228.267	-214
228.332	386
228.398	236
228.464	397
228.530	-203
228.595	18
228.661	-815
228.727	606
228.792	1556
228.858	-198
228.924	193
228.990	2731
229.055	-829
229.121	862
229.187	278
229.252	615
229.318	613
229.384	1089
229.449	-221
229.515	-890
229.581	-35
229.646	1365
229.712	1072
229.777	1499
229.843	2306
229.909	1642
229.974	1381
230.040	1153
230.105	790
230.171	-110
230.236	1478
230.302	2594
230.368	1009
230.433	64
230.499	1343
230.564	1656
230.630	133
230.695	837
230.761	1481
230.826	-1214
230.892	1430
230.957	-18
231.023	80
231.088	497
231.154	-738
231.219	911
231.284	709
231.350	841
231.415	-26
231.481	930
231.546	594
231.612	768
231.677	303
231.742	-987
231.808	1379
231.873	-57
231.939	-1445
232.004	1764
232.069	1309
232.135	415
232.200	173
232.265	1110
232.331	193
232.396	310
232.461	-472
232.527	-236
232.592	-236
232.657	832
232.723	1488
232.788	1534
232.853	665
232.918	164
232.984	-585
233.049	615
233.114	755
233.179	1148
233.245	2951
233.310	4461
233.375	-222
233.440	716
233.506	728
233.571	457
233.636	413
233.701	40
233.766	1516
233.832	3064
233.897	36
233.962	-596
234.027	1114
234.092	697
234.157	674
234.222	741
234.288	1979
234.353	9073
234.418	6859
234.483	3473
234.548	2029
234.613	1368
234.678	938
234.743	1135
234.808	8606
234.873	4060
234.938	1879
235.004	1778
235.069	565
235.134	483
235.199	1081
235.264	568
235.329	-838
235.394	891
235.459	2598
235.524	594
235.589	1172
235.654	882
235.719	-1166
235.784	738
235.849	1140
235.913	4223
235.978	4154
236.043	4566
236.108	1323
236.173	863
236.238	1640
236.303	765
236.368	426
236.433	3081
236.498	5003
236.563	2253
236.627	3279
236.692	18090
236.757	11959
236.822	5357
236.887	4086
236.952	2531
237.017	889
237.081	2397
237.146	1678
237.211	6351
237.276	17148
237.341	33198
237.405	12406
237.470	4817
237.535	3974
237.600	3100
237.664	1404
237.729	1237
237.794	811
237.859	5066
237.923	2766
237.988	1792
238.053	4054
238.118	3512
238.182	12128
238.247	11649
238.312	3622
238.376	2785
238.441	982
238.506	2092
238.570	-479
238.635	2605
238.700	471
238.764	305
238.829	4547
238.893	6300
238.958	2304
239.023	1221
239.087	921
239.152	1340
239.216	263
239.281	1015
239.346	1003
239.410	614
239.475	1412
239.539	12507
239.604	9248
239.668	2342
239.733	86
239.797	218
239.862	1549
239.926	7661
239.991	3182
240.055	1348
240.120	385
240.184	1025
240.249	508
240.313	722
240.378	1077
240.442	6143
240.507	12257
240.571	1905
240.635	4598
240.700	6117
240.764	1327
240.829	1056
240.893	-743
240.957	1041
241.022	6020
241.086	11703
241.151	3981
241.215	57
241.279	2787
241.344	5050
241.408	2346
241.472	660
241.537	2076
241.601	1210
241.665	-542
241.730	-112
241.794	1508
241.858	30
241.922	29
241.987	981
242.051	-241
242.115	-55
242.179	652
242.244	-215
242.308	556
242.372	1071
242.436	254
242.501	1025
242.565	98
242.629	938
242.693	436
242.757	-58
242.822	493
242.886	1276
242.950	1334
243.014	537
243.078	918
243.142	831
243.206	838
243.271	1505
243.335	1037
243.399	3156
243.463	12909
243.527	39599
243.591	9835
243.655	3483
243.719	1141
243.783	2404
243.847	3625
243.911	4714
243.975	3925
244.040	1957
244.104	1747
244.168	671
244.232	1403
244.296	3231
244.360	3876
244.424	1563
244.488	1672
244.552	1264
244.615	307
244.679	1522
244.743	1160
244.807	-173
244.871	1210
244.935	1329
244.999	-535
245.063	403
245.127	1356
245.191	2182
245.255	1912
245.319	880
245.383	-121
245.446	1797
245.510	-215
245.574	1087
245.638	1300
245.702	309
245.766	4027
245.829	2547
245.893	437
245.957	93
246.021	1614
246.085	367
246.149	1364
246.212	5601
246.276	9560
246.340	2630
246.404	2768
246.467	2932
246.531	1437
246.595	2180
246.659	3031
246.722	1287
246.786	1547
246.850	1276
246.913	2941
246.977	673
247.041	1133
247.104	1611
247.168	1404
247.232	4582
247.295	13270
247.359	4455
247.423	1469
247.486	3605
247.550	2675
247.614	1842
247.677	1877
247.741	1541
247.804	1001
247.868	1777
247.932	3589
247.995	11947
248.059	2853
248.122	817
248.186	2739
248.249	4046
248.313	20782
248.376	19803
248.440	12633
248.503	2825
248.567	3137
248.630	2722
248.694	5095
248.757	7514
248.821	23067
248.884	10212
248.948	10072
249.011	16500
249.075	25860
249.138	21863
249.202	6109
249.265	3209
249.328	7626
249.392	3157
249.455	2854
249.519	2105
249.582	3034
249.645	4656
249.709	2965
249.772	1373
249.835	2351
249.899	2836
249.962	1846
250.025	1326
250.089	7786
250.152	10698
250.215	3945
250.279	2730
250.342	3272
250.405	2776
250.468	2406
250.532	4826
250.595	7281
250.658	37438
250.721	62829
250.785	16073
250.848	7845
250.911	4218
250.974	3755
251.038	5779
251.101	14998
251.164	7220
251.227	5561
251.290	5354
251.354	10099
251.417	55052
251.480	49520
251.543	28201
251.606	105411
251.669	67275
251.732	20078
251.795	18784
251.859	21850
251.922	62409
251.985	29467
252.048	10369
252.111	6665
252.174	5391
252.237	11665
252.300	28646
252.363	30030
252.426	81405
252.489	25964
252.552	12246
252.615	7144
252.678	8269
252.741	21499
252.804	30252
252.867	81866
252.930	37019
252.993	16053
253.056	9198
253.119	5799
253.182	4906
253.245	9609
253.308	7156
253.371	5409
253.434	5606
253.497	5120
253.559	11273
253.622	6018
253.685	6684
253.748	6157
253.811	2973
253.874	6088
253.937	5097
254.000	2775
254.062	6972
254.125	11681
254.188	8505
254.251	5825
254.314	2881
254.376	5465
254.439	6035
254.502	5156
254.565	6244
254.628	13939
254.690	5774
254.753	2335
254.816	2276
254.878	3168
254.941	8345
255.004	8822
255.067	3217
255.129	3318
255.192	1396
255.255	-572
255.317	1665
255.380	684
255.443	897
255.505	174
255.568	211
255.631	21
255.693	403
255.756	-660
255.819	1767
255.881	401
255.944	174
256.006	598
256.069	905
256.132	349
256.194	1474
256.257	9024
256.319	6265
256.382	4978
256.444	1878
256.507	1175
256.569	947
256.632	1173
256.694	3036
256.757	8126
256.819	25436
256.882	7175
256.944	2474
257.007	2184
257.069	1914
257.132	2371
257.194	1735
257.257	756
257.319	121
257.381	261
257.444	6519
257.506	31899
257.569	31085
257.631	16577
257.693	7401
257.756	3222
257.818	2581
257.880	1588
257.943	1856
258.005	467
258.067	1072
258.130	1327
258.192	1564
258.254	4853
258.317	1671
258.379	1134
258.441	5286
258.503	5281
258.566	11978
258.628	15536
258.690	1541
258.753	1782
258.815	3846
258.877	1122
258.939	259
259.001	1248
259.064	1265
259.126	1887
259.188	3421
259.250	2213
259.312	1293
259.375	9356
259.437	4985
259.499	995
259.561	1050
259.623	767
259.685	1007
259.747	2074
259.809	10904
259.872	21222
259.934	34567
259.996	22758
260.058	4955
260.120	1780
260.182	1435
260.244	1169
260.306	342
260.368	516
260.430	800
260.492	1772
260.554	6808
260.616	5286
260.678	12423
260.740	20399
260.802	3601
260.864	2616
260.926	403
260.988	2018
261.050	1269
261.112	2050
261.174	18608
261.236	16915
261.298	3480
261.359	8488
261.421	12818
261.483	2289
261.545	2726
261.607	-184
261.669	1467
261.731	4453
261.793	12464
261.854	2192
261.916	1857
261.978	442
262.040	1122
262.102	1903
262.164	3940
262.225	2681
262.287	1141
262.349	2961
262.411	3468
262.472	1383
262.534	5261
262.596	12532
262.658	3013
262.719	244
262.781	2792
262.843	12057
262.904	4751
262.966	3106
263.028	3705
263.090	24209
263.151	62351
263.213	14839
263.275	4243
263.336	1832
263.398	2281
263.459	358
263.521	91
263.583	3065
263.644	1293
263.706	271
263.767	-274
263.829	304
263.891	-277
263.952	434
264.014	-1079
264.075	-245
264.137	1109
264.198	718
264.260	-566
264.321	-184
264.383	581
264.444	3178
264.506	518
264.567	1130
264.629	1199
264.690	-485
264.752	571
264.813	541
264.875	-700
264.936	-14
264.998	-866
265.059	-548
265.120	-156
265.182	73
265.243	11081
265.305	9342
265.366	1622
265.427	242
265.489	114
265.550	-1353
265.611	-144
265.673	-733
265.734	-376
265.795	390
265.857	-477
265.918	-977
265.979	2516
266.040	20321
266.102	13824
266.163	2486
266.224	1154
266.286	-41
266.347	-472
266.408	-1046
266.469	1347
266.530	-121
266.592	1092
266.653	1640
266.714	2026
266.775	-167
266.836	-207
266.898	-707
266.959	-97
267.020	-463
267.081	878
267.142	-428
267.203	-621
267.264	-1307
267.326	889
267.387	-892
267.448	258
267.509	-600
267.570	-284
267.631	-1015
267.692	-963
267.753	-438
267.814	-891
267.875	459
267.936	4805
267.997	445
268.058	554
268.119	-955
268.180	-518
268.241	-629
268.302	-411
268.363	-748
268.424	292
268.485	-361
268.546	-733
268.607	-905
268.668	-1014
268.729	-855
268.790	-658
268.851	-697
268.912	1345
268.972	1745
269.033	796
269.094	-1240
269.155	-167
269.216	-300
269.277	394
269.338	-448
269.398	-74
269.459	-334
269.520	630
269.581	-3
269.642	1525
269.702	188
269.763	462
269.824	-774
269.885	-786
269.945	823
270.006	398
270.067	-714
270.128	-516
270.188	-1089
270.249	-485
270.310	-1191
270.370	-122
270.431	-267
270.492	-331
270.553	-456
270.613	1165
270.674	3775
270.734	373
270.795	-1014
270.856	945
270.916	-327
270.977	-30
271.038	282
271.098	318
271.159	1053
271.219	1415
271.280	-333
271.340	-275
271.401	78
271.462	5240
271.522	1507
271.583	566
271.643	511
271.704	370
271.764	-410
271.825	2443
271.885	16276
271.946	26509
272.006	5122
272.066	9708
272.127	21083
272.187	3623
272.248	864
272.308	1729
272.369	13251
272.429	6348
272.489	2889
272.550	2672
272.610	2839
272.671	1435
272.731	2627
272.791	5888
272.852	1190
272.912	1141
272.972	-141
273.033	566
273.093	2060
273.153	1571
273.214	606
273.274	1276
273.334	5745
273.394	15421
273.455	4918
273.515	4490
273.575	11372
273.635	4419
273.696	7424
273.756	19011
273.816	5230
273.876	2852
273.936	10299
273.997	20829
274.057	3901
274.117	2400
274.177	3437
274.237	20527
274.297	18247
274.358	14503
274.418	12841
274.478	8733
274.538	2314
274.598	2785
274.658	17602
274.718	22260
274.778	6756
274.838	3458
274.898	9345
274.958	32680
275.018	23820
275.078	12366
275.138	3121
275.198	1715
275.258	824
275.318	2678
275.378	4107
275.438	3918
275.498	1622
275.558	13535
275.618	27569
275.678	11661
275.738	3724
275.798	2461
275.858	-3
275.918	323
275.978	647
276.038	433
276.098	1033
276.157	1093
276.217	7521
276.277	3085
276.337	1466
276.397	-142
276.457	1089
276.517	-1004
276.576	-474
276.636	-514
276.696	428
276.756	4785
276.815	3122
276.875	323
276.935	1033
276.995	566
277.055	41
277.114	431
277.174	558
277.234	5264
277.293	1268
277.353	549
277.413	62
277.472	517
277.532	-386
277.592	19
277.651	2979
277.711	6768
277.771	1188
277.830	9747
277.890	6722
277.950	5134
278.009	22154
278.069	6344
278.128	4602
278.188	6900
278.248	1944
278.307	6443
278.367	5570
278.426	1195
278.486	472
278.545	276
278.605	-555
278.664	-708
278.724	-38
278.783	5476
278.843	19871
278.902	4254
278.962	1556
279.021	1321
279.081	2929
279.140	2225
279.199	1180
279.259	1677
279.318	2219
279.378	3693
279.437	7036
279.496	30117
279.556	106988
279.615	77620
279.675	15378
279.734	8322
279.793	12709
279.853	23657
279.912	7316
279.971	3307
280.031	2258
280.090	8220
280.149	15565
280.208	11007
280.268	71952
280.327	71531
280.386	13463
280.445	7938
280.505	6635
280.564	2623
280.623	994
280.682	3050
280.742	5797
280.801	1311
280.860	961
280.919	675
280.978	493
281.037	143
281.097	-57
281.156	914
281.215	-176
281.274	1077
281.333	9525
281.392	7717
281.451	962
281.510	802
281.569	-42
281.628	389
281.688	22
281.747	15
281.806	468
281.865	11
281.924	-578
281.983	-188
282.042	-798
282.101	-120
282.160	-491
282.219	-595
282.278	-84
282.337	2695
282.396	1602
282.454	318
282.513	-299
282.572	5751
282.631	1889
282.690	-714
282.749	-521
282.808	726
282.867	429
282.926	280
282.985	-264
283.043	-464
283.102	-795
283.161	-190
283.220	2381
283.279	7783
283.338	1819
283.396	-243
283.455	-599
283.514	-182
283.573	708
283.631	549
283.690	-851
283.749	-391
283.808	1448
283.866	2070
283.925	-337
283.984	-94
284.043	246
284.101	522
284.160	-629
284.219	716
284.277	52
284.336	1372
284.395	8769
284.453	7099
284.512	675
284.570	909
284.629	485
284.688	151
284.746	1096
284.805	1120
284.863	853
284.922	2091
284.981	3197
285.039	3806
285.098	7201
285.156	25272
285.215	113268
285.273	99987
285.332	28116
285.390	11638
285.449	6503
285.507	3887
285.566	2332
285.624	1418
285.683	1377
285.741	1020
285.799	691
285.858	721
285.916	8
285.975	297
286.033	-633
286.091	-540
286.150	-616
286.208	-682
286.267	-773
286.325	-304
286.383	810
286.442	488
286.500	-952
286.558	-441
286.616	-860
286.675	407
286.733	-142
286.791	-448
286.850	-680
286.908	930
286.966	1226
287.024	-39
287.083	-323
287.141	-453
287.199	568
287.257	221
287.315	504
287.374	881
287.432	2675
287.490	1374
287.548	37
287.606	497
287.664	-194
287.723	1308
287.781	1434
287.839	922
287.897	1652
287.955	3132
288.013	5395
288.071	13607
288.129	69027
288.187	209499
288.245	79414
288.303	21500
288.361	11511
288.419	6244
288.477	4199
288.535	2761
288.593	1791
288.651	1702
288.709	194
288.767	939
288.825	390
288.883	293
288.941	-302
288.999	516
289.057	-689
289.115	-291
289.173	-892
289.231	243
289.289	-421
289.346	-796
289.404	-657
289.462	185
289.520	519
289.578	-626
289.636	-1626
289.694	-1005
289.751	-535
289.809	-343
289.867	-1419
289.925	784
289.983	109
290.040	-559
290.098	-1128
290.156	-602
290.214	-719
290.271	-843
290.329	-2006
290.387	-1108
290.444	-1768
290.502	-749
290.560	-760
290.617	-1149
290.675	-1072
290.733	-843
290.790	-429
290.848	-776
290.906	-653
290.963	-779
291.021	-461
291.078	-476
291.136	-1314
291.194	1016
291.251	6300
291.309	1119
291.366	-1162
291.424	-560
291.481	-1228
291.539	-1014
291.596	-202
291.654	-1002
291.711	-669
291.769	-730
291.826	502
291.884	-132
291.941	-1263
291.999	-1050
292.056	-908
292.114	-997
292.171	-1592
292.228	-971
292.286	-543
292.343	504
292.401	1187
292.458	-26
292.515	70
292.573	376
292.630	-124
292.687	585
292.745	-607
292.802	-1455
292.859	1960
292.917	7561
292.974	3603
293.031	-159
293.089	-516
293.146	-1104
293.203	-729
293.260	-899
293.318	588
293.375	887
293.432	-976
293.489	-60
293.546	-274
293.604	381
293.661	5426
293.718	21554
293.775	7172
293.832	1590
293.889	28
293.947	2078
294.004	1013
294.061	296
294.118	2285
294.175	4739
294.232	3194
294.289	878
294.346	-1191
294.403	-54
294.460	640
294.517	124
294.574	-730
294.631	221
294.688	-887
294.745	3669
294.802	20175
294.859	13926
294.916	4950
294.973	3249
295.030	1567
295.087	1595
295.144	60
295.201	9
295.258	-379
295.315	755
295.372	6151
295.429	16071
295.486	4878
295.542	1334
295.599	2210
295.656	3861
295.713	5012
295.770	11752
295.827	3616
295.883	1304
295.940	37
295.997	994
296.054	1310
296.111	248
296.167	285
296.224	-391
296.281	-913
296.338	-658
296.394	-475
296.451	-465
296.508	4272
296.564	9468
296.621	5458
296.678	17743
296.734	27743
296.791	7076
296.848	2207
296.904	1918
296.961	6406
297.018	14879
297.074	11229
297.131	3345
297.187	1173
297.244	3059
297.301	17974
297.357	36298
297.414	11715
297.470	3020
297.527	1273
297.583	236
297.640	770
297.696	-45
297.753	-760
297.809	-786
297.866	-993
297.922	-74
297.979	-257
298.035	-223
298.092	610
298.148	7824
298.204	7060
298.261	2415
298.317	5763
298.374	25134
298.430	12884
298.486	5487
298.543	3081
298.599	2152
298.656	1848
298.712	4265
298.768	16073
298.824	13262
298.881	2614
298.937	875
298.993	574
299.050	655
299.106	176
299.162	-285
299.218	165
299.275	109
299.331	1106
299.387	3428
299.443	20957
299.500	18932
299.556	5447
299.612	1057
299.668	1103
299.724	99
299.780	223
299.837	291
299.893	1845
299.949	11529
300.005	13855
300.061	11957
300.117	25557
300.173	11771
300.229	2976
300.285	3838
300.341	4415
300.397	1840
300.453	58
300.510	-116
300.566	297
300.622	780
300.678	1248
300.734	7171
300.790	12237
300.845	18497
300.901	7653
300.957	10025
301.013	7358
301.069	2007
301.125	474
301.181	-99
301.237	28
301.293	-341
301.349	84
301.405	-733
301.461	-619
301.516	336
301.572	-546
301.628	1485
301.684	652
301.740	3986
301.796	7231
301.851	4875
301.907	7802
301.963	8393
302.019	18875
302.074	62894
302.130	61498
302.186	24429
302.242	8231
302.297	5317
302.353	3827
302.409	8262
302.464	6537
302.520	5578
302.576	16413
302.631	20548
302.687	9746
302.743	3169
302.798	1035
302.854	417
302.910	696
302.965	489
303.021	2146
303.076	2942
303.132	2946
303.187	4839
303.243	1550
303.299	239
303.354	-731
303.410	157
303.465	-231
303.521	-470
303.576	-60
303.632	328
303.687	3594
303.743	19062
303.798	14853
303.853	5306
303.909	1064
303.964	1531
304.020	1827
304.075	2204
304.130	2259
304.186	5445
304.241	6775
304.297	5085
304.352	1317
304.358	1207
304.407	320
304.449	1053
304.463	1304
304.518	873
304.539	937
304.573	1022
304.629	522
304.630	548
304.684	2049
304.720	9805
304.739	13576
304.794	22294
304.811	18709
304.850	10174
304.902	3125
304.905	2682
304.960	1319
304.992	1181
305.015	1043
305.071	710
305.083	544
305.126	-31
305.173	19
305.181	53
305.236	-312
305.264	95
305.292	408
305.347	-177
305.354	-48
305.402	912
305.445	773
305.457	703
305.512	1460
305.535	1272
305.567	1099
305.622	1594
305.626	1689
305.678	4883
305.716	14088
305.733	17126
305.788	19961
305.807	16936
305.843	12855
305.897	19861
305.898	19914
305.953	18927
305.988	11262
306.008	7411
306.063	3155
306.078	2497
306.118	1214
306.168	629
306.173	576
306.228	-53
306.259	194
306.283	340
306.338	-150
306.349	-51
306.393	476
306.440	394
306.448	386
306.503	839
306.530	1123
306.558	1711
306.613	3954
306.620	4308
306.668	8088
306.711	14273
306.723	14900
306.778	11664
306.801	8282
306.833	4838
306.888	1807
306.892	1654
306.943	230
306.982	191
306.997	264
307.052	-166
307.072	81
307.107	641
307.162	1328
307.163	1330
307.217	1774
307.253	2392
307.272	2494
307.327	2496
307.343	2281
307.381	2214
307.434	2357
307.436	2460
307.491	5799
307.524	9474
307.546	10533
307.600	10986
307.614	9799
307.655	5917
307.704	2632
307.710	2500
307.765	2627
307.795	3733
307.819	4398
307.874	5929
307.885	5904
307.929	5774
307.975	5164
307.984	5471
308.038	9537
308.065	12021
308.093	26018
308.148	60725
308.156	68905
308.202	102529
308.246	119262
308.257	114751
308.312	54405
308.336	32947
308.366	23469
308.421	14006
308.426	13121
308.475	7551
308.517	4855
308.530	4346
308.585	3593
308.607	3478
308.639	3542
308.694	3491
308.697	3536
308.748	5818
308.787	8371
308.803	8554
308.857	7286
308.877	6377
308.912	5679
308.967	6253
308.967	6256
309.021	8860
309.058	11110
309.076	15462
309.130	31297
309.148	37510
309.185	88535
309.238	177469
309.239	177665
309.293	174036
309.328	141425
309.348	117261
309.402	46227
309.418	29569
309.457	19227
309.508	10801
309.511	10527
309.566	8414
309.598	7642
309.620	8048
309.674	10311
309.688	10957
309.729	10225
309.778	7939
309.783	7789
309.837	5856
309.868	5442
309.892	8200
309.946	15061
309.959	17111
310.001	21146
310.049	24440
310.055	23562
310.109	12742
310.139	6643
310.163	5004
310.218	3075
310.229	2709
310.272	2287
310.319	2069
310.326	1946
310.381	1092
310.409	677
310.435	823
310.489	1350
310.499	1397
310.543	1161
310.589	891
310.598	835
310.652	720
310.679	487
310.706	304
310.760	213
310.769	185
310.814	538
310.859	822
310.868	780
310.923	564
310.948	459
310.977	794
311.031	1489
311.038	1586
311.085	1292
311.128	751
311.139	765
311.193	1047
311.218	1117
311.247	1069
311.301	1082
311.308	1063
311.356	807
311.398	568
311.410	562
311.464	586
311.488	576
311.518	549
311.572	479
311.578	467
311.626	1320
311.668	2095
311.680	1920
311.734	1063
311.758	662
311.788	844
311.842	1196
311.847	1224
311.896	1815
311.937	2385
311.950	2262
312.004	1642
312.027	1371
312.058	1316
312.112	1212
312.117	1201
312.165	842
312.207	536
312.297	1001
312.386	553
312.476	2224
312.566	3858
312.656	1461
312.745	1012
312.835	1086
312.925	1268
313.015	1663
313.104	1010
313.194	1396
313.284	925
313.374	2388
313.463	1800
313.553	1081
313.643	1021
313.732	1118
313.822	135
313.912	1441
314.001	1329
314.091	719
314.180	1565
314.270	1433
314.360	1611
314.449	1392
314.539	-5
314.628	1304
314.718	888
314.808	1504
314.897	809
314.987	1369
315.076	1576
315.166	1624
315.255	1704
315.345	1796
315.434	950
315.524	1822
315.613	1929
315.703	2712
315.792	2560
315.881	3462
315.971	897
316.060	4652
316.150	3946
316.239	3824
316.328	1526
316.418	1071
316.507	826
316.597	1977
316.686	540
316.775	2005
316.865	4031
316.954	1009
317.043	404
317.133	703
317.222	657
317.311	656
317.400	162
317.490	2702
317.579	2195
317.668	1440
317.757	1354
317.847	3277
317.936	6749
318.025	5022
318.114	1502
318.203	1567
318.293	2866
318.382	4059
318.471	3978
318.560	5225
318.649	8087
318.738	1485
318.828	1838
318.917	1753
319.006	2317
319.095	5594
319.184	12522
319.273	9090
319.362	5205
319.451	2069
319.540	1287
319.629	6466
319.718	7138
319.807	2164
319.896	5607
319.985	17054
320.074	5283
320.163	1640
320.252	2448
320.341	1517
320.430	1185
320.519	3805
320.608	1392
320.697	825
320.786	941
320.875	2780
320.964	3724
321.053	5558
321.142	8271
321.230	8171
321.319	4777
321.408	13557
321.497	4611
321.586	6077
321.675	5625
321.764	4617
321.852	2701
321.941	8288
322.030	3229
322.119	5423
322.207	16292
322.296	6508
322.385	2979
322.474	5815
322.562	19933
322.651	6884
322.740	6678
322.829	8686
322.917	5097
323.006	3387
323.095	4109
323.183	1995
323.272	4247
323.361	9154
323.449	19924
323.538	4984
323.626	13416
323.715	5546
323.804	3806
323.892	13055
323.981	6140
324.069	1830
324.158	6518
324.246	4757
324.335	2312
324.424	5447
324.512	1159
324.601	2417
324.689	2461
324.778	5381
324.866	4225
324.954	893
325.043	593
325.131	2346
325.220	4604
325.308	4353
325.397	3969
325.485	2095
325.574	892
325.662	1650
325.750	-2
325.839	1773
325.927	1202
326.015	788
326.104	1627
326.192	2343
326.280	412
326.369	255
326.457	2058
326.545	4589
326.634	944
326.722	412
326.810	262
326.898	820
326.987	1128
327.075	2945
327.163	2897
327.251	390
327.340	499
327.428	1531
327.516	497
327.604	-45
327.692	337
327.781	1261
327.869	1578
327.957	1244
328.045	1728
328.133	837
328.221	258
328.309	1160
328.397	875
328.485	1465
328.574	2277
328.662	10596
328.750	3471
328.838	1510
328.926	758
329.014	825
329.102	1267
329.190	4496
329.278	2320
329.366	290
329.454	-497
329.542	-170
329.630	250
329.718	970
329.806	759
329.893	1017
329.981	-19
330.069	1183
330.157	7440
330.245	23854
330.333	9326
330.421	1519
330.509	2649
330.597	13911
330.684	5628
330.772	1545
330.860	794
330.948	1666
331.036	969
331.123	178
331.211	387
331.299	469
331.387	1237
331.475	3126
331.562	390
331.650	815
331.738	663
331.825	621
331.913	533
332.001	-182
332.089	419
332.176	1809
332.264	4931
332.352	2813
332.439	1061
332.527	739
332.614	63
332.702	256
332.790	581
332.877	2224
332.965	4262
333.052	594
333.140	1151
333.228	2702
333.315	423
333.403	77
333.490	2157
333.578	1112
333.665	3339
333.753	1581
333.840	46
333.928	1861
334.015	3110
334.103	6472
334.190	15639
334.278	2564
334.365	1130
334.452	622
334.540	56
334.627	647
334.715	828
334.802	3975
334.889	23410
334.977	17681
335.064	989
335.151	576
335.239	411
335.326	1182
335.413	8625
335.501	8499
335.588	1046
335.675	1014
335.762	1096
335.850	1348
335.937	981
336.024	6174
336.111	20554
336.199	5434
336.286	1066
336.373	177
336.460	-424
336.547	311
336.635	1066
336.722	499
336.809	763
336.896	1775
336.983	5050
337.070	12118
337.157	15304
337.245	13313
337.332	7417
337.419	250
337.506	-458
337.593	937
337.680	3283
337.767	8072
337.854	2511
337.941	3642
338.028	3610
338.115	149
338.202	1484
338.289	3591
338.376	12582
338.463	3637
338.550	5007
338.637	3889
338.724	2272
338.811	2953
338.898	1119
338.984	-469
339.071	13
339.158	1533
339.245	4419
339.332	2314
339.419	2545
339.506	2316
339.593	-165
339.679	124
339.766	-420
339.853	1079
339.940	3762
340.027	460
340.113	588
340.200	1663
340.287	1043
340.374	1387
340.460	2492
340.547	299
340.634	3265
340.720	14484
340.807	5160
340.894	449
340.980	942
341.067	-216
341.154	1022
341.240	1573
341.327	5272
341.414	1685
341.500	349
341.587	621
341.674	778
341.760	4000
341.847	3074
341.933	734
342.020	-967
342.106	-191
342.193	933
342.279	2699
342.366	1299
342.452	3904
342.539	810
342.625	5702
342.712	13279
342.798	5564
342.885	1128
342.971	190
343.058	-247
343.144	323
343.230	524
343.317	1155
343.403	-176
343.490	289
343.576	-273
343.662	579
343.749	845
343.835	1708
343.921	5167
344.008	52087
344.094	97403
344.180	15012
344.267	4184
344.353	20775
344.439	16885
344.525	5991
344.612	3765
344.698	2770
344.784	478
344.870	1059
344.957	47
345.043	2219
345.129	708
345.215	3188
345.301	1001
345.387	685
345.474	-304
345.560	397
345.646	-370
345.732	623
345.818	914
345.904	684
345.990	1043
346.076	449
346.162	341
346.249	474
346.335	-17
346.421	1235
346.507	9640
346.593	31419
346.679	4121
346.765	1266
346.851	207
346.937	53
347.023	645
347.108	1481
347.194	564
347.280	481
347.366	1416
347.452	9340
347.538	40569
347.624	24781
347.710	14753
347.796	1530
347.882	396
347.967	709
348.053	1013
348.139	537
348.225	-324
348.311	466
348.397	-738
348.482	1230
348.568	646
348.654	302
348.740	-586
348.825	-418
348.911	3269
348.997	19986
349.083	34597
349.168	2910
349.254	843
349.340	300
349.425	-288
349.511	595
349.597	839
349.682	4649
349.768	17765
349.854	6308
349.939	617
350.025	213
350.110	717
350.196	343
350.282	-1141
350.367	420
350.453	764
350.538	1248
350.624	926
350.709	328
350.795	319
350.880	-262
350.966	1219
351.051	959
351.137	241
351.222	507
351.308	4880
351.393	13136
351.479	2113
351.564	-109
351.649	818
351.735	795
351.820	162
351.906	646
351.991	143
352.076	9880
352.162	12272
352.247	1167
352.332	627
352.418	2289
352.503	3838
352.588	21426
352.673	13461
352.759	2640
352.844	-415
352.929	1054
353.014	861
353.100	1410
353.185	2559
353.270	4069
353.355	3606
353.441	883
353.526	926
353.611	3166
353.696	4121
353.781	3078
353.866	-66
353.952	1040
354.037	3520
354.122	9728
354.207	8317
354.292	1991
354.377	777
354.462	985
354.547	1244
354.632	1164
354.717	1873
354.802	2337
354.887	1089
354.972	241
355.057	-725
355.142	-378
355.227	698
355.312	1974
355.397	6385
355.482	15842
355.567	5688
355.652	5098
355.737	6124
355.822	21899
355.907	14580
355.991	1650
356.076	-727
356.161	713
356.246	293
356.331	694
356.416	4913
356.501	48673
356.585	41828
356.670	2883
356.755	3441
356.840	4572
356.924	34924
357.009	114537
357.094	32357
357.179	5107
357.263	2651
357.348	3686
357.433	2406
357.517	2517
357.602	1764
357.687	1055
357.771	2852
357.856	6794
357.941	4914
358.025	28583
358.110	121177
358.195	44857
358.279	3864
358.364	2826
358.448	14340
358.533	37108
358.617	25300
358.702	25514
358.787	7471
358.871	3528
358.956	3065
359.040	-141
359.125	-308
359.209	381
359.294	3217
359.378	5322
359.462	2748
359.547	1791
359.631	175
359.716	-400
359.800	691
359.885	1633
359.969	211
360.053	233
360.138	475
360.222	1505
360.306	4079
360.391	2668
360.475	4944
360.559	10962
360.644	12207
360.728	8600
360.812	27701
360.896	67470
360.981	18728
361.065	6796
361.149	1410
361.233	1454
361.318	341
361.402	438
361.486	931
361.570	776
361.654	1528
361.739	6610
361.823	47119
361.907	67000
361.991	7656
362.075	4424
362.159	7210
362.243	5667
362.327	1267
362.411	3259
362.495	811
362.580	840
362.664	179
362.748	-629
362.832	256
362.916	-649
363.000	6294
363.084	41622
363.168	73903
363.252	12858
363.336	2219
363.420	3987
363.503	10902
363.587	10855
363.671	2395
363.755	578
363.839	2476
363.923	79
364.007	3764
364.091	3149
364.175	2515
364.258	17685
364.342	5594
364.426	4383
364.510	1244
364.594	3684
364.677	11734
364.761	60094
364.845	36761
364.929	8068
365.013	5694
365.096	4694
365.180	4831
365.264	5614
365.347	17270
365.431	5660
365.515	1056
365.598	-144
365.682	1531
365.766	-124
365.849	738
365.933	711
366.017	1920
366.100	-361
366.184	-1273
366.267	1662
366.351	-9
366.435	-604
366.518	-675
366.602	488
366.685	1167
366.769	632
366.852	1086
366.936	3405
367.019	1599
367.103	16
367.186	1258
367.270	681
367.353	-728
367.436	120
367.520	-799
367.603	656
367.687	1208
367.770	4670
367.853	3150
367.937	15449
368.020	21484
368.104	2936
368.187	3466
368.270	5965
368.353	3413
368.437	4631
368.520	8727
368.603	6937
368.687	15394
368.770	26638
368.853	4595
368.936	4374
369.020	2181
369.103	1392
369.186	-112
369.269	92
369.352	2258
369.436	4020
369.519	1990
369.602	-1235
369.685	1530
369.768	87
369.851	264
369.934	-330
370.018	771
370.101	2891
370.184	3303
370.267	1469
370.350	2804
370.433	5316
370.516	26575
370.599	28141
370.682	4700
370.765	12246
370.848	19673
370.931	36789
371.014	10220
371.097	129
371.180	564
371.263	1444
371.346	-1000
371.429	893
371.511	544
371.594	1197
371.677	3819
371.760	3772
371.843	4064
371.926	45819
372.009	92989
372.091	25316
372.174	14837
372.257	37333
372.340	11076
372.423	3593
372.505	4658
372.588	1743
372.671	11910
372.754	35801
372.836	15544
372.919	5058
373.002	8357
373.085	2816
373.167	5209
373.250	15391
373.332	36218
373.415	65277
373.498	125264
373.580	39234
373.663	56443
373.746	73982
373.828	11657
373.911	4156
373.993	2942
374.076	8388
374.159	7028
374.241	8412
374.324	27197
374.406	18291
374.489	38747
374.571	97519
374.654	32885
374.736	18492
374.819	60060
374.901	93646
374.983	88309
375.066	11332
375.148	2172
375.231	8328
375.313	14213
375.395	4884
375.478	644
375.560	1244
375.643	2273
375.725	18271
375.807	76972
375.890	48001
375.972	8580
376.054	6072
376.136	6253
376.219	3593
376.301	23103
376.383	59418
376.465	20462
376.548	8847
376.630	16581
376.712	47055
376.794	19017
376.877	1038
376.959	-394
377.041	877
377.123	405
377.205	1646
377.287	-700
377.369	433
377.452	95
377.534	797
377.616	654
377.698	352
377.780	-1497
377.862	724
377.944	204
378.026	-835
378.108	35
378.190	-105
378.272	527
378.354	268
378.436	-69
378.518	353
378.600	4080
378.682	6497
378.764	18519
378.846	13474
378.928	2359
379.010	3350
379.091	2455
379.173	402
379.255	-433
379.337	1037
379.419	9499
379.501	27597
379.583	9172
379.664	1934
379.746	5444
379.828	18068
379.910	24965
379.991	21047
380.073	1986
380.155	803
380.237	82
380.318	374
380.400	458
380.482	3834
380.564	5236
380.645	4224
380.727	3290
380.809	3041
380.890	831
380.972	-271
381.053	699
381.135	856
381.217	6253
381.298	17980
381.380	6757
381.461	8941
381.543	51485
381.624	57776
381.706	8043
381.787	1979
381.869	4010
381.951	28034
382.032	97763
382.113	54954
382.195	5517
382.276	4782
382.358	14756
382.439	42440
382.521	56576
382.602	84953
382.684	33645
382.765	51829
382.846	39724
382.928	32627
383.009	15684
383.090	13361
383.172	53271
383.253	75694
383.334	34981
383.416	60521
383.497	28058
383.578	5930
383.659	10602
383.741	50447
383.822	123544
383.903	58890
383.984	34087
384.066	69359
384.147	38278
384.228	5709
384.309	3560
384.390	2291
384.471	609
384.553	1421
384.634	2631
384.715	2830
384.796	539
384.877	2879
384.958	16836
385.039	19168
385.120	3774
385.201	2496
385.282	1588
385.363	1695
385.444	921
385.525	8025
385.606	32116
385.687	27328
385.768	3072
385.849	6595
385.930	45884
386.011	74872
386.092	15513
386.173	2021
386.254	818
386.335	2153
386.416	1310
386.496	10343
386.577	16484
386.658	4204
386.739	820
386.820	2241
386.901	-619
386.981	804
387.062	310
387.143	3695
387.224	16243
387.304	15031
387.385	3453
387.466	-455
387.547	1183
387.627	-275
387.708	7626
387.789	36328
387.869	41924
387.950	11337
388.031	224
388.111	-1640
388.192	1817
388.273	3087
388.353	1419
388.434	1336
388.514	8263
388.595	43961
388.676	49833
388.756	18738
388.837	15537
388.917	7996
388.998	-161
389.078	1549
389.159	1392
389.239	-216
389.320	3262
389.400	268
389.480	6969
389.561	18509
389.641	9027
389.722	2005
389.802	3148
389.883	9246
389.963	26038
390.043	13069
390.124	49
390.204	5313
390.284	19046
390.365	11680
390.445	18845
390.525	74673
390.605	66888
390.686	11131
390.766	2453
390.846	1894
390.927	-444
391.007	-639
391.087	705
391.167	-2
391.247	-887
391.328	1303
391.408	1537
391.488	214
391.568	-1601
391.648	1083
391.728	2317
391.808	2985
391.888	2119
391.969	10543
392.049	15053
392.129	5219
392.209	7814
392.289	23507
392.369	10146
392.449	2710
392.529	954
392.609	2954
392.689	5663
392.769	22016
392.849	16345
392.929	10854
393.009	26818
393.089	17232
393.169	5679
393.248	28453
393.328	152874
393.408	156550
393.488	22497
393.568	3918
393.648	2494
393.728	848
393.807	576
393.887	1562
393.967	1445
394.047	2452
394.127	4069
394.206	9476
394.286	53971
394.366	233996
394.446	229995
394.525	41870
394.605	7781
394.685	5067
394.764	7820
394.844	9305
394.924	5397
395.003	3223
395.083	2242
395.163	1829
395.242	1706
395.322	2308
395.402	-210
395.481	2917
395.561	3898
395.640	13376
395.720	10807
395.799	13072
395.879	11153
395.958	14995
396.038	78111
396.117	308867
396.197	308267
396.276	67975
396.356	13473
396.435	7884
396.515	5306
396.594	4234
396.673	7828
396.753	38983
396.832	136629
396.912	100992
396.991	18997
397.070	3954
397.150	559
397.229	1349
397.308	76
397.388	618
397.467	1784
397.546	504
397.625	-2057
397.705	3322
397.784	1081
397.863	-344
397.942	376
398.022	-168
398.101	2172
398.180	8795
398.259	2835
398.338	1215
398.417	686
398.497	143
398.576	805
398.655	-1028
398.734	112
398.813	-621
398.892	3727
398.971	10880
399.050	3482
399.129	-517
399.208	-1029
399.287	316
399.366	-1013
399.445	-364
399.524	-415
399.603	-1111
399.682	1232
399.761	5349
399.840	12052
399.919	8591
399.998	-21
400.077	-1773
400.156	-1221
400.235	2218
400.313	-720
400.392	80
400.471	9685
400.550	14206
400.629	1529
400.708	496
400.786	-1177
400.865	1182
400.944	783
401.023	1672
401.102	-1388
401.180	71
401.259	-345
401.338	-110
401.416	474
401.495	-360
401.574	-533
401.652	-865
401.731	182
401.810	-945
401.888	-154
401.967	-1121
402.046	-1265
402.124	737
402.203	-17
402.281	752
402.360	21
402.438	1959
402.517	25
402.596	215
402.674	-1111
402.753	-357
402.831	-292
402.910	1178
402.988	6227
403.066	21208
403.145	11519
403.223	8127
403.302	16041
403.380	12955
403.459	10452
403.537	3614
403.615	35
403.694	-1615
403.772	232
403.850	-587
403.929	-1146
404.007	-145
404.085	2852
404.164	1370
404.242	-327
404.320	5882
404.398	19690
404.477	27872
404.555	67503
404.633	56689
404.711	16114
404.789	7504
404.868	609
404.946	-390
405.024	-611
405.102	-652
405.180	-1247
405.258	-1847
405.336	-204
405.415	-1389
405.493	1410
405.571	1492
405.649	-1225
405.727	-1171
405.805	489
405.883	890
405.961	916
406.039	-454
406.117	-1810
406.195	2045
406.273	13525
406.351	48155
406.429	26688
406.507	1193
406.585	-618
406.663	362
406.740	709
406.818	-49
406.896	-527
406.974	1098
407.052	3314
407.130	27724
407.208	36383
407.285	6054
407.363	-802
407.441	749
407.519	-415
407.596	-117
407.674	3125
407.752	12763
407.830	10670
407.907	2005
407.985	-453
408.063	-337
408.141	-1125
408.218	750
408.296	-365
408.373	112
408.451	408
408.529	-55
408.606	-1661
408.684	-1659
408.762	-575
408.839	-1259
408.917	-963
408.994	-1146
409.072	-1998
409.149	-492
409.227	-459
409.304	-777
409.382	-880
409.459	-1710
409.537	-155
409.614	-680
409.692	-1250
409.769	-309
409.846	-1268
409.924	-141
410.001	-2414
410.079	-1055
410.156	-386
410.233	530
410.311	-411
410.388	-643
410.465	-710
410.543	-1182
410.620	-406
410.697	-383
410.775	-975
410.852	-1963
410.929	131
411.006	953
411.083	-1604
411.161	215
411.238	544
411.315	-1018
411.392	-814
411.469	-38
411.547	-668
411.624	-1765
411.701	-1161
411.778	299
411.855	1123
411.932	-94
412.009	-942
412.086	-1145
412.163	-716
412.240	-293
412.317	-247
412.394	-1183
412.471	-411
412.548	-1381
412.625	-1048
412.702	590
412.779	195
412.856	88
412.933	-1709
413.010	-440
413.087	1079
413.164	8306
413.241	10796
413.318	1347
413.395	229
413.471	373
413.548	-276
413.625	-523
413.702	-1791
413.779	-474
413.855	-1204
413.932	-1005
414.009	-1160
414.086	-983
414.162	-698
414.239	460
414.316	7789
414.393	18887
414.469	4470
414.546	-426
414.623	-1791
414.699	-63
414.776	-1013
414.853	-463
414.929	-664
415.006	-1044
415.082	-891
415.159	-875
415.236	-847
415.312	74
415.389	550
415.465	774
415.542	271
415.618	-930
415.695	964
415.771	-571
415.848	-425
415.924	-366
416.000	-1558
416.077	-125
416.153	-2060
416.230	-1427
416.306	-952
416.383	-1109
416.459	-653
416.535	-1180
416.612	-1437
416.688	-641
416.764	-866
416.841	-1407
416.917	-1025
416.993	-565
417.069	-731
417.146	103
417.222	-1
417.298	624
417.374	-1710
417.451	-446
417.527	-163
417.603	-234
417.679	-377
417.755	-758
417.831	-1292
417.908	-721
417.984	-1463
418.060	-1735
418.136	462
418.212	1816
418.288	-934
418.364	-362
418.440	-2018
418.516	486
418.592	94
418.668	899
418.744	3844
418.820	2672
418.896	-1168
418.972	-939
419.048	-507
419.124	1735
419.200	-337
419.276	-828
419.352	-1525
419.428	-241
419.504	-862
419.579	-532
419.655	-1439
419.731	-375
419.807	2971
419.883	5049
419.959	2659
420.034	300
420.110	1524
420.186	10502
420.262	7868
420.337	265
420.413	-774
420.489	-446
420.565	-339
420.640	-821
420.716	-959
420.792	-1897
420.867	-760
420.943	-1139
421.019	-380
421.094	-1124
421.170	-1042
421.245	-1297
421.321	-626
421.397	-2251
421.472	957
421.548	4960
421.623	2978
421.699	-491
421.774	-1115
421.850	-1225
421.925	-888
422.001	5
422.076	-490
422.152	-760
422.227	-140
422.302	-141
422.378	-335
422.453	590
422.529	5993
422.604	39930
422.679	90031
422.755	41000
422.830	5049
422.905	271
422.981	-604
423.056	-1165
423.131	-796
423.207	-790
423.282	-789
423.357	1512
423.432	405
423.508	1075
423.583	4329
423.658	3278
423.733	-467
423.808	-1048
423.883	175
423.959	121
424.034	-1239
424.109	-506
424.184	-1790
424.259	-1087
424.334	-1871
424.409	-1339
424.484	-749
424.559	-906
424.634	-1250
424.709	176
424.784	475
424.859	-800
424.934	58
425.009	8230
425.084	12379
425.159	3410
425.234	-305
425.309	-1741
425.384	318
425.459	-349
425.534	-1033
425.609	-1332
425.683	-1413
425.758	-2299
425.833	-1221
425.908	388
425.983	3251
426.058	13155
426.132	4226
426.207	-915
426.282	279
426.357	-1599
426.431	-1081
426.506	-378
426.581	-1280
426.655	-983
426.730	-863
426.805	-1610
426.879	-69
426.954	-1292
427.029	1548
427.103	17012
427.178	38966
427.253	16756
427.327	88
427.402	-322
427.476	1173
427.551	-333
427.625	-1022
427.700	-704
427.774	-1774
427.849	-376
427.923	-1892
427.998	-1865
428.072	-2202
428.147	231
428.221	2891
428.296	5104
428.370	897
428.444	-1036
428.519	-652
428.593	647
428.667	310
428.742	1679
428.816	606
428.890	3498
428.965	4898
429.039	2136
429.113	265
429.188	-1179
429.262	-1086
429.336	441
429.410	4835
429.485	3048
429.559	728
429.633	317
429.707	-1540
429.781	19
429.855	5134
429.930	10440
430.004	6596
430.078	9317
430.152	6948
430.226	7462
430.300	7550
430.374	-717
430.448	-409
430.522	3058
430.596	9773
430.670	7990
430.744	24149
430.818	40265
430.892	7650
430.966	-848
431.040	-766
431.114	-1174
431.188	-1771
431.262	-1380
431.336	-1480
431.410	713
431.484	1751
431.557	2172
431.631	-1429
431.705	-963
431.779	-940
431.853	2464
431.927	301
432.000	-559
432.074	-681
432.148	-890
432.222	-1504
432.295	-273
432.369	-1015
432.443	990
432.516	17372
432.590	41643
432.664	14275
432.737	-272
432.811	-1481
432.885	-1424
432.958	-1328
433.032	-1602
433.106	-1477
433.179	-1344
433.253	-1296
433.326	-1632
433.400	-1010
433.473	-867
433.547	-2142
433.620	-1281
433.694	-75
433.767	329
433.841	-1831
433.914	-1896
433.988	-1943
434.061	-1222
434.134	-1371
434.208	-1846
434.281	-1523
434.355	-840
434.428	-1060
434.501	-1537
434.575	-1528
434.648	-1023
434.721	-1789
434.795	-1202
434.868	-1458
434.941	-2417
435.014	-1962
435.088	-1439
435.161	-1494
435.234	95
435.307	-42
435.381	-1599
435.454	-1494
435.527	-1683
435.600	-2376
435.673	-1421
435.746	-2395
435.819	-995
435.892	-1173
435.966	-1135
436.039	-1712
436.112	-696
436.185	-1046
436.258	-1309
436.331	-2106
436.404	-1854
436.477	-1909
436.550	-1830
436.623	-1592
436.696	-1595
436.769	-1819
436.842	-425
436.915	-1837
436.987	-693
437.060	-1651
437.133	-2041
437.206	-2003
437.279	-831
437.352	-1862
437.425	-1763
437.498	-676
437.570	-66
437.643	229
437.716	-975
437.789	-1473
437.861	-1003
437.934	106
438.007	-368
438.080	-1094
438.152	-824
438.225	1922
438.298	27464
438.370	69735
438.443	26125
438.516	1888
438.588	-758
438.661	-1646
438.734	-1568
438.806	-912
438.879	-1304
438.951	-1699
439.024	-322
439.096	-1203
439.169	-674
439.241	-1920
439.314	-1675
439.386	-1641
439.459	-326
439.531	-971
439.604	-1063
439.676	-1219
439.749	-956
439.821	-1712
439.893	-1316
439.966	-985
440.038	-1701
440.110	-1030
440.183	-1053
440.255	-1515
440.327	-76
440.400	9166
440.472	38034
440.544	24803
440.617	1198
440.689	113
440.761	313
440.833	396
440.905	-278
440.978	-1883
441.050	-1310
441.122	-964
441.194	-1234
441.266	-1879
441.338	-1279
441.411	425
441.483	9697
441.555	15075
441.627	1659
441.699	-648
441.771	-478
441.843	-844
441.915	-908
441.987	-1561
442.059	-1117
442.131	-791
442.203	160
442.275	-637
442.347	-628
442.419	-1198
442.491	-177
442.563	1218
442.635	1242
442.706	1872
442.778	3161
442.850	-963
442.922	-1853
442.994	-1145
443.066	-330
443.137	-1192
443.209	-1306
443.281	-1453
443.353	-779
443.425	1279
443.496	4738
443.568	3647
443.640	213
443.711	-777
443.783	-1693
443.855	-1986
443.926	-781
443.998	-1138
444.070	-404
444.141	-942
444.213	-132
444.285	437
444.356	-115
444.428	-769
444.499	-1445
444.571	-1746
444.642	-981
444.714	-1215
444.785	-615
444.857	-167
444.928	2007
445.000	917
445.071	317
445.143	354
445.214	22
445.285	-511
445.357	3386
445.428	6717
445.500	12630
445.571	8521
445.642	2438
445.714	1343
445.785	4788
445.856	509
445.928	-59
445.999	-1087
446.070	-850
446.141	-283
446.213	1686
446.284	-976
446.355	-617
446.426	-1156
446.497	-1528
446.569	-316
446.640	942
446.711	869
446.782	-1117
446.853	-882
446.924	28
446.995	-909
447.066	-737
447.138	-493
447.209	-71
447.280	-1289
447.351	-1539
447.422	-1997
447.493	-1272
447.564	-917
447.635	-1
447.706	-722
447.777	-1171
447.847	-1052
447.918	-1322
447.989	-1002
448.060	-914
448.131	1657
448.202	2130
448.273	505
448.344	-283
448.414	-646
448.485	-1077
448.556	-948
448.627	-1365
448.698	-587
448.768	-1536
448.839	-1742
448.910	-664
448.981	-332
449.051	-643
449.122	-1576
449.193	-1376
449.263	-1246
449.334	-892
449.405	-609
449.475	1240
449.546	597
449.616	-446
449.687	-363
449.758	-1232
449.828	-1277
449.899	-1204
449.969	-1870
450.040	-1296
450.110	-911
450.181	179
450.251	-1368
450.322	-764
450.392	-1383
450.463	-1055
450.533	-1258
450.604	-831
450.674	-1836
450.744	-612
450.815	-1807
450.885	-566
450.955	-1399
451.026	-1610
451.096	-1433
451.166	-819
451.237	-821
451.307	3059
451.377	1171
451.447	-1127
451.518	-1366
451.588	-1627
451.658	-1169
451.728	55
451.799	4270
451.869	5079
451.939	40
452.009	-259
452.079	-1304
452.149	-12
452.219	25
452.289	5480
452.360	4580
452.430	-490
452.500	-427
452.570	-169
452.640	305
452.710	1928
452.780	4801
452.850	4734
452.920	4640
452.990	710
453.060	-927
453.129	142
453.199	1138
453.269	6525
453.339	16485
453.409	26488
453.479	23051
453.549	36263
453.619	38337
453.688	16686
453.758	892
453.828	-988
453.898	-470
453.968	-621
454.037	-653
454.087	-741
454.107	-784
454.168	-1776
454.177	-1929
454.247	-1052
454.249	-1038
454.316	-948
454.330	-778
454.386	-147
454.411	378
454.456	1192
454.492	2466
454.525	3636
454.574	1913
454.595	1162
454.655	-320
454.665	-565
454.734	-280
454.736	-248
454.804	581
454.817	1436
454.873	4968
454.898	5491
454.943	6425
454.979	3777
455.013	1431
455.060	248
455.082	-314
455.141	-40
455.152	127
455.221	4164
455.222	4292
455.291	10600
455.303	12399
455.360	19709
455.384	29109
455.430	44862
455.465	32587
455.499	21871
455.546	11341
455.569	6335
455.627	4432
455.638	4115
455.707	148
455.708	151
455.777	-604
455.789	-636
455.846	-674
455.869	-736
455.916	-939
455.950	-962
455.985	-985
456.031	-607
456.054	-423
456.112	-797
456.124	-869
456.193	-430
456.193	-438
456.262	-523
456.274	-400
456.332	143
456.355	-37
456.401	-486
456.436	-478
456.470	-431
456.516	-671
456.540	-804
456.597	-956
456.609	-1005
456.678	-992
456.678	-998
456.747	-653
456.759	-753
456.817	-1218
456.840	-1149
456.886	-1177
456.920	-1176
456.955	-1020
457.001	-618
457.024	-428
457.082	-195
457.093	-136
457.162	433
457.163	442
457.232	79
457.243	61
457.301	311
457.324	109
457.370	-417
457.405	-208
457.439	216
457.485	-351
457.508	-795
457.566	-818
457.577	-767
457.646	-405
457.647	-394
457.715	-52
457.727	-183
457.784	-701
457.808	-509
457.853	-152
457.889	356
457.922	771
457.969	335
457.991	95
458.050	-350
458.060	-405
458.129	136
458.130	137
458.198	-386
458.211	-389
458.267	-368
458.292	-417
458.336	-331
458.372	-231
458.405	34
458.453	143
458.474	-44
458.533	7
458.543	79
458.611	442
458.614	471
458.680	566
458.694	297
458.749	-374
458.775	-87
458.818	415
458.855	66
458.887	-414
458.936	-650
458.955	-615
459.016	-668
459.024	-676
459.093	96
459.097	103
459.162	-287
459.177	-285
459.230	61
459.257	157
459.299	126
459.338	213
459.368	336
459.418	66
459.437	-117
459.499	144
459.505	203
459.574	143
459.579	178
459.643	461
459.659	356
459.711	66
459.740	114
459.780	-14
459.820	-259
459.849	-145
459.900	662
459.917	726
459.981	-188
459.986	-217
460.054	26
460.061	78
460.123	133
460.141	87
460.191	879
460.222	1533
460.260	1570
460.302	1508
460.328	1371
460.382	483
460.397	396
460.462	701
460.465	751
460.534	1803
460.543	1988
460.602	4110
460.623	4912
460.671	7063
460.703	10524
460.739	10992
460.783	8833
460.808	8330
460.864	2800
460.876	1848
460.944	-59
460.945	-74
461.013	728
461.024	670
461.081	320
461.104	572
461.150	453
461.184	193
461.218	311
461.264	265
461.286	308
461.345	241
461.355	149
461.423	404
461.425	396
461.491	251
461.505	253
461.559	1468
461.585	2041
461.628	2836
461.665	4111
461.696	4287
461.745	5528
461.764	5652
461.825	2703
461.832	2608
461.901	1193
461.905	1215
461.969	464
461.985	327
462.037	704
462.065	670
462.105	320
462.145	538
462.173	1173
462.225	2052
462.241	2251
462.305	3740
462.310	3667
462.378	2323
462.385	1986
462.446	1286
462.465	1168
462.514	695
462.545	748
462.582	687
462.625	580
462.650	455
462.705	32
462.718	63
462.785	520
462.786	525
462.854	595
462.865	628
462.922	1084
462.945	1381
462.990	1181
463.025	681
463.058	702
463.104	619
463.126	427
463.184	393
463.194	473
463.262	508
463.264	535
463.330	412
463.344	249
463.398	810
463.424	1192
463.466	562
463.504	59
463.533	520
463.583	1201
463.601	1319
463.663	1437
463.669	1408
463.737	1505
463.743	1498
463.805	2343
463.823	2615
463.873	4381
463.903	5596
463.940	5259
463.982	5390
464.008	5087
464.062	2842
464.076	2566
464.142	1092
464.144	1072
464.211	684
464.221	719
464.279	966
464.301	942
464.347	1104
464.381	1467
464.414	1580
464.461	1561
464.482	1608
464.540	1926
464.550	1910
464.617	1323
464.620	1309
464.685	2173
464.699	2346
464.753	1990
464.779	1895
464.820	2514
464.859	3027
464.888	2466
464.938	1476
464.956	1740
465.018	2562
465.023	2563
465.091	2668
465.098	2658
465.158	2065
465.177	1903
465.226	1777
465.257	1663
465.293	1962
465.336	2414
465.361	2561
465.416	2813
465.428	2918
465.495	3661
465.496	3669
465.563	4040
465.575	4169
465.631	5588
465.654	6326
465.698	4639
465.734	2631
465.765	2295
465.813	1748
465.833	1526
465.893	1340
465.900	1370
465.968	1524
465.972	1540
466.035	1534
466.052	1531
466.102	2205
466.131	2526
466.170	1679
466.210	820
466.237	1266
466.290	2165
466.304	1987
466.369	1112
466.372	1152
466.439	2343
466.449	2493
466.506	2354
466.528	2324
466.573	3619
466.607	4588
466.641	5678
466.687	7237
466.708	7689
466.766	9039
466.775	8432
466.842	3763
466.845	3534
466.909	3241
466.925	3226
466.977	2763
467.004	2546
467.044	2876
467.083	3238
467.111	3406
467.163	3690
467.178	3731
467.242	3895
467.245	3895
467.312	3827
467.321	3816
467.379	3375
467.400	3208
467.446	3258
467.480	3292
467.559	2892
467.638	2309
467.717	2575
467.796	3353
467.875	4235
467.955	2493
468.034	4624
468.113	7897
468.192	11276
468.271	2607
468.350	1961
468.429	1483
468.508	2033
468.588	2669
468.667	2967
468.746	2382
468.825	2840
468.904	2392
468.983	2158
469.062	3934
469.141	4929
469.220	1900
469.299	2802
469.378	2690
469.456	4404
469.535	3512
469.614	3317
469.693	2705
469.772	4206
469.851	4323
469.930	2794
470.009	2306
470.088	2813
470.166	3324
470.245	4129
470.324	3903
470.403	3443
470.482	2664
470.560	3736
470.639	2540
470.718	4409
470.797	1907
470.875	2770
470.954	3809
471.033	3981
471.111	1264
471.190	2403
471.269	2267
471.347	2392
471.426	2774
471.505	3189
471.583	3691
471.662	2364
471.740	2083
471.819	3047
471.898	2245
471.976	2502
472.055	3031
472.133	3416
472.212	2982
472.290	2506
472.369	1716
472.447	1920
472.526	1714
472.604	3315
472.683	2861
472.761	3203
472.839	2023
472.918	2223
472.996	2379
473.075	2855
473.153	2482
473.231	2621
473.310	2606
473.388	2715
473.466	2433
473.545	3733
473.623	3782
473.701	4144
473.780	2615
473.858	1102
473.936	4449
474.014	2610
474.093	2039
474.171	3441
474.249	4071
474.327	2400
474.405	1558
474.484	1886
474.562	2045
474.640	2119
474.718	2739
474.796	2099
474.874	2596
474.952	1533
475.030	1480
475.108	1876
475.187	2039
475.265	3962
475.343	6162
475.421	5746
475.499	1839
475.577	2169
475.655	3282
475.733	5278
475.811	6784
475.889	7075
475.966	4394
476.044	3728
476.122	4298
476.200	5928
476.278	2312
476.356	1810
476.434	2672
476.512	3777
476.590	5058
476.667	3167
476.745	1164
476.823	2481
476.901	1611
476.979	2045
477.056	1353
477.134	1548
477.212	2350
477.290	2650
477.367	1401
477.445	2396
477.523	1212
477.601	1548
477.678	1643
477.756	1801
477.834	1788
477.911	1997
477.989	1991
478.066	1901
478.144	2711
478.222	4304
478.299	7613
478.377	4990
478.454	1182
478.532	2018
478.609	1075
478.687	2178
478.764	589
478.842	1836
478.919	1266
478.997	1488
479.074	824
479.152	1771
479.229	2657
479.307	2016
479.384	906
479.461	1226
479.539	1229
479.616	2011
479.694	863
479.771	2218
479.848	1459
479.926	1544
480.003	2681
480.080	2078
480.157	869
480.235	1486
480.312	996
480.389	1873
480.467	2232
480.544	3432
480.621	1993
480.698	1238
480.775	1981
480.853	2290
480.930	1304
481.007	1247
481.084	1470
481.161	2154
481.238	2440
481.315	1996
481.392	642
481.470	1654
481.547	1075
481.624	1112
481.701	1542
481.778	500
481.855	1926
481.932	2646
482.009	3177
482.086	2521
482.163	1789
482.240	5803
482.317	8183
482.393	5227
482.470	1000
482.547	1588
482.624	353
482.701	1605
482.778	725
482.855	1707
482.932	1136
483.009	1623
483.085	631
483.162	1617
483.239	1702
483.316	717
483.393	1437
483.469	1536
483.546	1599
483.623	2067
483.699	820
483.776	1596
483.853	482
483.930	3313
484.006	6671
484.083	11373
484.160	7108
484.236	12318
484.313	7885
484.389	6168
484.466	6102
484.543	5443
484.619	4634
484.696	7005
484.772	4707
484.849	6302
484.925	4434
485.002	5529
485.078	4905
485.155	5109
485.231	4529
485.308	4993
485.384	5175
485.461	6624
485.537	7826
485.614	9308
485.690	4696
485.766	5208
485.843	6082
485.919	8136
485.995	7589
486.072	4421
486.148	4151
486.224	4771
486.301	5195
486.377	4830
486.453	4197
486.530	5475
486.606	8190
486.682	8161
486.758	7654
486.835	8444
486.911	6761
486.987	12627
487.063	15523
487.139	19682
487.215	11730
487.292	5814
487.368	4915
487.444	5015
487.520	5673
487.596	4297
487.672	6078
487.748	8270
487.824	8514
487.900	5011
487.976	4573
488.052	4366
488.128	5339
488.204	3851
488.280	5047
488.356	6767
488.432	8816
488.508	12179
488.584	4931
488.660	4942
488.736	4844
488.812	5392
488.888	6868
488.964	10574
489.039	22164
489.115	29776
489.191	13088
489.267	4937
489.343	3470
489.418	4156
489.494	4034
489.570	3902
489.646	4574
489.722	3889
489.797	3385
489.873	6807
489.949	9608
490.024	7697
490.100	3364
490.176	2823
490.251	3993
490.327	6929
490.403	2984
490.478	3044
490.554	2737
490.629	2989
490.705	2589
490.781	3177
490.856	2851
490.932	4178
491.007	4065
491.083	3631
491.158	2038
491.234	4845
491.309	7425
491.385	5954
491.460	2172
491.536	3564
491.611	2982
491.686	4567
491.762	6784
491.837	13968
491.913	20981
491.988	30034
492.063	30302
492.139	6592
492.214	3771
492.289	3070
492.365	2706
492.440	3493
492.515	2159
492.590	2608
492.666	1723
492.741	3527
492.816	4479
492.891	2203
492.967	3473
493.042	2929
493.117	2200
493.192	5708
493.267	18989
493.342	58500
493.418	65501
493.493	5185
493.568	2425
493.643	2961
493.718	3407
493.793	4930
493.868	4880
493.943	2961
494.018	1987
494.093	2239
494.168	2186
494.243	1929
494.318	1993
494.393	2643
494.468	1262
494.543	1299
494.618	2229
494.693	1679
494.768	1582
494.842	2502
494.917	1381
494.992	2295
495.067	1448
495.142	1257
495.217	2244
495.292	2699
495.366	1893
495.441	2068
495.516	4038
495.591	9875
495.665	33834
495.740	63558
495.815	14640
495.890	2941
495.964	581
496.039	4756
496.114	1852
496.188	2335
496.263	2099
496.338	1774
496.412	1724
496.487	3240
496.561	3151
496.636	2480
496.710	1551
496.785	2703
496.860	2810
496.934	2314
497.009	1407
497.083	1803
497.158	2260
497.232	2835
497.307	2951
497.381	2143
497.455	2912
497.530	4360
497.604	2148
497.679	2971
497.753	5408
497.827	5349
497.902	4586
497.976	7551
498.050	24286
498.125	68652
498.199	47238
498.273	8643
498.348	6460
498.422	5143
498.496	4989
498.570	4356
498.645	3017
498.719	2236
498.793	3897
498.867	5905
498.941	9683
499.016	31424
499.090	62714
499.164	12844
499.238	2864
499.312	2870
499.386	3099
499.460	2118
499.534	2334
499.609	3104
499.683	3554
499.757	5219
499.831	14984
499.905	46122
499.979	27573
500.053	5942
500.127	6415
500.201	5625
500.275	3173
500.349	2872
500.422	2658
500.496	7835
500.570	16274
500.644	29636
500.718	36968
500.792	6072
500.866	2699
500.940	3561
501.013	1862
501.087	3609
501.161	6637
501.235	5790
501.309	17919
501.382	38396
501.456	24553
501.530	7905
501.603	10147
501.677	3607
501.751	1268
501.825	4289
501.898	6640
501.972	14194
502.046	5530
502.119	2743
502.193	8499
502.266	14523
502.340	5654
502.413	7443
502.487	11490
502.561	5210
502.634	2535
502.708	3221
502.781	1695
502.855	2365
502.928	1261
503.002	1360
503.075	278
503.149	1455
503.222	1562
503.295	1645
503.369	1988
503.442	3417
503.516	13082
503.589	26059
503.662	11512
503.736	5992
503.809	12138
503.882	7410
503.956	15118
504.029	9673
504.102	5992
504.175	4725
504.249	-185
504.322	1990
504.395	1180
504.468	1681
504.542	901
504.615	608
504.688	626
504.761	397
504.834	2025
504.907	2812
504.980	5188
505.053	1984
505.127	1500
505.200	4466
505.273	1612
505.346	301
505.419	-52
505.492	1745
505.565	-41
505.638	1270
505.711	699
505.784	418
505.857	-31
505.930	2663
506.003	-780
506.076	2025
506.149	1020
506.221	329
506.294	3588
506.367	6471
506.440	18886
506.513	7799
506.586	2062
506.659	962
506.731	1463
506.804	1917
506.877	1769
506.950	1320
507.022	1413
507.095	1246
507.168	2077
507.241	2063
507.313	139
507.386	794
507.459	3124
507.531	1903
507.604	125
507.677	1277
507.749	-532
507.822	2226
507.894	4488
507.967	5718
508.040	1302
508.112	2374
508.185	1748
508.257	405
508.330	3839
508.402	1390
508.475	558
508.547	1936
508.620	1337
508.692	3362
508.765	2176
508.837	831
508.909	1602
508.982	1604
509.054	2396
509.127	1443
509.199	1222
509.271	770
509.344	488
509.416	1426
509.488	1168
509.560	1663
509.633	1749
509.705	2745
509.777	1797
509.849	3776
509.922	554
509.994	2527
510.066	1966
510.138	1102
510.210	6470
510.283	3965
510.355	2933
510.427	2691
510.499	1983
510.571	2651
510.643	1528
510.715	5266
510.787	1207
510.859	4207
510.931	2126
511.003	4271
511.076	3857
511.148	514
511.219	1502
511.291	3570
511.363	3331
511.435	2584
511.507	590
511.579	3165
511.651	1901
511.723	1493
511.795	1198
511.867	1976
511.939	1868
512.010	3938
512.082	3375
512.154	1155
512.226	1628
512.298	5158
512.369	4979
512.441	4768
512.513	3521
512.585	1681
512.656	3129
512.728	2271
512.800	1212
512.871	3746
512.943	2160
513.015	1047
513.086	1877
513.158	3059
513.230	2516
513.301	4714
513.373	5590
513.444	1622
513.516	902
513.588	2235
513.659	2636
513.731	4124
513.802	1265
513.874	9328
513.945	10941
514.016	1707
514.088	2418
514.159	2237
514.231	3978
514.302	4239
514.374	3064
514.445	1646
514.516	6114
514.588	2008
514.659	2100
514.730	4456
514.802	3592
514.873	1260
514.944	3222
515.016	3779
515.087	2181
515.158	3564
515.229	4515
515.301	1431
515.372	3625
515.443	2003
515.514	1934
515.585	-335
515.656	2765
515.728	2607
515.799	604
515.870	3512
515.941	2888
516.012	837
516.083	3744
516.154	3539
516.225	6119
516.296	5187
516.367	2649
516.438	2829
516.509	4325
516.580	8564
516.651	31002
516.722	72009
516.793	22533
516.864	6453
516.935	5078
517.006	6363
517.077	10474
517.148	28349
517.219	87663
517.289	87698
517.360	22352
517.431	7702
517.502	1582
517.573	3276
517.643	2871
517.714	4002
517.785	3451
517.856	3060
517.926	4681
517.997	4935
518.068	4981
518.138	9074
518.209	15058
518.280	73091
518.350	179432
518.421	38070
518.492	5054
518.562	4081
518.633	2476
518.703	142
518.774	4241
518.845	4767
518.915	3282
518.986	3154
519.056	5117
519.127	11175
519.197	14870
519.268	23829
519.338	9960
519.408	4138
519.479	6208
519.549	3125
519.620	3580
519.690	846
519.760	2186
519.831	1661
519.901	1013
519.971	1379
520.042	1624
520.112	1970
520.182	4145
520.253	3545
520.323	1273
520.393	2066
520.463	4709
520.534	852
520.604	5999
520.674	3744
520.744	2341
520.814	6019
520.885	4864
520.955	9971
521.025	22644
521.095	5038
521.165	2993
521.235	1015
521.305	296
521.375	1600
521.445	1660
521.515	3282
521.585	4864
521.655	1364
521.725	3453
521.795	2732
521.865	-572
521.935	4656
522.005	819
522.075	1184
522.145	1826
522.215	1460
522.285	3152
522.355	4213
522.424	6553
522.494	3573
522.564	2474
522.634	12683
522.704	28571
522.774	5822
522.843	1341
522.913	2650
522.983	2492
523.053	83
523.122	2103
523.192	4899
523.262	18084
523.331	10187
523.401	1925
523.471	1002
523.540	1994
523.610	287
523.680	1075
523.749	960
523.819	1831
523.888	140
523.958	456
524.027	1134
524.097	992
524.166	641
524.236	91
524.305	2933
524.375	219
524.444	8
524.514	1863
524.583	185
524.653	-62
524.722	1928
524.791	-186
524.861	1947
524.930	-1131
524.999	1387
525.069	2320
525.138	491
525.207	338
525.277	1149
525.346	813
525.415	524
525.484	943
525.554	372
525.623	777
525.692	1332
525.761	-756
525.830	1154
525.900	431
525.969	694
526.038	1319
526.107	495
526.176	5177
526.245	2318
526.314	4202
526.383	5078
526.452	990
526.522	8862
526.591	10488
526.660	10247
526.729	2930
526.797	6466
526.867	21033
526.935	79343
527.004	41249
527.073	10152
527.142	408
527.211	1984
527.280	3295
527.349	1518
527.418	-596
527.487	1651
527.555	-816
527.624	535
527.693	-1022
527.762	1606
527.831	-1332
527.899	1030
527.968	243
528.037	-509
528.106	1239
528.174	4344
528.243	1821
528.312	5205
528.380	4083
528.449	44
528.518	1854
528.586	-608
528.655	1098
528.723	722
528.792	-86
528.861	-153
528.929	-1337
528.998	1477
529.066	259
529.135	26
529.203	12
529.272	-1501
529.340	108
529.409	1971
529.477	-266
529.545	-688
529.614	2036
529.682	-536
529.751	-39
529.819	4061
529.887	-178
529.956	-408
530.024	662
530.092	-636
530.161	1855
530.229	1977
530.297	-395
530.365	980
530.434	344
530.502	-740
530.570	385
530.638	-1304
530.707	828
530.775	2315
530.843	-445
530.911	-194
530.979	-270
531.047	671
531.115	606
531.183	-3
531.252	592
531.320	700
531.388	-1773
531.456	886
531.524	-1876
531.592	911
531.660	1236
531.728	-78
531.796	-876
531.864	-210
531.932	194
532.000	-850
532.067	322
532.135	593
532.203	1589
532.271	37
532.339	5610
532.407	13131
532.475	3402
532.542	2109
532.610	2661
532.678	4148
532.746	31908
532.814	47187
532.881	6229
532.949	543
533.017	53
533.084	839
533.152	375
533.220	797
533.287	-484
533.355	-233
533.423	1043
533.490	-137
533.558	-285
533.625	-138
533.693	84
533.761	618
533.828	296
533.896	739
533.963	5190
534.031	4918
534.098	6065
534.166	1209
534.233	-298
534.300	1405
534.368	1020
534.435	506
534.503	895
534.570	253
534.637	-957
534.705	-225
534.772	550
534.840	335
534.907	3411
534.974	1278
535.041	-59
535.109	670
535.176	-1072
535.243	942
535.310	681
535.378	-406
535.445	-221
535.512	433
535.579	-81
535.646	-118
535.714	65
535.781	1647
535.848	578
535.915	2139
535.982	969
536.049	962
536.116	2172
536.183	1303
536.250	294
536.317	499
536.384	1407
536.451	3973
536.518	2751
536.585	-4
536.652	2193
536.719	5550
536.786	462
536.853	775
536.920	4942
536.987	7553
537.053	6194
537.120	32152
537.187	14707
537.254	471
537.321	-133
537.388	1599
537.454	-731
537.521	759
537.588	-1366
537.654	1581
537.721	345
537.788	1616
537.855	-257
537.921	704
537.988	-897
538.055	1196
538.121	-897
538.188	734
538.254	3379
538.321	7771
538.388	2021
538.454	266
538.521	614
538.587	-459
538.654	-417
538.720	350
538.787	202
538.853	845
538.920	453
538.986	1541
539.053	178
539.119	1255
539.185	859
539.252	2733
539.318	2913
539.385	1786
539.451	-592
539.517	1776
539.583	2764
539.650	8748
539.716	15484
539.782	2011
539.849	-116
539.915	2208
539.981	232
540.047	1429
540.114	1528
540.180	1855
540.246	34
540.312	2521
540.378	7266
540.444	7284
540.510	10496
540.576	20875
540.643	2289
540.709	246
540.775	71
540.841	892
540.907	1792
540.973	3654
541.039	2967
541.105	3345
541.171	359
541.237	44
541.303	1493
541.369	3719
541.435	3082
541.500	6412
541.566	1345
541.632	666
541.698	-246
541.764	1968
541.830	420
541.896	-867
541.961	858
542.027	188
542.093	522
542.159	1107
542.224	-761
542.290	3610
542.356	5419
542.421	6954
542.487	2352
542.553	332
542.618	1036
542.684	896
542.750	-271
542.815	2233
542.881	4353
542.947	20254
543.012	8271
543.078	1067
543.143	203
543.209	920
543.274	-63
543.340	2142
543.405	8109
543.471	7329
543.536	962
543.602	1516
543.667	-1102
543.732	1793
543.798	-705
543.863	1294
543.928	-89
543.994	-678
544.059	441
544.124	647
544.190	14
544.255	946
544.320	850
544.386	322
544.451	2673
544.516	3033
544.581	3304
544.646	14262
544.712	13807
544.777	1846
544.842	1222
544.907	-35
544.972	235
545.037	1102
545.102	1348
545.168	620
545.233	916
545.298	2149
545.363	727
545.428	2790
545.493	8422
545.558	13239
545.623	2775
545.688	96
545.753	726
545.818	719
545.883	1162
545.947	428
546.012	1209
546.077	752
546.142	1101
546.207	481
546.272	2559
546.337	1737
546.401	1288
546.466	1285
546.531	-526
546.596	2250
546.661	1083
546.725	1398
546.790	300
546.855	1177
546.919	-1380
546.984	-105
547.049	498
547.113	1211
547.178	-516
547.243	1985
547.307	921
547.372	2013
547.436	1423
547.501	319
547.565	948
547.630	2165
547.695	2316
547.759	797
547.823	128
547.888	639
547.952	1172
548.017	1365
548.081	1401
548.146	1971
548.210	1003
548.274	479
548.339	357
548.403	986
548.468	-864
548.532	24
548.596	216
548.660	962
548.725	1617
548.789	1478
548.853	1767
548.917	867
548.982	942
549.046	2223
549.110	-142
549.174	1230
549.238	598
549.303	474
549.367	1566
549.431	540
549.495	379
549.559	2
549.623	983
549.687	1921
549.751	2749
549.815	794
549.879	278
549.943	2
550.007	877
550.071	1087
550.135	2644
550.199	1079
550.263	1418
550.327	1047
550.391	1219
550.455	1411
550.519	948
550.582	2319
550.646	1918
550.710	1799
550.774	663
550.838	87
550.901	646
550.965	2231
551.029	-132
551.093	1911
551.156	3110
551.220	5864
551.284	3854
551.347	2960
551.411	7660
551.475	5056
551.538	1407
551.602	679
551.666	-74
551.729	196
551.793	1295
551.856	770
551.920	1178
551.983	1137
552.047	78
552.110	1496
552.174	267
552.237	312
552.301	-52
552.364	1229
552.428	88
552.491	772
552.554	888
552.618	1391
552.681	1054
552.745	803
552.808	4339
552.871	3849
552.934	1620
552.998	910
553.061	727
553.124	1260
553.187	1327
553.251	1863
553.314	2075
553.377	3733
553.440	8605
553.503	35743
553.567	37211
553.630	2587
553.693	719
553.756	1157
553.819	1057
553.882	631
553.945	1134
554.008	276
554.071	-87
554.134	988
554.197	-203
554.260	972
554.323	1684
554.386	894
554.449	-661
554.512	1633
554.575	422
554.638	1003
554.701	678
554.764	505
554.827	731
554.889	263
554.952	-595
555.015	367
555.078	-75
555.141	479
555.203	33
555.266	1043
555.329	-202
555.391	206
555.454	977
555.517	449
555.580	252
555.642	430
555.705	-177
555.768	478
555.830	710
555.893	316
555.955	981
556.018	781
556.080	-430
556.143	454
556.206	189
556.268	1276
556.330	1679
556.393	949
556.455	531
556.518	2189
556.580	1581
556.643	-207
556.705	1038
556.767	-604
556.830	-337
556.892	3206
556.955	3427
557.017	970
557.079	-181
557.142	931
557.204	1535
557.266	7378
557.328	2412
557.391	1050
557.453	835
557.515	1634
557.577	1747
557.639	1273
557.701	522
557.764	-733
557.826	-70
557.888	1141
557.950	-445
558.012	1155
558.074	-140
558.136	1634
558.198	2839
558.260	1275
558.322	-18
558.384	480
558.446	450
558.508	1615
558.570	2782
558.632	8920
558.694	8628
558.756	4300
558.818	11522
558.880	16573
558.942	3284
559.003	2555
559.065	1863
559.127	529
559.189	892
559.251	1232
559.312	1493
559.374	5612
559.436	10954
559.498	3520
559.559	535
559.621	1260
559.683	985
559.744	3022
559.806	7044
559.868	7434
559.929	709
559.991	2489
560.052	1972
560.114	4601
560.176	2131
560.237	4624
560.299	4193
560.360	1756
560.422	-159
560.483	1114
560.545	488
560.606	1606
560.667	461
560.729	363
560.790	463
560.852	1258
560.913	942
560.974	1197
561.036	1090
561.097	934
561.158	1093
561.220	1330
561.281	930
561.342	892
561.403	3267
561.465	4229
561.526	12971
561.587	12415
561.648	937
561.709	792
561.771	1616
561.832	764
561.893	709
561.954	1128
562.015	750
562.076	1282
562.137	896
562.198	912
562.259	906
562.320	1475
562.381	1421
562.442	3547
562.503	1815
562.564	1727
562.625	1243
562.686	924
562.747	38
562.808	948
562.869	680
562.930	1969
562.991	1495
563.051	2010
563.112	256
563.173	824
563.234	120
563.294	2247
563.355	1495
563.416	1644
563.477	791
563.537	1205
563.598	711
563.659	2144
563.720	1366
563.780	1434
563.841	1097
563.901	1519
563.962	907
564.023	396
564.083	1482
564.144	1570
564.204	1733
564.265	1896
564.325	2228
564.386	5747
564.446	2168
564.507	1396
564.567	763
564.628	1190
564.688	834
564.749	1109
564.809	1969
564.869	2227
564.930	610
564.990	2440
565.050	1032
565.111	1290
565.171	946
565.231	2170
565.292	1722
565.352	678
565.412	1422
565.472	1184
565.532	1656
565.593	1955
565.653	497
565.713	2291
565.773	2285
565.833	2437
565.893	3245
565.953	1289
566.013	1471
566.074	2419
566.134	3680
566.194	4874
566.254	4400
566.314	2980
566.374	618
566.434	2135
566.494	2343
566.554	895
566.614	1455
566.673	2359
566.733	2395
566.793	1559
566.853	1899
566.913	2364
566.973	2216
567.033	2992
567.092	2151
567.152	2799
567.212	2393
567.272	2461
567.331	2695
567.391	3537
567.451	2746
567.511	4396
567.570	3726
567.630	2653
567.690	2403
567.749	2866
567.809	2086
567.868	3280
567.928	3239
567.988	2853
568.047	4005
568.107	4919
568.166	5945
568.226	9372
568.285	10748
568.345	9504
568.404	8632
568.464	7710
568.523	6292
568.582	7733
568.642	6205
568.701	10551
568.761	12504
568.820	18828
568.879	17400
568.939	14236
568.998	9346
569.057	8147
569.116	6618
569.176	4754
569.235	3714
569.294	4278
569.353	3484
569.413	3667
569.472	3103
569.531	3542
569.590	2066
569.649	2186
569.708	2127
569.767	4149
569.827	2731
569.886	1346
569.945	2020
570.004	2602
570.063	1362
570.122	3376
570.181	2240
570.240	2825
570.299	2021
570.358	2720
570.417	1609
570.475	2073
570.534	2844
570.593	2479
570.652	1713
570.711	1956
570.770	1750
570.829	2791
570.887	2356
570.946	2324
571.005	1096
571.064	2098
571.122	1630
571.181	2116
571.240	1466
571.299	2266
571.357	2181
571.416	2777
571.475	1877
571.533	2516
571.592	854
571.650	2683
571.709	1453
571.768	2087
571.826	1335
571.885	1953
571.943	1211
572.002	1885
572.060	2174
572.119	1977
572.177	1647
572.236	1597
572.294	1360
572.352	2555
572.411	1085
572.469	2149
572.528	1023
572.586	2675
572.644	1672
572.703	2884
572.761	1650
572.819	2842
572.877	926
572.936	1395
572.994	1916
573.052	1480
573.110	1681
573.169	2107
573.227	1791
573.285	2423
573.343	1212
573.401	1859
573.459	2089
573.517	1784
573.576	2626
573.634	2833
573.692	2657
573.750	2024
573.808	1367
573.866	1905
573.924	2966
573.982	2816
574.040	1854
574.098	2143
574.155	2095
574.213	2472
574.271	1513
574.329	2285
574.387	677
574.445	1288
574.503	1086
574.560	1423
574.618	736
574.676	527
574.734	1043
574.792	1617
574.849	1348
574.907	1741
574.965	412
575.022	753
575.080	983
575.138	2013
575.195	2319
575.253	1282
575.311	2114
575.368	1952
575.426	634
575.483	2561
575.541	1071
575.598	2207
575.656	1408
575.713	2490
575.771	1084
575.828	1643
575.886	1675
575.943	2266
576.001	1151
576.058	2012
576.115	1786
576.173	2223
576.230	1854
576.287	2896
576.345	2289
576.402	1668
576.459	1919
576.517	2958
576.574	2276
576.631	3412
576.688	2397
576.746	2302
576.803	2228
576.860	1586
576.917	2700
576.974	2622
577.031	2310
577.089	2590
577.146	1748
577.203	1543
577.260	2859
577.317	3386
577.374	2881
577.431	2459
577.488	2615
577.545	975
577.602	2515
577.659	2717
577.716	3276
577.773	3716
577.830	2451
577.886	2698
577.943	2092
578.000	3141
578.057	3281
578.114	3356
578.171	4437
578.227	5665
578.284	4787
578.341	4473
578.398	3425
578.454	3884
578.511	3268
578.568	3851
578.625	2983
578.681	2437
578.738	3002
578.794	2477
578.851	2463
578.908	2807
578.964	2310
579.021	2676
579.077	1437
579.134	2751
579.190	1999
579.247	2381
579.303	1752
579.360	1411
579.416	1907
579.473	1781
579.529	1714
579.586	2693
579.642	3187
579.698	2568
579.755	2924
579.811	3671
579.867	2108
579.924	3096
579.980	2840
580.036	4911
580.093	6941
580.149	10670
580.205	10502
580.261	8040
580.317	5271
580.374	6434
580.430	4652
580.486	5073
580.542	2932
580.598	3409
580.619	3206
580.654	2856
580.692	2902
580.710	2925
580.765	2593
580.767	2584
580.823	2660
580.838	2860
580.879	3395
580.911	3047
580.935	2792
580.984	1843
580.991	1715
581.047	3353
581.057	3477
581.103	4033
581.130	4124
581.159	4242
581.203	3935
581.215	3851
581.270	4730
581.276	4526
581.326	2595
581.349	3074
581.382	3746
581.422	3211
581.438	2997
581.494	3146
581.494	3141
581.550	2892
581.567	3223
581.606	3886
581.640	2715
581.661	1996
581.713	3723
581.717	3869
581.773	3059
581.786	2938
581.829	2492
581.859	2238
581.885	2005
581.932	2204
581.940	2248
581.996	2757
582.004	2695
582.052	2433
582.077	2536
582.107	2600
582.150	3039
582.163	3191
582.219	2169
582.223	2267
582.274	3286
582.296	3017
582.330	2662
582.368	3160
582.386	3445
582.441	2736
582.441	2734
582.497	2974
582.514	2993
582.552	3357
582.587	3115
582.608	2826
582.659	2750
582.663	2749
582.719	2702
582.732	2712
582.774	2801
582.805	2944
582.830	3046
582.877	2943
582.885	2929
582.941	3644
582.950	3674
582.996	3825
583.023	4281
583.052	4971
583.095	5862
583.107	6067
583.162	6690
583.168	6767
583.218	7189
583.240	6581
583.273	5672
583.313	5198
583.328	5017
583.384	4869
583.385	4834
583.439	3712
583.458	3709
583.494	3879
583.531	4014
583.549	4120
583.603	3628
583.605	3606
583.660	3748
583.676	3724
583.715	3754
583.748	3599
583.770	3394
583.820	3331
583.825	3357
583.881	3781
583.893	3711
583.936	3275
583.965	3071
583.991	2902
584.038	3684
584.046	3842
584.101	3322
584.110	3335
584.156	3344
584.183	3401
584.211	3457
584.255	3601
584.266	3653
584.321	2881
584.328	2937
584.376	3435
584.400	3468
584.431	3461
584.472	3885
584.486	3953
584.541	3256
584.545	3299
584.596	4388
584.617	3986
584.651	3380
584.689	3783
584.706	3837
584.761	3055
584.762	3056
584.816	3589
584.834	3769
584.871	4084
584.906	3925
584.926	3813
584.978	3498
584.980	3495
585.035	4575
585.051	4640
585.090	4712
585.123	4958
585.145	5171
585.195	5114
585.200	5165
585.254	6426
585.267	6928
585.309	8885
585.340	9826
585.364	9613
585.412	7156
585.419	6783
585.473	6187
585.484	5766
585.528	5162
585.556	6207
585.583	7501
585.628	8281
585.637	8710
585.692	13964
585.700	14534
585.747	16264
585.772	15153
585.801	11416
585.845	6613
585.856	6104
585.910	5680
585.917	5632
585.965	5920
585.989	6075
586.019	5986
586.061	5541
586.074	5546
586.128	6242
586.133	6280
586.183	6809
586.205	7029
586.237	7155
586.277	6677
586.292	6427
586.346	6658
586.349	6658
586.401	6833
586.421	6837
586.455	6954
586.493	7398
586.509	7857
586.564	9550
586.565	9646
586.618	14321
586.637	13793
586.672	10694
586.709	8237
586.727	7374
586.781	6890
586.781	6893
586.835	6794
586.853	7101
586.889	7542
586.925	6948
586.944	6674
586.996	7126
586.998	7153
587.052	8381
587.068	8378
587.106	8323
587.140	8512
587.161	8502
587.212	8705
587.215	8725
587.269	8703
587.284	8737
587.323	9421
587.356	9987
587.377	9943
587.427	10029
587.431	10089
587.485	10794
587.499	10971
587.539	11531
587.571	11817
587.593	12169
587.643	13642
587.648	13750
587.702	13933
587.715	14158
587.755	15154
587.786	15739
587.810	16136
587.858	16798
587.864	17004
587.917	19574
587.930	20043
587.971	21244
588.001	22350
588.025	23447
588.073	25941
588.079	26386
588.133	30031
588.145	30948
588.187	34899
588.217	37580
588.241	40169
588.288	45692
588.295	46602
588.348	54333
588.360	56109
588.402	64250
588.431	69814
588.456	75425
588.503	87774
588.510	89995
588.564	108159
588.575	112502
588.617	132457
588.646	147936
588.671	168818
588.718	213677
588.725	226207
588.778	335340
588.789	360759
588.832	565070
588.861	714314
588.886	909538
588.932	1278026
588.939	1295977
588.993	1332706
589.004	1324944
589.047	985483
589.075	754866
589.100	596219
589.147	325614
589.154	312751
589.207	226664
589.218	210249
589.261	195239
589.290	188353
589.314	198733
589.361	225624
589.368	238852
589.421	358525
589.433	386899
589.475	639300
589.504	827454
589.528	986225
589.576	1245988
589.582	1214986
589.635	836279
589.647	753915
589.689	445424
589.718	243132
589.742	197936
589.790	115876
589.795	112395
589.849	81895
589.861	75244
589.902	64163
589.932	55573
589.955	50781
590.004	41307
590.009	40854
590.062	36173
590.075	35029
590.115	32109
590.146	29650
590.168	28384
590.218	25699
590.222	25535
590.275	23185
590.289	22501
590.328	21761
590.360	21144
590.381	20546
590.431	19225
590.435	19165
590.488	17602
590.503	17194
590.541	16723
590.574	16037
590.594	15776
590.645	15542
590.647	15548
590.700	14941
590.716	14667
590.753	13955
590.787	13510
590.806	13396
590.859	12896
590.859	12916
590.912	12981
590.930	13065
590.965	12631
591.001	12098
591.018	11911
591.071	11390
591.072	11370
591.124	11341
591.143	11395
591.177	11788
591.214	12153
591.230	11977
591.283	11376
591.285	11334
591.336	11509
591.356	11568
591.389	11823
591.427	11962
591.442	11590
591.495	10398
591.498	10282
591.547	9325
591.569	8956
591.600	9468
591.640	10010
591.653	9994
591.706	9929
591.711	9904
591.759	9722
591.782	9677
591.811	9785
591.853	9792
591.864	9753
591.917	9502
591.924	9463
591.969	9285
591.995	9180
592.022	8905
592.066	8366
592.075	8499
592.127	9353
592.137	9515
592.180	10007
592.208	10236
592.233	9796
592.279	8972
592.285	8940
592.338	8637
592.350	8550
592.390	8332
592.421	8180
592.443	8362
592.491	8729
592.495	8713
592.548	8405
592.562	8318
592.600	8188
592.633	8069
592.653	8043
592.704	7935
592.705	7986
592.775	8300
592.846	7641
592.916	8459
592.987	8938
593.058	8808
593.128	7145
593.199	7247
593.270	7569
593.341	7051
593.411	7529
593.482	7498
593.553	7744
593.623	6378
593.694	7007
593.764	7180
593.835	7115
593.906	7817
593.976	7025
594.047	7200
594.117	7679
594.188	7487
594.258	7455
594.329	6686
594.399	5931
594.470	6531
594.540	7083
594.611	6465
594.681	6947
594.751	6477
594.822	8136
594.892	8476
594.963	7123
595.033	7359
595.103	6930
595.174	7177
595.244	9326
595.314	10130
595.384	7074
595.455	6718
595.525	6560
595.595	6067
595.665	6541
595.736	6378
595.806	6658
595.876	6751
595.946	6495
596.016	6440
596.087	6648
596.157	5782
596.227	5715
596.297	6308
596.367	6612
596.437	7259
596.507	8545
596.577	9279
596.647	7767
596.717	6534
596.787	6798
596.857	6266
596.927	6172
596.997	6798
597.067	6743
597.137	9017
597.207	8180
597.277	6198
597.347	6614
597.417	6840
597.487	7236
597.557	6542
597.626	7076
597.696	7045
597.766	7206
597.836	8648
597.906	6077
597.975	6376
598.045	6048
598.115	6173
598.185	6593
598.254	6967
598.324	7432
598.394	7837
598.464	6849
598.533	6646
598.603	6548
598.672	6897
598.742	7121
598.812	6613
598.881	6140
598.951	6524
599.020	5895
599.090	5936
599.159	6847
599.229	6269
599.299	6251
599.368	5416
599.437	6265
599.507	7010
599.576	6905
599.646	8280
599.715	8960
599.785	6393
599.854	6310
599.924	6802
599.993	6453
600.062	6008
600.132	6104
600.201	5686
600.270	7934
600.340	6873
600.409	6320
600.478	5779
600.547	6755
600.617	6732
600.686	5624
600.755	6506
600.824	6184
600.894	5851
600.963	6265
601.032	5561
601.101	5564
601.170	5171
601.239	5607
601.308	6660
601.378	6685
601.447	5488
601.516	5441
601.585	6014
601.654	6745
601.723	6509
601.792	5841
601.861	7139
601.930	11065
601.999	8643
602.068	6571
602.137	7942
602.206	6920
602.275	6393
602.343	7829
602.412	7047
602.481	5752
602.550	5565
602.619	5930
602.688	6630
602.756	5805
602.825	5514
602.894	5653
602.963	5741
603.032	5506
603.100	5657
603.169	6124
603.238	5572
603.307	5302
603.375	5692
603.444	5907
603.513	5510
603.581	5331
603.650	5867
603.719	4418
603.787	4394
603.856	5750
603.924	5297
603.993	5850
604.061	5370
604.130	5794
604.198	5784
604.267	6031
604.335	5436
604.404	5852
604.472	6198
604.541	5435
604.609	5952
604.678	6288
604.746	4812
604.815	5700
604.883	6112
604.951	6188
605.020	6050
605.088	5688
605.156	5710
605.225	5239
605.293	5489
605.361	5740
605.429	5225
605.498	6051
605.566	6428
605.634	5806
605.702	6124
605.771	6216
605.839	5570
605.907	6195
605.975	5913
606.043	5758
606.111	6152
606.180	7373
606.248	10021
606.316	11657
606.384	6564
606.452	8293
606.520	9124
606.588	6487
606.656	5778
606.724	5650
606.792	4921
606.860	4573
606.928	4810
606.996	5167
607.064	4388
607.132	4890
607.200	4687
607.267	5329
607.335	4848
607.403	6092
607.471	4491
607.539	4735
607.607	5953
607.674	4021
607.742	6059
607.810	6002
607.878	4577
607.946	3989
608.013	4631
608.081	5060
608.149	5557
608.216	4877
608.284	6008
608.352	4652
608.419	3926
608.487	6907
608.555	5409
608.622	5369
608.690	4654
608.757	4470
608.825	5670
608.893	5492
608.960	6056
609.028	6634
609.095	7169
609.163	5393
609.230	4470
609.298	5612
609.365	4972
609.432	4877
609.500	5119
609.567	5880
609.635	6456
609.702	6983
609.769	6182
609.837	6688
609.904	5213
609.971	4546
610.039	8435
610.106	10914
610.173	19375
610.241	49584
610.308	68543
610.375	43993
610.442	11346
610.509	6971
610.577	6907
610.644	5732
610.711	6152
610.778	5014
610.845	6025
610.912	7332
610.980	9453
611.047	16277
611.114	9541
611.181	5357
611.248	3764
611.315	5729
611.382	4912
611.449	5075
611.516	6123
611.583	5340
611.650	5037
611.717	5768
611.784	5439
611.851	5823
611.918	7390
611.984	6933
612.051	11964
612.118	24677
612.185	63019
612.252	40500
612.319	8889
612.386	7249
612.452	6081
612.519	6155
612.586	7403
612.653	5955
612.719	5561
612.786	5839
612.853	4701
612.919	5078
612.986	6042
613.053	5655
613.120	4976
613.186	4838
613.253	5893
613.319	5187
613.386	4828
613.453	4937
613.519	6543
613.586	8916
613.652	14548
613.719	10315
613.785	9270
613.852	6399
613.918	7103
613.985	10775
614.051	23954
614.118	64285
614.184	62822
614.250	10247
614.317	6174
614.383	5776
614.449	5543
614.516	5237
614.582	5516
614.648	4821
614.715	4578
614.781	4890
614.847	5928
614.914	4877
614.980	5664
615.046	5705
615.112	5799
615.179	4947
615.245	5718
615.311	7376
615.377	11926
615.443	12662
615.509	7651
615.575	6513
615.642	7011
615.708	6378
615.774	6979
615.840	7519
615.906	9858
615.972	14890
616.038	30062
616.104	48377
616.170	91059
616.236	75311
616.302	16293
616.368	9514
616.434	6054
616.500	7632
616.565	7176
616.631	8136
616.697	7221
616.763	6852
616.829	10023
616.895	17693
616.961	16673
617.026	9054
617.092	5489
617.158	6874
617.224	4918
617.289	5065
617.355	5184
617.421	3482
617.487	5957
617.552	5072
617.618	4329
617.684	3710
617.749	6310
617.815	4420
617.880	4583
617.946	4286
618.012	5158
618.077	4617
618.143	5063
618.208	4973
618.274	5123
618.339	5463
618.405	4557
618.470	4388
618.536	4240
618.601	5286
618.667	4926
618.732	5135
618.798	4712
618.863	5219
618.928	4042
618.994	6147
619.059	6963
619.124	10230
619.190	6286
619.255	4956
619.320	4035
619.386	4983
619.451	4272
619.516	4367
619.581	4261
619.647	4474
619.712	4344
619.777	4809
619.842	5096
619.907	4368
619.972	5165
620.038	4544
620.103	4692
620.168	3352
620.233	5138
620.298	3870
620.363	3897
620.428	4468
620.493	4804
620.558	4249
620.623	4633
620.688	4656
620.753	4759
620.818	4932
620.883	4484
620.948	4939
621.013	4308
621.078	4213
621.143	2791
621.207	6791
621.272	4484
621.337	5699
621.402	5508
621.467	6851
621.532	6772
621.596	5588
621.661	5488
621.726	5067
621.791	5713
621.855	5791
621.920	5680
621.985	5261
622.049	5091
622.114	5757
622.179	6446
622.243	5590
622.308	4144
622.373	7411
622.437	5012
622.502	4850
622.566	5674
622.631	3512
622.695	6399
622.760	5403
622.824	6525
622.889	5846
622.953	7197
623.018	12195
623.082	10815
623.147	6348
623.211	6057
623.276	5860
623.340	4957
623.404	5769
623.469	5712
623.533	4496
623.597	3857
623.662	4844
623.726	4957
623.790	4952
623.854	4624
623.919	5515
623.983	5245
624.047	4315
624.111	4521
624.176	4616
624.240	5149
624.304	6728
624.368	4678
624.432	5087
624.496	5767
624.560	6552
624.625	6484
624.689	6126
624.753	5441
624.817	4365
624.881	4278
624.945	5120
625.009	3672
625.073	5683
625.137	3795
625.201	7734
625.265	7066
625.329	5293
625.393	5463
625.456	5976
625.520	5504
625.584	6066
625.648	5970
625.712	7588
625.776	15364
625.839	18607
625.903	7979
625.967	4805
626.031	8563
626.095	11172
626.158	5009
626.222	3820
626.286	4870
626.349	3422
626.413	3615
626.477	6286
626.540	3465
626.604	3711
626.668	4933
626.731	3457
626.795	3545
626.858	3995
626.922	3121
626.986	4454
627.049	2364
627.113	4383
627.176	4402
627.240	3066
627.303	4073
627.366	3038
627.430	3632
627.493	3548
627.557	2860
627.620	4518
627.684	4106
627.747	4166
627.810	2341
627.874	3561
627.937	2455
628.000	4849
628.064	3931
628.127	1979
628.190	3566
628.253	3599
628.317	3496
628.380	3926
628.443	3365
628.506	3471
628.569	3566
628.632	2635
628.696	3296
628.759	2933
628.822	3086
628.885	3236
628.948	3028
629.011	2905
629.074	3444
629.137	3053
629.200	2801
629.263	4234
629.326	2393
629.389	2339
629.452	2748
629.515	3237
629.578	3171
629.641	4085
629.704	3233
629.767	3431
629.830	3376
629.892	2794
629.955	1818
630.018	4867
630.081	3367
630.144	6556
630.207	2565
630.269	5461
630.332	3519
630.395	3090
630.458	2722
630.520	1754
630.583	3818
630.646	2941
630.708	2480
630.771	1727
630.834	3768
630.896	2897
630.959	2722
631.021	1254
631.084	2786
631.146	2439
631.209	3679
631.272	1708
631.334	2817
631.397	2870
631.459	2251
631.522	3615
631.584	3388
631.646	3103
631.709	3113
631.771	4374
631.834	3741
631.896	3212
631.958	2210
632.021	3468
632.083	2428
632.145	3238
632.208	2193
632.270	2848
632.332	1505
632.395	1669
632.457	3143
632.519	1736
632.581	4171
632.643	1815
632.706	2324
632.768	1306
632.830	2667
632.892	2997
632.954	2064
633.016	2973
633.078	2248
633.141	1469
633.203	2260
633.265	2376
633.327	2972
633.389	2060
633.451	3422
633.513	3227
633.575	3041
633.637	2655
633.698	2601
633.760	2787
633.822	2369
633.884	2414
633.946	1868
634.008	2941
634.070	3990
634.132	5226
634.193	2892
634.255	3158
634.317	1554
634.379	3257
634.441	1451
634.502	1156
634.564	2973
634.626	3005
634.687	3427
634.749	2555
634.811	2236
634.873	1638
634.934	2125
634.996	3334
635.057	1870
635.119	239
635.181	2272
635.242	3028
635.304	497
635.365	3075
635.427	1092
635.488	2717
635.550	1275
635.611	2169
635.673	352
635.734	2638
635.796	1741
635.857	3059
635.918	2182
635.980	2691
636.041	1695
636.102	2443
636.164	2051
636.225	3138
636.286	1210
636.348	2557
636.409	2356
636.470	1559
636.531	2242
636.593	1363
636.654	2366
636.715	2376
636.776	2060
636.838	1943
636.899	2656
636.960	2394
637.021	1421
637.082	1774
637.143	1876
637.204	1148
637.265	926
637.326	1959
637.387	2376
637.448	994
637.509	1696
637.570	2220
637.631	2769
637.692	501
637.753	42
637.814	1948
637.875	1493
637.936	2570
637.997	1009
638.058	1385
638.119	2239
638.179	1512
638.240	1630
638.301	1199
638.362	424
638.423	639
638.483	2510
638.544	-140
638.605	1898
638.666	1288
638.726	1898
638.787	1861
638.848	503
638.908	2003
638.969	1519
639.030	2196
639.090	-58
639.151	926
639.211	2122
639.272	3549
639.332	5889
639.393	3193
639.453	949
639.514	1388
639.574	2659
639.635	1607
639.695	1820
639.756	1098
639.816	1865
639.877	2571
639.937	5903
639.997	7335
640.058	2178
640.118	108
640.178	2065
640.239	1028
640.299	1074
640.359	1294
640.420	1521
640.480	1452
640.540	1258
640.600	1052
640.661	2743
640.721	478
640.781	3046
640.841	1120
640.901	2026
640.961	2063
641.021	1834
641.082	1836
641.142	3634
641.202	2872
641.262	-635
641.322	1621
641.382	-187
641.442	1878
641.502	466
641.562	1429
641.622	714
641.682	1808
641.742	1127
641.802	835
641.861	1890
641.921	1552
641.981	1969
642.041	2709
642.101	2764
642.161	556
642.221	1080
642.280	508
642.340	528
642.400	225
642.460	2185
642.519	-171
642.579	813
642.639	1650
642.698	-1759
642.758	2896
642.818	1039
642.877	-259
642.937	1458
642.997	2033
643.056	3290
643.116	212
643.175	2844
643.235	664
643.294	1214
643.354	2042
643.414	1252
643.473	2056
643.532	1219
643.592	1661
643.651	2964
643.711	6910
643.770	12291
643.830	27968
643.889	65866
643.948	14222
644.008	2346
644.067	1508
644.126	629
644.186	499
644.245	2414
644.304	-85
644.363	2511
644.423	-823
644.482	921
644.541	2045
644.600	-1196
644.659	2105
644.719	500
644.778	1711
644.837	1901
644.896	4314
644.955	11074
645.014	4668
645.073	4182
645.132	1259
645.191	1410
645.250	286
645.309	2118
645.368	851
645.427	1691
645.486	758
645.545	2468
645.604	127
645.663	1180
645.722	644
645.781	844
645.840	1101
645.898	825
645.957	2471
646.016	2429
646.075	4986
646.134	9418
646.192	26489
646.251	40999
646.310	4716
646.369	1934
646.427	1298
646.486	-434
646.545	747
646.603	591
646.662	778
646.721	593
646.779	-85
646.838	-367
646.896	1191
646.955	224
647.014	1069
647.072	1811
647.131	6850
647.189	2609
647.248	-26
647.306	1136
647.365	1216
647.423	-387
647.481	1987
647.540	-715
647.598	441
647.657	555
647.715	1628
647.773	-510
647.832	992
647.890	-1167
647.948	9
648.007	1308
648.065	-471
648.123	239
648.181	2029
648.240	3121
648.298	2271
648.356	-16
648.414	1399
648.472	874
648.531	840
648.589	922
648.647	326
648.705	-421
648.763	846
648.821	901
648.879	75
648.937	448
648.995	596
649.053	123
649.111	2044
649.169	2003
649.227	4498
649.285	7610
649.343	21475
649.401	12294
649.459	10692
649.516	9574
649.574	7815
649.632	25693
649.690	32471
649.748	6899
649.806	5463
649.863	12477
649.921	6733
649.979	3123
650.037	1439
650.094	-1123
650.152	1685
650.210	106
650.268	922
650.325	896
650.383	947
650.440	115
650.498	706
650.556	898
650.613	367
650.671	618
650.728	121
650.786	271
650.843	630
650.901	-1521
650.958	658
651.016	120
651.073	763
651.131	-618
651.188	69
651.246	334
651.303	-961
651.360	324
651.418	479
651.475	-27
651.532	80
651.590	1119
651.647	-324
651.704	-485
651.762	291
651.819	797
651.876	-63
651.933	-356
651.990	794
652.048	-1122
652.105	-371
652.162	918
652.219	36
652.276	376
652.333	1253
652.390	-578
652.448	402
652.505	-295
652.562	968
652.619	1041
652.676	4174
652.733	4652
652.790	101
652.847	-482
652.904	1132
652.961	-1821
653.017	-1043
653.074	527
653.131	809
653.188	-471
653.245	382
653.302	-141
653.359	-52
653.415	690
653.472	41
653.529	801
653.586	-136
653.642	-270
653.699	1053
653.756	-284
653.813	-503
653.869	391
653.926	-522
653.983	-380
654.039	391
654.096	-646
654.152	1481
654.209	-504
654.266	48
654.322	-1269
654.379	77
654.435	210
654.492	238
654.548	1090
654.605	1632
654.661	1570
654.717	-157
654.774	1087
654.830	660
654.887	243
654.943	447
655.000	854
655.056	946
655.112	604
655.168	-595
655.225	861
655.281	263
655.337	162
655.394	754
655.450	-303
655.506	559
655.562	562
655.618	2024
655.675	-1286
655.731	-300
655.787	-575
655.843	221
655.899	-338
655.955	664
656.011	893
656.067	114
656.123	560
656.179	643
656.235	2127
656.291	-1480
656.347	1199
656.403	188
656.459	361
656.515	332
656.571	877
656.627	1046
656.683	-458
656.739	344
656.795	718
656.850	298
656.906	677
656.962	1107
657.018	-1099
657.074	-490
657.129	488
657.185	486
657.241	334
657.297	-373
657.352	142
657.408	-715
657.464	917
657.519	-1017
657.575	-974
657.630	-944
657.686	-205
657.742	-1136
657.797	-181
657.853	-440
657.908	312
657.964	-910
658.019	-482
658.075	-673
658.130	357
658.186	-1180
658.241	-27
658.297	-1062
658.352	-363
658.407	706
658.463	-366
658.518	-20
658.573	122
658.629	-902
658.684	-178
658.739	126
658.795	-1183
658.850	-398
658.905	-964
658.960	321
659.016	-661
659.071	-334
659.126	-276
659.181	-2
659.236	818
659.291	1616
659.346	133
659.401	805
659.457	1964
659.512	2806
659.567	1789
659.622	452
659.677	-766
659.732	-938
659.787	232
659.842	-301
659.897	-354
659.952	469
660.007	-317
660.061	107
660.116	-1418
660.171	-97
660.226	-1073
660.281	353
660.336	-985
660.391	456
660.445	-656
660.500	-483
660.555	-275
660.610	-430
660.664	-180
660.719	-1134
660.774	-702
660.828	-49
660.883	1090
660.938	-446
660.992	-1398
661.047	-770
661.101	-780
661.156	-1326
661.211	-896
661.265	-448
661.320	-1039
661.374	-331
661.429	-698
661.483	304
661.538	-1098
661.592	-318
661.647	-215
661.701	-513
661.755	287
661.810	-183
661.864	-753
661.919	-1692
661.973	-374
662.027	-494
662.081	-974
662.136	-1007
662.190	-729
662.244	-163
662.299	324
662.353	-509
662.407	-620
662.461	-571
662.515	-7
662.569	-608
662.624	-202
662.678	-872
662.732	-541
662.786	-851
662.840	-493
662.894	-20
662.948	-705
663.002	-351
663.056	-548
663.110	-600
663.164	335
663.218	264
663.272	-104
663.326	330
663.380	-341
663.434	-186
663.488	-765
663.542	-771
663.595	-851
663.649	-794
663.703	-84
663.757	-549
663.811	-979
663.864	-406
663.918	343
663.972	-760
664.026	-599
664.079	-706
664.133	164
664.187	-925
664.240	-504
664.294	-1358
664.348	-210
664.401	-269
664.455	-392
664.508	-462
664.562	-353
664.615	249
664.669	-59
664.722	-781
664.776	-957
664.829	-892
664.883	-529
664.936	-939
664.990	-151
665.043	-19
665.097	-60
665.150	-76
665.203	-471
665.257	136
665.310	-286
665.363	-73
665.417	10
665.470	-639
665.523	-655
665.576	270
665.630	-806
665.683	-143
665.736	-522
665.789	-270
665.842	-821
665.895	-523
665.949	-174
666.002	346
666.055	-844
666.108	-165
666.161	-267
666.214	-221
666.267	65
666.320	-362
666.373	-6
666.426	729
666.479	-570
666.532	-353
666.585	-730
666.638	-546
666.691	-792
666.744	359
666.796	-689
666.849	-149
666.902	-28
666.955	-721
667.008	-748
667.060	-274
667.113	-714
667.166	-244
667.219	-743
667.271	-522
667.324	551
667.377	254
667.430	-370
667.482	468
667.535	69
667.587	-331
667.640	404
667.693	-340
667.745	1245
667.798	1187
667.850	-693
667.903	-314
667.955	-769
668.008	-876
668.060	261
668.113	-1067
668.165	-543
668.218	-693
668.270	-783
668.322	-855
668.375	-867
668.427	-123
668.479	-1003
668.532	-254
668.584	-636
668.636	-522
668.689	-93
668.741	-748
668.793	-766
668.845	-994
668.898	-242
668.950	-196
669.002	261
669.054	-1008
669.106	-964
669.158	-78
669.211	-151
669.263	47
669.315	1045
669.367	755
669.419	-128
669.471	91
669.523	1020
669.575	1619
669.627	998
669.679	-1008
669.731	157
669.783	710
669.835	695
669.886	1121
669.938	184
669.990	-276
670.042	-110
670.094	855
670.146	25
670.197	1247
670.249	1376
670.301	2532
670.353	4623
670.404	6738
670.456	12023
670.508	19429
670.560	35895
670.611	66709
670.663	120545
670.715	291172
670.766	454027
670.818	123641
670.869	20234
670.921	9523
670.972	5547
671.024	3771
671.075	2400
671.127	1658
671.178	1049
671.230	1196
671.281	1167
671.333	372
671.384	171
671.436	230
671.487	1178
671.538	135
671.590	1189
671.641	897
671.692	975
671.744	1279
671.795	1510
671.846	732
671.897	-274
671.949	-437
672.000	130
672.051	-955
672.102	12
672.153	-1056
672.204	-583
672.256	-66
672.307	-976
672.358	-689
672.409	-233
672.460	-44
672.511	-787
672.562	-936
672.613	-704
672.664	-823
672.715	-597
672.766	206
672.817	-1098
672.868	-653
672.919	-425
672.970	-700
673.021	-429
673.071	-556
673.122	-322
673.173	-368
673.224	-703
673.275	-793
673.326	-1368
673.376	-841
673.427	-852
673.478	-1127
673.528	-145
673.579	-191
673.630	-1360
673.680	406
673.731	-896
673.782	-1077
673.832	-1083
673.883	-647
673.934	-915
673.984	-497
674.035	-831
674.085	-499
674.136	-212
674.186	-456
674.237	-458
674.287	-676
674.338	-1135
674.388	-1064
674.438	-896
674.489	-983
674.539	-1459
674.589	-770
674.640	-1074
674.690	-504
674.740	-1305
674.791	-698
674.841	-1063
674.891	-382
674.942	417
674.992	-766
675.042	-360
675.092	-879
675.142	-910
675.193	-1273
675.243	-713
675.293	-694
675.343	-1423
675.393	-1273
675.443	-609
675.493	-685
675.543	-488
675.593	-475
675.643	-1029
675.693	-1165
675.743	145
675.793	-1220
675.843	-979
675.893	-801
675.943	-557
675.993	-554
676.043	-615
676.093	-762
676.142	-990
676.192	-559
676.242	-1352
676.292	-1260
676.341	-484
676.391	-905
676.441	-1846
676.491	-599
676.540	-839
676.590	-1609
676.640	-1153
676.689	-1181
676.739	-1000
676.789	-930
676.838	-970
676.888	-722
676.937	-658
676.987	-1405
677.037	-1035
677.086	-1460
677.136	-1218
677.185	-642
677.235	-1704
677.284	-967
677.333	-1298
677.383	-1123
677.432	-901
677.482	-1046
677.531	-614
677.580	-1926
677.630	-770
677.679	-1220
677.728	-1488
677.778	-205
677.827	-1007
677.876	-1268
677.925	-1431
677.975	-1283
678.024	-916
678.073	-1590
678.122	-393
678.171	-1231
678.220	-1521
678.269	-988
678.319	-1212
678.368	-1198
678.417	-1004
678.466	-918
678.515	-130
678.564	-1351
678.613	-697
678.662	-1188
678.711	-686
678.760	-973
678.809	-2048
678.857	-1092
678.906	-1223
678.955	-837
679.004	-732
679.053	-663
679.102	-460
679.151	-750
679.199	-956
679.248	-1092
679.297	-1423
679.346	-614
679.394	-993
679.443	-678
679.492	-1448
679.540	-969
679.589	-1214
679.638	-928
679.686	-1213
679.735	-703
679.784	-429
679.832	-1179
679.881	-666
679.929	-2061
679.978	-1610
680.026	-1430
680.075	-684
680.123	-1055
680.172	-833
680.220	-1801
680.268	-1293
680.317	-1221
680.365	-1189
680.414	-1365
680.462	-1119
680.510	-536
680.559	-1558
680.607	-1339
680.655	-1022
680.703	-651
680.752	-906
680.800	-312
680.848	-1837
680.896	-1087
680.945	-1457
680.993	-1789
681.041	-1171
681.089	-997
681.137	-1739
681.185	-1058
681.233	-617
681.258	-772
681.281	-960
681.329	-1008
681.377	-2212
681.380	-2132
681.425	-1444
681.473	-335
681.502	-605
681.521	-872
681.569	-1136
681.617	-225
681.624	-243
681.665	-657
681.713	191
681.745	189
681.761	129
681.809	215
681.857	259
681.867	340
681.904	471
681.952	239
681.989	-6
682.000	-131
682.048	-106
682.096	-58
682.111	212
682.143	650
682.191	658
682.233	598
682.239	554
682.286	449
682.334	1315
682.354	806
682.382	15
682.430	713
682.476	1618
682.477	1603
682.525	1526
682.572	1127
682.598	1007
682.620	837
682.667	1170
682.715	711
682.720	769
682.763	947
682.810	1646
682.841	1772
682.857	1776
682.905	1419
682.952	1156
682.963	1332
683.000	1892
683.047	1870
683.085	2656
683.095	2808
683.142	1689
683.190	1675
683.206	1896
683.237	2253
683.284	1864
683.328	2368
683.332	2375
683.379	2348
683.426	2272
683.449	2214
683.473	2153
683.521	2891
683.568	2778
683.571	2829
683.615	3039
683.662	2933
683.693	2526
683.709	2268
683.757	3095
683.804	3206
683.814	3233
683.851	3172
683.898	3384
683.936	3649
683.945	3696
683.992	3318
684.039	3700
684.057	3974
684.086	4366
684.133	4063
684.179	4264
684.180	4244
684.227	4660
684.274	4860
684.300	4535
684.321	4210
684.368	4060
684.415	3999
684.422	4027
684.462	4170
684.509	4059
684.543	4577
684.556	4703
684.603	4599
684.649	4772
684.665	4837
684.696	5013
684.743	4593
684.786	4897
684.790	4900
684.837	4559
684.883	5850
684.908	5509
684.930	5195
684.977	5425
685.023	5938
685.029	5952
685.070	5753
685.117	6078
685.150	6148
685.164	6206
685.210	6207
685.257	6496
685.272	6468
685.303	6152
685.350	6129
685.393	6046
685.396	6048
685.443	5993
685.490	7277
685.514	7292
685.536	7172
685.583	7437
685.629	6835
685.636	6832
685.675	6797
685.722	7197
685.757	7160
685.768	7147
685.815	7379
685.861	7787
685.878	7902
685.908	7978
685.954	7554
686.000	7566
686.000	7562
686.047	7461
686.093	8668
686.121	8890
686.139	8772
686.185	8513
686.232	8090
686.242	8054
686.278	7987
686.324	8123
686.363	7826
686.370	7806
686.416	7897
686.463	8147
686.484	8375
686.509	8566
686.555	8302
686.601	8150
686.606	8189
686.647	8300
686.693	8629
686.727	8398
686.739	8343
686.785	8519
686.831	8057
686.848	8147
686.877	8349
686.923	8248
686.969	8517
686.969	8517
687.015	8323
687.061	7933
687.090	8494
687.107	8818
687.153	8958
687.199	9716
687.211	9501
687.245	8838
687.291	8449
687.332	8819
687.336	8867
687.382	9367
687.428	8995
687.453	9477
687.474	9760
687.520	9286
687.565	9111
687.574	9052
687.611	8931
687.657	9227
687.695	9430
687.702	9516
687.748	9906
687.794	9911
687.816	9907
687.839	9678
687.885	9512
687.931	9719
687.937	9683
687.976	9634
688.022	9692
688.058	9757
688.067	9809
688.113	9750
688.158	9768
688.179	9825
688.204	9902
688.249	10481
688.295	10562
688.300	10540
688.340	10486
688.386	11716
688.421	11165
688.431	10963
688.477	11130
688.522	11237
688.542	11158
688.567	11052
688.613	10388
688.658	10395
688.663	10368
688.703	10507
688.749	10639
688.784	11128
688.794	11299
688.839	10785
688.884	11693
688.905	11535
688.930	11070
688.975	11357
689.020	10943
689.026	10869
689.065	10920
689.110	11193
689.146	11280
689.155	11265
689.201	11194
689.246	11591
689.267	11497
689.291	11529
689.336	11619
689.381	12259
689.388	12179
689.426	11775
689.471	12111
689.509	12271
689.516	12308
689.561	12196
689.606	12002
689.630	11836
689.651	11722
689.696	12296
689.741	12234
689.750	12200
689.785	12205
689.830	12360
689.871	12304
689.875	12298
689.920	12010
689.965	11899
689.992	11844
690.010	12063
690.054	12290
690.099	13140
690.112	13346
690.144	13618
690.189	13162
690.233	13088
690.233	13110
690.278	13489
690.323	13841
690.354	14034
690.367	14130
690.412	14624
690.457	14582
690.474	14755
690.501	15238
690.546	15826
690.590	16467
690.595	16446
690.635	17008
690.680	18184
690.716	18894
690.724	19433
690.769	22473
690.813	25870
690.836	27120
690.857	30369
690.902	37900
690.946	45186
690.957	47016
690.991	64951
691.035	89068
691.077	111176
691.080	111566
691.124	113708
691.168	116069
691.198	117634
691.213	109870
691.257	86532
691.301	62853
691.318	53803
691.346	48455
691.390	38931
691.434	29552
691.439	28481
691.478	26250
691.522	23685
691.559	21021
691.567	20846
691.611	20157
691.655	18960
691.680	18367
691.699	18289
691.743	18449
691.787	17967
691.800	17800
691.831	17412
691.875	17143
691.919	16821
691.921	16772
691.964	16859
692.008	17113
692.041	17112
692.052	17040
692.096	16675
692.139	16416
692.162	16254
692.183	16395
692.227	16438
692.271	16652
692.282	16684
692.315	16907
692.359	16803
692.402	17119
692.403	17156
692.447	17127
692.490	17017
692.523	17272
692.534	17462
692.578	17393
692.622	17698
692.643	17585
692.666	17378
692.709	17336
692.753	17280
692.763	17232
692.797	17379
692.840	17432
692.884	17561
692.884	17606
692.928	18421
692.971	19169
693.004	19709
693.015	19738
693.059	19516
693.102	19393
693.124	19426
693.146	19998
693.189	20767
693.233	21707
693.245	21909
693.276	23225
693.320	25133
693.363	26707
693.365	26714
693.407	29078
693.450	31570
693.485	33318
693.493	34754
693.537	41855
693.580	49151
693.605	53250
693.624	60968
693.667	79094
693.710	97300
693.725	103663
693.753	138503
693.797	192699
693.840	247351
693.845	253300
693.883	257322
693.926	261392
693.966	265242
693.970	260457
694.013	205050
694.056	149360
694.086	110819
694.099	104564
694.142	83668
694.185	62902
694.206	52817
694.229	49423
694.272	42996
694.315	36503
694.326	34665
694.358	32915
694.401	30780
694.444	28362
694.446	28185
694.487	27146
694.530	25994
694.566	24724
694.573	24549
694.616	22931
694.659	22002
694.686	21114
694.702	21128
694.745	20823
694.787	20688
694.806	20586
694.830	20451
694.873	20016
694.916	19958
694.926	19821
694.959	19510
695.002	19066
695.044	18515
695.046	18447
695.087	18535
695.130	18492
695.166	18774
695.172	18846
695.215	18685
695.258	18581
695.286	18477
695.301	18554
695.343	18755
695.386	18607
695.406	18534
695.428	18336
695.471	18061
695.514	17739
695.526	17613
695.556	17985
695.599	18157
695.641	18796
695.646	18770
695.684	18437
695.726	18315
695.766	17997
695.769	18041
695.811	18116
695.854	17938
695.886	17929
695.896	17968
695.938	17692
695.981	17763
696.005	17627
696.023	17753
696.065	17890
696.108	18285
696.125	18274
696.150	18390
696.192	18767
696.235	18970
696.245	18991
696.277	19209
696.319	19419
696.361	19568
696.365	19531
696.404	19861
696.446	20266
696.485	20454
696.488	20505
696.530	20357
696.572	20446
696.604	20338
696.614	20255
696.656	19725
696.698	19245
696.724	18826
696.740	18769
696.783	18458
696.825	18347
696.844	18133
696.867	18095
696.909	18019
696.951	17983
696.964	17940
696.992	17966
697.034	17818
697.076	17679
697.083	17606
697.118	17919
697.160	18271
697.202	18551
697.203	18510
697.244	18483
697.286	18292
697.323	18062
697.327	18085
697.369	17864
697.411	17570
697.442	17337
697.453	17497
697.494	17974
697.536	18421
697.562	18645
697.578	18695
697.620	18737
697.661	18727
697.682	18641
697.703	18627
697.744	18540
697.786	18572
697.801	18494
697.828	18653
697.869	18757
697.911	18930
697.921	18908
697.952	18728
697.994	18527
698.035	18229
698.040	18141
698.077	18027
698.118	17856
698.160	17666
698.160	17613
698.201	17649
698.243	17586
698.279	17504
698.284	17611
698.325	18142
698.367	18671
698.399	19000
698.408	18975
698.449	18624
698.491	18276
698.518	18001
698.532	18103
698.573	18241
698.614	18384
698.638	18405
698.656	18454
698.697	18440
698.738	18462
698.757	18402
698.779	18464
698.820	18491
698.862	18528
698.877	18491
698.903	18779
698.944	19141
698.985	19507
698.996	19555
699.026	19371
699.067	19038
699.116	18589
699.235	18788
699.354	18495
699.474	18690
699.593	19557
699.713	19553
699.832	18319
699.951	18988
700.070	18690
700.190	17090
700.309	17693
700.428	17719
700.547	17524
700.667	17761
700.786	19128
700.905	17900
701.024	18211
701.143	17882
701.262	17192
701.381	16845
701.500	16852
701.619	18103
701.738	16202
701.857	17064
701.976	16692
702.095	16529
702.214	17599
702.333	17290
702.452	17619
702.571	16481
702.690	16303
702.809	15839
702.928	15653
703.047	16709
703.165	16482
703.284	15926
703.403	15789
703.522	15904
703.640	16408
703.759	17352
703.878	20512
703.997	16034
704.115	16022
704.234	14897
704.353	15459
704.471	15598
704.590	14819
704.708	15813
704.827	14717
704.946	14746
705.064	15462
705.183	16140
705.301	17123
705.420	24528
705.538	21690
705.656	20640
705.775	21893
705.893	43239
706.012	57986
706.130	21640
706.249	18926
706.367	19397
706.485	20220
706.604	19794
706.722	18310
706.840	20131
706.958	20631
707.077	18582
707.195	17670
707.313	18362
707.431	17267
707.549	18261
707.668	17535
707.786	17657
707.904	16827
708.022	17564
708.140	17278
708.258	17343
708.376	16659
708.494	16443
708.612	18294
708.730	23525
708.848	22873
708.966	20571
709.084	21002
709.202	19618
709.320	20307
709.438	20287
709.556	19885
709.674	19942
709.791	19953
709.909	19357
710.027	18583
710.145	19843
710.263	19613
710.380	19104
710.498	18404
710.616	19565
710.733	18133
710.851	19550
710.969	18849
711.086	19165
711.204	18581
711.322	18142
711.439	17756
711.557	18243
711.674	18093
711.792	18209
711.909	20460
712.027	23639
712.144	17873
712.262	18261
712.379	19328
712.497	25310
712.614	25657
712.732	22518
712.849	20130
712.966	21819
713.084	23151
713.201	22880
713.318	22291
713.436	20760
713.553	21184
713.670	21798
713.787	21747
713.905	21707
714.022	20405
714.139	19638
714.256	21059
714.373	20761
714.490	21105
714.608	26730
714.725	55960
714.842	65343
714.959	21091
715.076	19933
715.193	18262
715.310	18522
715.427	18570
715.544	18912
715.661	18839
715.778	18486
715.895	20276
716.011	19743
716.128	18518
716.245	18651
716.362	19743
716.479	19497
716.596	17649
716.713	18521
716.829	17322
716.946	17512
717.063	17311
717.180	17507
717.296	17271
717.413	18362
717.530	18247
717.646	17461
717.763	16303
717.880	16261
717.996	15875
718.113	16368
718.229	16291
718.346	15924
718.462	17060
718.579	17752
718.695	21688
718.812	20585
718.928	18854
719.045	17065
719.161	14058
719.277	15366
719.394	15409
719.510	16003
719.626	15614
719.743	17423
719.859	16745
719.975	16595
720.092	24188
720.208	37516
720.324	18907
720.440	15634
720.557	16950
720.673	20471
720.789	24502
720.905	42431
721.021	20902
721.137	14811
721.253	14044
721.369	16197
721.486	15848
721.602	18607
721.718	14383
721.834	14416
721.950	13044
722.066	13793
722.181	13612
722.297	13346
722.413	13520
722.529	14083
722.645	13895
722.761	13241
722.877	13308
722.993	12788
723.108	14194
723.224	13066
723.340	13300
723.456	13943
723.571	12827
723.687	12855
723.803	12981
723.918	12883
724.034	12853
724.150	12589
724.265	13198
724.381	19160
724.497	23351
724.612	12858
724.728	11984
724.843	12228
724.959	12213
725.074	19145
725.190	21489
725.305	12611
725.421	13013
725.536	11247
725.651	11815
725.767	11670
725.882	11718
725.997	11975
726.113	10617
726.228	12011
726.343	12350
726.459	11406
726.574	11028
726.689	9990
726.804	11045
726.920	12331
727.035	10848
727.150	10982
727.265	10508
727.380	11691
727.495	10729
727.610	10641
727.725	11123
727.841	13800
727.956	26566
728.071	21532
728.186	10810
728.301	10199
728.416	11295
728.531	10368
728.645	9301
728.760	11159
728.875	11703
728.990	11649
729.105	10169
729.220	10362
729.335	10671
729.449	11023
729.564	9740
729.679	9485
729.794	9645
729.908	10319
730.023	10705
730.138	9657
730.253	9566
730.367	9751
730.482	9077
730.596	9901
730.711	9068
730.826	10417
730.940	8767
731.055	9646
731.169	9518
731.284	9540
731.398	8459
731.513	10138
731.627	10322
731.742	9535
731.856	10224
731.970	9402
732.085	8796
732.199	9436
732.313	9270
732.428	12503
732.542	18228
732.656	14062
732.771	8651
732.885	9100
732.999	8884
733.113	9641
733.227	9671
733.342	9050
733.456	8452
733.570	9036
733.684	7587
733.798	7863
733.912	8941
734.026	7744
734.140	8586
734.254	9400
734.368	11266
734.482	14578
734.596	8255
734.710	7674
734.824	8246
734.938	7937
735.052	7928
735.166	9352
735.280	8158
735.393	7854
735.507	8416
735.621	10202
735.735	14093
735.849	9506
735.962	8597
736.076	8085
736.190	8135
736.303	10035
736.417	11141
736.531	8501
736.644	7415
736.758	7459
736.872	7950
736.985	7752
737.099	7085
737.212	6708
737.326	7658
737.439	7902
737.553	7566
737.666	7870
737.780	7641
737.893	7832
738.007	7422
738.120	7646
738.233	7853
738.347	8340
738.460	7863
738.573	7278
738.687	8057
738.800	8490
738.913	8264
739.026	7824
739.140	8386
739.253	8806
739.366	6697
739.479	7079
739.592	7514
739.705	7158
739.818	7756
739.932	7865
740.045	6822
740.158	7464
740.271	7597
740.384	8326
740.497	7838
740.610	7945
740.723	6695
740.836	8324
740.949	7719
741.062	9189
741.174	8565
741.287	8299
741.400	7544
741.513	7381
741.626	8242
741.739	7834
741.851	7523
741.964	8095
742.077	7376
742.189	7367
742.302	8457
742.415	8189
742.527	7610
742.640	6680
742.753	8190
742.865	6862
742.978	7720
743.090	7818
743.203	5977
743.316	7120
743.428	6996
743.541	7324
743.653	6813
743.766	7340
743.878	6965
743.990	8356
744.103	8713
744.215	8184
744.327	7122
744.440	7499
744.552	9230
744.664	8260
744.777	6818
744.889	6827
745.001	6909
745.113	7465
745.226	6541
745.338	6908
745.450	6684
745.562	7254
745.674	6525
745.786	6876
745.898	5994
746.010	7455
746.122	6635
746.234	7118
746.347	7011
746.459	7685
746.570	7365
746.682	7447
746.794	8628
746.906	6940
747.018	6362
747.130	6988
747.242	6357
747.354	7425
747.466	7237
747.577	7197
747.689	6900
747.801	7025
747.913	6457
748.024	6289
748.136	6537
748.248	7178
748.359	6746
748.471	6940
748.583	6781
748.694	7750
748.806	8858
748.918	7724
749.029	7547
749.141	6432
749.252	6709
749.364	7931
749.475	10425
749.587	9110
749.698	7199
749.809	7415
749.921	6601
750.032	7050
750.144	6231
750.255	6304
750.366	6826
750.478	6135
750.589	6818
750.700	6973
750.811	6889
750.923	8143
751.034	10527
751.145	12024
751.256	6898
751.367	7711
751.479	6855
751.590	6948
751.701	7607
751.812	7144
751.923	8641
752.034	6899
752.145	6314
752.256	6966
752.367	7801
752.478	6695
752.589	7030
752.700	7539
752.811	6524
752.922	7742
753.032	6944
753.143	9049
753.254	6448
753.365	7259
753.476	7540
753.586	7467
753.697	7197
753.808	7556
753.919	7689
754.029	7354
754.140	7708
754.251	7793
754.361	7483
754.472	7754
754.582	7288
754.693	7455
754.804	7464
754.914	7265
755.025	7040
755.135	8838
755.246	8083
755.356	7240
755.466	8125
755.577	8119
755.687	8732
755.798	8595
755.908	7411
756.018	8281
756.129	7724
756.239	8720
756.349	8318
756.460	8057
756.570	8472
756.680	8484
756.790	8505
756.900	9274
757.011	8163
757.121	9224
757.231	9134
757.341	8175
757.451	8277
757.561	8650
757.671	8388
757.781	8276
757.891	9071
758.001	9458
758.111	9756
758.221	10230
758.331	9644
758.441	9781
758.551	10033
758.661	11203
758.771	10117
758.880	10737
758.990	10156
759.100	10070
759.210	10226
759.320	11288
759.429	10971
759.539	10493
759.649	11150
759.758	12004
759.868	11863
759.978	12484
760.087	12145
760.197	13365
760.307	12859
760.416	11830
760.526	12120
760.635	13955
760.745	13972
760.854	14527
760.964	14299
761.073	15285
761.182	16248
761.292	15146
761.401	15217
761.511	16051
761.620	16427
761.729	16358
761.839	16311
761.948	17963
762.057	18060
762.166	18867
762.276	17938
762.385	21554
762.494	20337
762.603	21386
762.712	22319
762.822	22907
762.931	24195
763.040	24122
763.149	26486
763.258	27509
763.367	28256
763.476	29255
763.585	31823
763.694	33051
763.803	34602
763.912	38903
764.021	40053
764.130	42849
764.238	45764
764.347	48164
764.456	52322
764.565	57250
764.674	61801
764.783	66756
764.891	74894
765.000	84144
765.109	94517
765.217	109644
765.326	127771
765.435	151623
765.543	180525
765.652	219884
765.761	279426
765.869	361783
765.978	483806
766.086	662743
766.195	908281
766.303	1127344
766.412	961102
766.520	831345
766.629	1100041
766.737	908025
766.846	659015
766.954	478132
767.062	354105
767.171	275478
767.279	212074
767.387	170367
767.496	141049
767.604	120394
767.712	104397
767.820	92952
767.928	86299
768.037	77879
768.145	74639
768.253	72394
768.361	68958
768.469	68893
768.577	71198
768.685	76248
768.793	79789
768.901	87360
769.009	101869
769.117	122589
769.225	154714
769.333	206713
769.441	295634
769.549	452717
769.657	719198
769.765	1000332
769.873	828273
769.981	942238
770.088	752526
770.196	478311
770.304	321467
770.412	232412
770.519	176901
770.627	140303
770.735	112929
770.842	95390
770.950	82470
771.058	71878
771.165	63368
771.273	57236
771.380	50385
771.488	46618
771.595	42814
771.703	39498
771.810	36639
771.918	34583
772.025	33067
772.133	29744
772.240	28562
772.348	26328
772.455	25642
772.562	23934
772.670	22693
772.777	22150
772.884	20578
772.991	20592
773.099	19499
773.206	18657
773.313	17775
773.420	18693
773.528	16700
773.635	15912
773.742	16093
773.849	15770
773.956	15430
774.063	15501
774.170	14315
774.277	14949
774.384	12907
774.491	13097
774.598	13363
774.705	12963
774.812	13278
774.919	12930
775.026	11963
775.133	11822
775.239	11288
775.346	11109
775.453	11707
775.560	11469
775.667	11211
775.773	11242
775.880	10731
775.987	11127
776.093	10156
776.200	9936
776.307	9354
776.413	10282
776.520	8837
776.627	9841
776.733	9232
776.840	8252
776.946	10088
777.053	9880
777.159	11583
777.266	9559
777.372	11156
777.478	9818
777.585	9206
777.691	8040
777.798	7725
777.904	8823
778.010	10068
778.117	9297
778.223	7328
778.329	7502
778.435	8138
778.542	7755
778.648	6775
778.754	7322
778.860	6813
778.966	6513
779.072	7292
779.178	7047
779.284	7759
779.391	7378
779.497	7545
779.603	11353
779.708	13672
779.815	29039
779.920	93691
780.026	226890
780.132	47205
780.238	11523
780.344	9668
780.450	7574
780.556	6681
780.661	6064
780.767	5709
780.873	5383
780.979	5853
781.085	5716
781.190	5264
781.296	5820
781.402	5830
781.507	5456
781.613	5054
781.719	4892
781.824	5372
781.930	5936
782.035	5162
782.141	5262
782.246	4798
782.352	5502
782.457	4434
782.563	5902
782.668	4158
782.773	5723
782.879	4002
782.984	5306
783.090	5811
783.195	6560
783.300	4809
783.405	5583
783.511	4461
783.616	6045
783.721	4742
783.826	4118
783.932	5136
784.037	5354
784.142	4258
784.247	5276
784.352	4788
784.457	4972
784.562	5044
784.667	5092
784.772	4774
784.877	4566
784.982	4074
785.087	4945
785.192	4576
785.297	3872
785.402	4214
785.507	4376
785.611	4159
785.716	4750
785.821	4439
785.926	3952
786.031	4141
786.135	4735
786.240	4495
786.345	2652
786.450	4316
786.554	3474
786.659	2932
786.763	3712
786.868	4178
786.973	4458
787.077	3016
787.182	3568
787.286	4688
787.391	3507
787.495	3670
787.600	3992
787.704	2649
787.809	4236
787.913	3515
788.017	3812
788.122	2939
788.226	3885
788.330	2775
788.435	3526
788.539	3601
788.643	3685
788.747	3269
788.852	3681
788.956	2506
789.060	4042
789.164	2698
789.268	2930
789.372	3578
789.476	2876
789.580	2686
789.684	2541
789.788	3292
789.892	2842
789.996	3850
790.100	3754
790.204	3187
790.308	3975
790.412	3459
790.516	4586
790.620	3797
790.724	3047
790.828	3120
790.931	2388
791.035	4515
791.139	4006
791.242	3199
791.346	4147
791.450	2497
791.554	2854
791.657	2394
791.761	3514
791.864	3926
791.968	2829
792.072	3492
792.175	3394
792.279	3245
792.382	3664
792.486	3977
792.589	2983
792.693	3281
792.796	2727
792.899	3642
793.003	3446
793.106	2204
793.209	3163
793.313	3614
793.416	1978
793.519	4037
793.623	3146
793.726	3991
793.829	3295
793.932	3495
794.035	2773
794.138	3744
794.242	4919
794.345	4564
794.448	8410
794.551	14628
794.654	49986
794.757	128757
794.860	30524
794.963	4917
795.066	4062
795.169	3701
795.272	2671
795.375	3561
795.477	2497
795.580	2594
795.683	1568
795.786	2922
795.889	1570
795.991	2629
796.094	3470
796.197	1151
796.300	3588
796.402	2733
796.505	2366
796.608	1593
796.710	2740
796.813	2283
796.915	2430
797.018	2197
797.120	2504
797.223	1449
797.326	4095
797.428	1745
797.530	1730
797.633	2421
797.735	3802
797.838	2929
797.940	3555
798.042	1073
798.145	1504
798.247	2995
798.349	1496
798.452	2677
798.554	2269
798.656	691
798.758	2559
798.860	2481
798.962	2433
799.065	2471
799.167	1919
799.269	3027
799.371	2449
799.473	2749
799.575	1970
799.677	2337
799.779	3799
799.881	1650
799.983	2747
800.085	2067
800.187	2134
800.289	1755
800.390	2281
800.492	1136
800.594	2993
800.696	1211
800.798	1588
800.899	2351
801.001	1848
801.103	2374
801.205	1948
801.306	1908
801.408	1508
801.509	1662
801.611	2208
801.713	2032
801.814	1777
801.916	1502
802.017	1542
802.119	1074
802.220	2466
802.322	-286
802.423	3990
802.525	1660
802.626	1796
802.727	1786
802.829	2900
802.930	-322
803.031	3126
803.133	1252
803.234	1529
803.335	2184
803.436	1095
803.538	732
803.639	974
803.740	2018
803.841	1568
803.942	1250
804.043	2069
804.144	488
804.245	1788
804.346	1673
804.447	1398
804.548	1136
804.649	3198
804.750	1172
804.851	824
804.952	2058
805.053	1368
805.154	618
805.255	1976
805.355	1410
805.456	1673
805.557	1092
805.658	827
805.758	1595
805.859	2750
805.960	1035
806.061	1124
806.161	1352
806.262	1593
806.362	1980
806.463	1278
806.564	1426
806.664	1840
806.765	1854
806.865	2165
806.966	1476
807.066	1532
807.166	2588
807.267	1344
807.367	994
807.468	1902
807.568	180
807.668	1819
807.769	1560
807.869	1577
807.969	838
808.069	1144
808.170	1280
808.270	827
808.370	1738
808.470	2156
808.570	230
808.670	1390
808.770	1275
808.870	874
808.970	1390
809.070	891
809.170	720
809.271	1936
809.370	1039
809.470	1634
809.570	912
809.670	1060
809.770	1244
809.870	2059
809.970	870
810.070	1979
810.169	1961
810.269	-176
810.369	1077
810.469	1797
810.568	602
810.668	168
810.768	1571
810.867	1606
810.967	-111
811.066	1274
811.166	1524
811.265	2438
811.365	902
811.464	902
811.564	1086
811.663	1422
811.763	472
811.862	1795
811.962	1354
812.061	1225
812.160	708
812.260	1473
812.359	1226
812.458	2788
812.557	5504
812.657	8974
812.756	4038
812.855	2589
812.954	386
813.053	1786
813.153	449
813.252	495
813.351	1042
813.450	1077
813.549	504
813.648	1480
813.747	1910
813.846	1664
813.945	-18
814.044	705
814.143	772
814.242	1909
814.341	681
814.439	1627
814.538	1233
814.637	1584
814.736	1523
814.835	1800
814.933	990
815.032	1935
815.131	850
815.229	1012
815.328	1392
815.427	611
815.525	1668
815.624	1750
815.722	1147
815.821	1436
815.919	1875
816.018	1450
816.116	1922
816.215	1485
816.313	1396
816.412	1897
816.510	666
816.609	2587
816.707	1490
816.805	1727
816.904	908
817.002	1763
817.100	2628
817.198	3092
817.296	2708
817.395	1842
817.493	4187
817.591	2861
817.689	5542
817.787	6448
817.885	10194
817.983	17754
818.081	36237
818.179	83867
818.277	206530
818.375	225996
818.473	76102
818.571	27767
818.669	16205
818.767	14117
818.865	13379
818.963	15257
819.061	21165
819.158	36027
819.256	73927
819.354	166134
819.452	361791
819.549	305528
819.647	103669
819.745	38769
819.842	21496
819.940	14671
820.038	9503
820.135	9004
820.233	7059
820.330	4643
820.428	3290
820.525	4447
820.623	3237
820.720	2619
820.818	3053
820.915	3091
821.012	2454
821.110	868
821.207	2518
821.304	1398
821.402	1642
821.499	2959
821.596	3380
821.693	2585
821.791	2549
821.888	1706
821.985	3464
822.082	3064
822.179	1730
822.276	2164
822.373	1770
822.470	970
822.567	972
822.664	940
822.761	1906
822.858	-115
822.955	1818
823.052	1930
823.149	989
823.246	667
823.343	871
823.440	2050
823.536	578
823.633	1257
823.730	806
823.827	851
823.923	-372
824.020	2090
824.117	781
824.213	735
824.310	1128
824.407	624
824.503	1178
824.600	1114
824.696	806
824.793	1730
824.889	226
824.986	649
825.082	262
825.179	1248
825.275	1394
825.371	471
825.468	979
825.564	337
825.660	561
825.757	886
825.853	1370
825.949	375
826.045	1211
826.142	344
826.238	420
826.334	973
826.430	-272
826.526	981
826.622	-531
826.718	678
826.814	436
826.910	756
827.006	756
827.102	333
827.198	778
827.294	358
827.390	1121
827.486	825
827.582	-525
827.678	581
827.774	208
827.869	203
827.965	91
828.061	776
828.157	1147
828.252	1080
828.348	-267
828.444	1526
828.539	-1022
828.635	393
828.731	1096
828.826	-236
828.922	2049
829.017	-635
829.113	578
829.208	659
829.304	-874
829.399	1978
829.495	-724
829.590	341
829.685	-735
829.781	186
829.876	1057
829.971	748
830.066	-682
830.162	462
830.257	90
830.352	439
830.447	1391
830.543	519
830.638	-746
830.733	1772
830.828	124
830.923	378
831.018	474
831.113	631
831.208	588
831.303	576
831.398	311
831.493	168
831.588	25
831.683	357
831.778	445
831.873	58
831.967	292
832.062	-369
832.157	-1020
832.252	1463
832.346	100
832.441	1481
832.536	1393
832.631	3555
832.725	2895
832.820	439
832.914	-315
833.009	-442
833.104	758
833.198	1275
833.293	-2
833.387	-374
833.482	340
833.576	318
833.670	839
833.765	422
833.859	-417
833.954	1021
834.048	63
834.142	780
834.237	-138
834.331	-455
834.425	557
834.519	-149
834.613	986
834.708	475
834.802	-144
834.896	206
834.990	290
835.084	511
835.178	491
835.272	130
835.366	-454
835.460	872
835.554	135
835.648	-434
835.742	153
835.836	822
835.930	-565
836.024	298
836.117	707
836.211	31
836.305	735
836.399	2006
836.493	-613
836.586	1457
836.680	7
836.774	258
836.867	663
836.961	560
837.055	-593
837.148	515
837.242	399
837.335	-364
837.429	483
837.522	833
837.616	725
837.709	1832
837.803	1167
837.896	619
837.989	91
838.083	1609
838.176	1163
838.269	2152
838.363	1079
838.456	547
838.549	2076
838.642	2136
838.735	3667
838.829	2679
838.922	-166
839.015	293
839.108	-627
839.201	378
839.294	279
839.387	965
839.480	280
839.573	476
839.666	639
839.759	1399
839.852	156
839.945	584
840.038	41
840.131	162
840.223	-86
840.316	565
840.409	-92
840.502	-70
840.594	1000
840.687	-759
840.780	474
840.873	361
840.965	-44
841.058	524
841.150	2374
841.243	1484
841.336	786
841.428	1112
841.521	-698
841.613	-245
841.706	766
841.798	597
841.890	14
841.983	7
842.075	1236
842.167	782
842.260	378
842.352	1572
842.444	934
842.537	2002
842.629	3103
842.721	1187
842.813	276
842.905	-987
842.997	493
843.090	572
843.182	1631
843.274	3196
843.366	5860
843.458	11202
843.550	8270
843.642	1271
843.734	530
843.826	551
843.918	821
844.009	245
844.101	-135
844.193	456
844.285	-195
844.377	988
844.469	426
844.560	1442
844.652	1289
844.744	933
844.835	-116
844.927	566
845.019	1152
845.110	312
845.202	884
845.293	367
845.385	-152
845.476	-133
845.568	898
845.659	-17
845.751	-112
845.842	15
845.934	-552
846.025	-503
846.116	1006
846.208	249
846.299	-52
846.390	595
846.482	614
846.573	975
846.664	851
846.755	897
846.846	1060
846.937	-191
847.029	391
847.120	434
847.211	300
847.302	1479
847.393	-1406
847.484	465
847.575	105
847.666	-901
847.757	263
847.847	149
847.938	629
848.029	579
848.120	-641
848.211	607
848.302	69
848.392	585
848.483	347
848.574	967
848.664	-98
848.755	-797
848.846	-399
848.936	70
849.027	820
849.118	54
849.208	-221
849.299	626
849.389	150
849.480	321
849.570	330
849.661	1295
849.751	1694
849.841	1074
849.932	-176
850.022	-182
850.112	476
850.203	336
850.293	-1124
850.383	736
850.474	138
850.564	288
850.654	-311
850.744	852
850.834	-368
850.924	-106
851.014	-481
851.104	359
851.194	-301
851.284	1016
851.374	744
851.464	40
851.554	-212
851.644	-975
851.734	1265
851.824	1220
851.914	813
852.004	2108
852.094	1708
852.183	1660
852.273	36
852.363	490
852.452	-316
852.542	318
852.632	-241
852.721	132
852.811	-28
852.901	569
852.990	-1003
853.080	395
853.169	359
853.259	-143
853.348	-991
853.438	217
853.527	186
853.617	-559
853.706	1177
853.795	570
853.885	2096
853.974	4145
854.063	7534
854.152	11631
854.242	3752
854.331	1176
854.420	-222
854.509	942
854.598	-121
854.687	-192
854.777	194
854.866	-102
854.955	747
855.044	133
855.133	-892
855.222	-188
855.311	-378
855.400	1136
855.488	-111
855.577	-216
855.666	272
855.755	1226
855.844	877
855.933	1624
856.021	-44
856.110	577
856.199	127
856.288	166
856.376	-557
856.465	-1244
856.554	279
856.642	-1002
856.731	4
856.819	439
856.908	-579
856.996	-291
857.085	-992
857.173	-667
857.262	-399
857.350	-54
857.438	-643
857.527	-172
857.615	-502
857.703	289
857.792	361
857.880	-408
857.968	-266
858.056	574
858.145	61
858.233	534
858.321	-1368
858.409	387
858.497	-1281
858.585	-733
858.673	132
858.761	-410
858.849	-43
858.937	-633
859.025	-187
859.113	8
859.201	126
859.289	184
859.377	-152
859.465	537
859.552	-854
859.640	-624
859.728	389
859.816	-80
859.903	-269
859.991	-651
860.079	-55
860.166	-492
860.254	-496
860.342	-394
860.429	-671
860.517	-21
860.604	203
860.692	439
860.779	-1096
860.867	335
860.954	-1047
861.042	117
861.129	261
861.216	-3
861.304	-1006
861.391	-333
861.478	-86
861.565	-30
861.653	168
861.740	10
861.827	39
861.914	-644
862.001	9
862.089	-99
862.176	-139
862.263	-561
862.350	-265
862.437	-631
862.524	-263
862.611	-864
862.698	3
862.785	-30
862.871	348
862.958	5
863.045	78
863.132	170
863.219	-321
863.306	-676
863.392	683
863.479	-284
863.566	-659
863.652	672
863.739	-897
863.826	-320
863.912	-601
863.999	-912
864.086	-239
864.172	-758
864.259	-246
864.345	-604
864.432	-606
864.518	141
864.604	14
864.691	-771
864.777	-258
864.863	282
864.950	-592
865.036	-314
865.122	-590
865.209	-680
865.295	-765
865.381	-75
865.467	175
865.553	-33
865.639	-769
865.726	5
865.812	527
865.898	1491
865.984	2877
866.070	6347
866.156	6596
866.242	1689
866.328	-524
866.414	-1079
866.499	226
866.585	57
866.671	-603
866.757	132
866.843	451
866.928	-372
867.014	-472
867.100	552
867.186	-589
867.271	31
867.357	135
867.442	514
867.528	72
867.614	-378
867.699	-1292
867.785	340
867.870	-124
867.956	1266
868.041	1073
868.127	494
868.212	377
868.297	1179
868.383	-209
868.468	705
868.553	1286
868.639	1330
868.724	3922
868.809	4521
868.894	-192
868.979	-57
869.065	89
869.150	-653
869.235	-789
869.320	-453
869.405	27
869.490	-1001
869.575	-870
869.660	-210
869.745	-1178
869.830	-584
869.915	-623
870.000	120
870.085	-725
870.169	-324
870.254	-223
870.339	-606
870.424	-673
870.509	43
870.593	-573
870.678	-731
870.763	-636
870.847	95
870.932	-1380
871.016	263
871.101	-608
871.186	-206
871.270	-868
871.355	-40
871.439	-1015
871.523	-579
871.608	321
871.692	-140
871.777	-299
871.861	-878
871.945	-499
872.030	367
872.114	-1059
872.198	-687
872.282	-611
872.367	-260
872.451	-945
872.535	-368
872.619	-953
872.703	-408
872.787	-779
872.871	-855
872.955	-771
873.039	-764
873.123	-971
873.207	-124
873.291	-337
873.375	-611
873.459	-587
873.543	-77
873.627	-1250
873.711	-829
873.794	-859
873.878	-724
873.962	-1133
874.045	-906
874.129	-326
874.137	-435
874.213	-1522
874.245	-1255
874.296	-819
874.352	-412
874.380	-220
874.460	-424
874.464	-431
874.547	-680
874.568	-713
874.631	-811
874.676	-709
874.714	-637
874.784	-781
874.798	-804
874.881	582
874.892	353
874.965	-1241
874.999	-748
875.048	-86
875.107	-813
875.131	-1099
875.215	-48
875.215	-49
875.298	-929
875.323	-790
875.381	-318
875.430	-697
875.465	-1014
875.538	-187
875.548	-77
875.631	-1473
875.646	-1323
875.714	-639
875.753	-1106
875.798	-1579
875.861	-769
875.881	-533
875.964	-577
875.968	-566
876.047	-229
876.076	-275
876.130	-522
876.183	-241
876.213	-21
876.291	-137
876.296	-146
876.379	-398
876.398	-483
876.462	-798
876.506	-849
876.545	-883
876.613	-147
876.628	7
876.711	-884
876.721	-800
876.794	-94
876.828	-248
876.877	-518
876.935	-957
876.960	-1126
877.043	-392
877.043	-392
877.125	-120
877.150	17
877.208	210
877.258	36
877.291	-46
877.365	-363
877.374	-397
877.456	-225
877.472	-316
877.539	-760
877.579	-730
877.622	-699
877.687	-357
877.704	-247
877.787	-937
877.794	-913
877.869	-704
877.901	-694
877.952	-544
878.008	-293
878.034	-274
878.115	-536
878.117	-536
878.199	-671
878.222	-510
878.282	-182
878.329	-285
878.364	-352
878.437	180
878.447	253
878.529	-1098
878.544	-1047
878.611	-684
878.651	-316
878.694	61
878.758	-452
878.776	-596
878.858	45
878.865	12
878.941	-790
878.972	-917
879.023	-805
879.078	-1011
879.105	-1101
879.185	-160
879.187	-141
879.269	-192
879.292	-247
879.351	-554
879.399	-934
879.433	-1130
879.506	-225
879.516	-128
879.598	-637
879.613	-559
879.680	-77
879.720	-122
879.762	-196
879.827	-360
879.844	-412
879.926	-495
879.933	-509
880.007	-959
880.040	-1119
880.089	-868
880.147	-238
880.171	-111
880.253	-225
880.254	-226
880.335	-56
880.360	268
880.417	873
880.467	1128
880.499	1216
880.574	1308
880.580	1325
880.662	552
880.680	345
880.744	-268
880.787	-226
880.825	-356
880.893	-214
880.907	-132
880.989	350
881.000	334
881.070	506
881.106	559
881.152	187
881.213	-279
881.233	-376
881.315	-146
881.319	-168
881.396	-90
881.426	-135
881.478	-650
881.532	-925
881.559	-786
881.639	-111
881.641	-108
881.722	-23
881.745	-241
881.803	-591
881.852	-718
881.885	-782
881.958	51
881.966	142
882.047	-107
882.064	-79
882.129	110
882.171	193
882.210	260
882.277	739
882.291	784
882.372	-145
882.383	-177
882.454	-147
882.489	-157
882.535	-198
882.596	-417
882.616	-574
882.697	-965
882.702	-972
882.778	-119
882.808	101
882.859	-48
882.914	-125
882.940	-143
883.020	-531
883.021	-528
883.102	-44
883.127	12
883.183	-344
883.233	-280
883.264	20
883.339	14
883.345	-34
883.426	-117
883.445	-286
883.507	-442
883.551	-362
883.587	-391
883.657	-534
883.668	-475
883.749	180
883.763	280
883.830	160
883.869	-120
883.910	-225
883.975	-149
883.991	-179
884.072	-47
884.081	-102
884.152	-236
884.187	-113
884.233	25
884.292	121
884.314	59
884.394	-163
884.398	-200
884.475	-638
884.504	-559
884.555	-409
884.610	-593
884.636	-582
884.716	156
884.716	161
884.797	-210
884.821	-98
884.877	118
884.927	107
884.958	-30
885.033	-258
885.038	-240
885.118	-108
885.139	-49
885.199	104
885.244	205
885.279	99
885.350	-110
885.359	-74
885.439	46
885.456	128
885.520	-6
885.561	-211
885.600	-236
885.667	-261
885.680	-284
885.760	-302
885.773	-311
885.840	343
885.878	704
885.920	376
885.984	-328
886.000	-297
886.080	-43
886.089	2
886.160	-159
886.195	-178
886.240	46
886.300	161
886.320	128
886.400	-158
886.406	-162
886.480	54
886.511	67
886.560	153
886.616	333
886.640	331
886.720	72
886.722	70
886.800	123
886.827	76
886.879	161
886.932	233
886.959	242
887.038	367
887.039	370
887.119	273
887.143	211
887.198	-68
887.248	-195
887.278	-147
887.354	-282
887.358	-267
887.437	111
887.459	209
887.517	419
887.564	618
887.596	373
887.669	-349
887.676	-335
887.755	-5
887.774	66
887.835	377
887.880	599
887.914	559
887.985	387
887.994	366
888.073	130
888.090	94
888.153	-105
888.195	-241
888.232	-119
888.300	55
888.311	25
888.391	-155
888.405	-207
888.470	-334
888.510	-328
888.549	54
888.615	548
888.628	455
888.708	35
888.720	-45
888.787	28
888.825	45
888.866	147
888.930	386
888.945	452
889.024	718
889.035	755
889.103	465
889.140	313
889.182	221
889.245	71
889.261	83
889.340	153
889.349	162
889.419	566
889.454	766
889.498	490
889.559	101
889.577	53
889.656	-137
889.664	-153
889.735	201
889.768	371
889.814	121
889.873	-205
889.978	378
890.083	43
890.187	825
890.292	-38
890.397	-259
890.501	683
890.606	-270
890.710	1135
890.815	902
890.919	281
891.024	177
891.128	528
891.233	-67
891.337	695
891.442	-905
891.546	-176
891.650	59
891.755	395
891.859	879
891.963	71
892.068	157
892.172	576
892.276	-207
892.380	333
892.484	60
892.589	337
892.693	-322
892.797	345
892.901	894
893.005	-443
893.109	37
893.213	716
893.317	520
893.421	521
893.525	294
893.629	325
893.733	61
893.837	-246
893.941	272
894.045	927
894.148	-363
894.252	501
894.356	-616
894.460	-306
894.564	318
894.667	-63
894.771	4
894.875	-375
894.978	-315
895.082	238
895.186	335
895.289	270
895.393	-2
895.496	13
895.600	-105
895.703	-37
895.807	-786
895.910	134
896.014	340
896.117	-307
896.221	265
896.324	-201
896.427	-797
896.531	-126
896.634	463
896.737	-498
896.840	435
896.944	442
897.047	-430
897.150	346
897.253	-136
897.356	905
897.460	-400
897.563	188
897.666	-396
897.769	513
897.872	-197
897.975	554
898.078	-151
898.181	-110
898.284	-573
898.387	22
898.490	-921
898.593	346
898.695	-312
898.798	578
898.901	-362
899.004	82
899.107	-311
899.209	410
899.312	-642
899.415	50
899.518	-174
899.620	-352
899.723	28
899.826	485
899.928	503
900.031	-328
900.133	-915
900.236	-261
900.338	470
900.441	636
900.543	-3
900.646	612
900.748	597
900.851	-408
900.953	228
901.055	638
901.158	200
901.260	65
901.362	-305
901.465	329
901.567	510
901.669	432
901.771	266
901.873	141
901.976	-256
902.078	-96
902.180	69
902.282	785
902.384	-338
902.486	943
902.588	-224
902.690	314
902.792	-264
902.894	529
902.996	-287
903.098	-58
903.200	614
903.302	60
903.404	-50
903.505	-250
903.607	-391
903.709	402
903.811	-1119
903.913	586
904.014	97
904.116	-204
904.218	-264
904.319	329
904.421	128
904.523	844
904.624	-110
904.726	401
904.827	101
904.929	-629
905.030	41
905.132	708
905.233	289
905.335	463
905.436	15
905.537	562
905.639	-62
905.740	-229
905.841	65
905.943	273
906.044	-541
906.145	472
906.247	-433
906.348	114
906.449	-28
906.550	715
906.651	102
906.752	-275
906.854	-457
906.955	-610
907.056	-359
907.157	494
907.258	-890
907.359	256
907.460	-864
907.561	-217
907.662	-603
907.762	428
907.863	-983
907.964	-441
908.065	-693
908.166	308
908.267	-606
908.367	194
908.468	-1146
908.569	-274
908.670	-292
908.770	435
908.871	-458
908.971	-34
909.072	-1106
909.173	31
909.273	-726
909.374	402
909.474	-730
909.575	170
909.675	-380
909.776	-692
909.876	-749
909.977	-175
910.077	-890
910.177	-119
910.278	-1033
910.378	626
910.478	25
910.579	-814
910.679	-1322
910.779	201
910.879	-16
910.980	-10
911.080	-514
911.180	-335
911.280	-421
911.380	-562
911.480	112
911.580	-947
911.680	-631
911.780	-677
911.880	-416
911.980	-807
912.080	-565
912.180	-430
912.280	88
912.380	-975
912.480	-168
912.580	-377
912.679	-842
912.779	242
912.879	-424
912.979	-387
913.078	-334
913.178	-267
913.278	-713
913.377	-412
913.477	-291
913.577	-169
913.676	37
913.776	-207
913.875	-743
913.975	120
914.074	-655
914.174	-349
914.273	-294
914.373	95
914.472	-971
914.572	-549
914.671	-484
914.770	-348
914.870	-497
914.969	-1071
915.068	-959
915.167	-268
915.267	-828
915.366	-96
915.465	-1112
915.564	-181
915.663	-344
915.763	-611
915.862	-463
915.961	-127
916.060	-1234
916.159	104
916.258	-724
916.357	-161
916.456	-726
916.555	19
916.654	76
916.752	-592
916.851	-217
916.950	-448
917.049	-208
917.148	-606
917.247	-965
917.345	-422
917.444	-1489
917.543	-502
917.642	-270
917.740	-838
917.839	-1290
917.937	-758
918.036	-502
918.135	-426
918.233	-155
918.332	-140
918.430	-673
918.529	-176
918.627	-1318
918.726	206
918.824	-147
918.923	5
919.021	-342
919.119	-145
919.218	-1204
919.316	-152
919.414	-1011
919.512	-709
919.611	-1159
919.709	-170
919.807	-1052
919.905	8
920.003	-938
920.102	-1035
920.200	-1500
920.298	-67
920.396	-431
920.494	-1187
920.592	-739
920.690	-708
920.788	-430
920.886	-550
920.984	-171
921.082	-560
921.180	-252
921.277	-513
921.375	91
921.473	-1361
921.571	-42
921.669	-76
921.766	-911
921.864	-78
921.962	-497
922.060	208
922.157	-462
922.255	-292
922.352	-1004
922.450	-202
922.548	-558
922.645	80
922.743	-876
922.840	-856
922.938	-1351
923.035	-1166
923.133	-801
923.230	-1227
923.327	-1498
923.425	-695
923.522	-383
923.619	-504
923.717	-939
923.814	-386
923.911	-1004
924.008	-221
924.106	-467
924.203	-484
924.300	-1616
924.397	-722
924.494	-336
924.591	-753
924.688	-988
924.786	-563
924.883	-176
924.979	-919
925.077	-1063
925.173	-485
925.270	-947
925.367	-521
925.464	-978
925.561	-97
925.658	-506
925.755	-269
925.852	-1176
925.948	-1210
926.045	120
926.142	-325
926.239	-489
926.335	-501
926.432	-767
926.529	68
926.625	-84
926.722	-1104
926.818	-936
926.915	-658
927.011	-33
927.108	-258
927.204	-1444
927.301	2
927.397	-1112
927.494	-983
927.590	-953
927.687	-591
927.783	-847
927.879	-1116
927.976	-1083
928.072	-221
928.168	-211
928.264	-698
928.361	-1473
928.457	-66
928.553	-1174
928.649	-488
928.745	-1175
928.841	-94
928.937	-472
929.033	-89
929.129	-503
929.225	-1579
929.321	-748
929.417	-578
929.513	-842
929.609	-396
929.705	-645
929.801	-584
929.897	-1500
929.993	-1056
930.089	-1896
930.184	-1769
930.280	-613
930.376	-914
930.471	-1176
930.567	-1022
930.663	-654
930.758	-998
930.854	-1353
930.950	-1889
931.045	-1436
931.141	-787
931.236	-1171
931.332	-1178
931.427	-687
931.523	-624
931.618	-471
931.714	-1109
931.809	-709
931.905	-615
932.000	-950
932.095	-244
932.191	-884
932.286	-726
932.381	-1051
932.476	-1093
932.572	-1343
932.667	-960
932.762	-736
932.857	-1139
932.952	-1193
933.047	-706
933.142	-850
933.237	-749
933.332	-1534
933.427	-355
933.522	-1046
933.617	-1016
933.712	-921
933.807	-903
933.902	-1845
933.997	-503
934.092	-1567
934.187	-1370
934.282	-1107
934.376	-971
934.471	-393
934.566	-752
934.661	-1271
934.755	-534
934.850	-699
934.945	-1465
935.039	-347
935.134	-563
935.228	-1863
935.323	-993
935.417	-704
935.512	-74
935.606	-913
935.701	-523
935.795	-794
935.890	-964
935.984	-997
936.079	-225
936.173	-1034
936.267	-492
936.362	-1252
936.456	-393
936.550	-981
936.644	-612
936.738	-1118
936.833	-810
936.927	-625
937.021	-577
937.115	-239
937.209	-1147
937.303	-16
937.397	-1185
937.491	-827
937.585	-1074
937.679	-732
937.773	-952
937.867	-168
937.961	-156
938.055	-1484
938.149	-340
938.243	-1070
938.337	-348
938.430	-1471
938.524	-250
938.618	-327
938.712	-937
938.805	-1033
938.899	-854
938.993	-555
939.086	-446
939.180	-573
939.274	117
939.367	-771
939.461	-501
939.554	-742
939.648	-659
939.741	-753
939.835	-502
939.928	-1260
940.022	-559
940.115	-1876
940.208	-725
940.302	-770
940.395	-9
940.488	-1799
940.582	-19
940.675	-1505
940.768	-1155
940.861	-977
940.954	-364
941.048	-1524
941.141	-662
941.234	-581
941.327	-27
941.420	91
941.513	-829
941.606	-1405
941.699	-441
941.792	-1814
941.885	-1323
941.978	-729
942.071	-621
942.164	-1932
942.257	-140
942.349	-1167
942.442	-648
942.535	-1580
942.628	-396
942.721	-1200
942.813	-1219
942.906	-436
942.999	-626
943.091	-787
943.184	-1302
943.277	-1421
943.369	-784
943.462	-1875
943.554	-535
943.647	-682
943.739	-435
943.832	-1625
943.924	-1879
944.017	-936
944.109	-1314
944.201	-597
944.294	-608
944.386	-1376
944.478	-1373
944.571	-520
944.663	-602
944.755	-1678
944.847	-748
944.940	-422
945.032	-1489
945.124	-666
945.216	-669
945.308	-963
945.400	-412
945.492	-589
945.584	-1133
945.676	-1134
945.768	-633
945.860	-1040
945.952	-792
946.044	-1271
946.136	-872
946.228	-1614
946.320	-771
946.412	-858
946.503	-855
946.595	-966
946.687	-1419
946.779	-747
946.870	-333
946.962	-654
947.054	-632
947.145	-726
947.237	-1206
947.329	-1356
947.420	-1195
947.512	-1604
947.603	-763
947.695	-992
947.786	-1013
947.878	-797
947.969	-211
948.061	-1374
948.152	-1567
948.243	-842
948.335	-1203
948.426	-1520
948.517	-900
948.609	-479
948.700	-760
948.791	-390
948.882	-736
948.973	-1885
949.065	-1418
949.156	-1223
949.247	-1265
949.338	-1080
949.429	-780
949.520	-1208
949.611	-2006
949.702	-1361
949.793	-1268
949.884	-1540
949.975	-628
950.066	-1341
950.157	-1399
950.247	-1411
950.338	-898
950.429	-573
950.520	-611
950.611	-512
950.701	-833
950.792	-1472
950.883	-588
950.973	-1161
951.064	-989
951.155	-1257
951.245	-503
951.336	-1056
951.427	-1184
951.517	-555
951.608	-739
951.698	-789
951.788	-725
951.879	-802
951.969	-528
952.060	-1275
952.150	-952
952.240	-603
952.331	-1796
952.421	680
952.511	-1131
952.602	-1232
952.692	-1191
952.782	-993
952.872	-1473
952.962	-1048
953.052	-148
953.143	-1151
953.233	-521
953.323	-833
953.413	-1516
953.503	-1248
953.593	-488
953.683	-1493
953.773	-975
953.863	-741
953.953	-1468
954.042	-206
954.132	-1703
954.222	-245
954.312	-860
954.402	-952
954.492	-311
954.581	-1136
954.671	-968
954.761	-2272
954.850	46
954.940	-1195
955.030	-744
955.119	-1020
955.209	-744
955.298	-981
955.388	-1410
955.477	-765
955.567	-1390
955.656	-1005
955.746	-666
955.835	-1381
955.925	-1352
956.014	-657
956.103	-965
956.193	-1007
956.282	-885
956.371	-1093
956.461	-603
956.550	-966
956.639	9
956.728	-1223
956.817	-211
956.906	-929
956.995	53
957.085	-1024
957.174	-636
957.263	-939
957.352	-1009
957.441	-1681
957.530	-454
957.619	-1159
957.708	-872
957.796	-1221
957.885	-1470
957.974	-1369
958.063	-267
958.152	-1837
958.241	-549
958.329	-990
958.418	-833
958.507	-2091
958.596	-75
958.684	-1764
958.773	-332
958.861	-1388
958.950	-977
959.039	-537
959.127	-494
959.216	-326
959.304	-612
959.393	-1589
959.481	-1020
959.570	-544
959.658	-1086
959.746	-1779
959.835	-512
959.923	-2173
960.011	-37
960.100	-1191
960.188	-199
960.276	-681
960.365	-533
960.453	-806
960.541	-1302
960.629	-1225
960.717	-1628
960.805	-1627
960.893	24
960.981	-1507
961.069	-169
961.158	-1627
961.245	66
961.333	-1117
961.421	-1485
961.509	-1498
961.597	-1090
961.685	-1423
961.773	-849
961.861	-2241
961.949	-743
962.036	-1305
962.124	-283
962.212	-1256
962.299	-1089
962.387	-1067
962.475	-984
962.562	-1202
962.650	179
962.738	-1817
962.825	-610
962.913	-673
963.000	-345
963.088	-1177
963.175	-748
963.263	-1870
963.350	-1585
963.438	-2126
963.525	-1388
963.612	-1200
963.700	-878
963.787	-105
963.874	-1063
963.962	-1554
964.049	-781
964.136	-781
964.223	-1603
964.310	-1508
964.398	-1365
964.485	-1685
964.572	-877
964.659	-613
964.746	-949
964.833	-1150
964.920	-687
965.007	-1285
965.094	-636
965.181	-1793
965.268	-361
965.355	-1444
965.441	-469
965.528	-1721
965.615	-371
965.702	-1483
965.789	-1494
965.875	-896
965.962	-99
966.049	-2064
966.136	-1700
966.222	-1187
966.309	-1455
966.395	-1720
966.482	-432
966.569	-1918
966.655	-1571
966.742	-1709
966.828	-785
966.915	-1690
967.001	-385
967.087	-1814
967.174	-941
967.260	-744
967.347	-1199
967.433	-1938
967.519	-604
967.605	-2198
967.692	-900
967.778	-1203
967.864	-759
967.950	-1184
968.036	-1713
968.123	-842
968.209	-1328
968.295	-1470
968.381	-734
968.467	-995
968.553	-1372
968.639	-223
968.725	-2000
968.811	-1429
968.897	-1081
968.983	-1429
969.069	-726
969.154	-1141
969.240	-804
969.326	-2401
969.412	-1207
969.497	-1535
969.583	-1539
969.669	-699
969.755	-778
969.840	-1722
969.926	-951
970.012	-2039
970.097	-609
970.183	-2031
970.268	-1603
970.354	-703
970.439	-1663
970.525	219
970.610	-1484
970.696	-753
970.781	-1327
970.866	-1839
970.952	-988
971.037	-1944
971.122	-448
971.208	-1621
971.293	-1369
971.378	-2277
971.463	-513
971.549	-1028
971.634	-1082
971.719	-1363
971.804	-1537
971.889	-451
971.974	-1480
972.059	-1964
972.144	-383
972.229	-1832
972.314	-2201
972.399	-1018
972.484	-1708
972.569	-1636
972.654	-1329
972.739	-703
972.824	-1694
972.908	-1363
972.993	-1336
973.078	-1239
973.163	-1256
973.247	-1821
973.332	-3061
973.417	-61
973.501	-1846
973.586	-1558
973.671	-1276
973.755	-1785
973.840	-902
973.924	-55
974.009	-1457
974.093	-2946
974.178	-140
974.262	-1459
974.346	-1687
974.431	-1795
974.515	-926
974.600	-2493
974.684	-1695
974.768	-1136
974.852	-212
974.937	-2317
975.021	-1292
975.105	-2569
975.189	-1343
975.273	-1155
975.358	-968
975.442	-2097
975.526	-608
975.610	-2791
975.694	-1539
975.778	-55
975.862	-1541
975.946	-2780
976.030	-128
976.114	-1828
976.198	-720
976.281	-1429
976.365	68
976.449	-1818
976.533	-999
976.617	-1812
976.700	-1106
976.784	-644
976.868	-1463
976.951	-1449
977.035	-1833
977.119	-1251
977.202	-1076
977.286	-1654
977.369	-1354
977.453	-887
977.536	-849
977.620	-2883
977.703	-477
977.787	-2139
977.870	-318
977.953	-677
978.037	-2055
978.120	-1131
978.203	-1777
978.287	-1678
978.370	-1105
978.453	-1522
978.536	-1569
978.620	-859
978.703	-1442
978.786	-1171
978.869	-1650
978.952	-2244
979.035	-172
979.118	-575
979.201	-1772
979.284	-1841
979.367	-2164
979.450	-991
979.533	-1625
979.616	-992
979.699	-1550
979.782	-1314
979.865	-1361
979.948	-1903
980.030	-2507
980.113	-2241
980.196	-1605
980.279	-1689
980.361	-1308
980.444	-1564
980.526	-1259
980.609	-1038
980.692	-1214
980.774	-1572
980.857	-2160
980.939	-1913
981.022	-1805
981.104	-1631
981.187	-1392
981.269	-1389
981.352	-1111
981.434	-2416
981.516	-2054
981.599	-893
981.681	-1434
981.763	-1519
981.846	-1748
981.928	-1880
982.010	-1707
982.092	-2134
982.174	-850
982.256	-2165
982.339	-1275
982.421	-1504
982.503	-1753
982.585	-2679
982.667	-1449
982.749	-1353
982.831	-1556
982.913	-2551
982.995	-1648
983.077	-2764
983.158	-1477
983.240	-2544
983.322	-1624
983.404	-1958
983.486	-2537
983.568	-2079
983.649	-2116
983.731	-1590
983.813	-1569
983.894	-1180
983.976	-2069
984.058	-2192
984.139	-476
984.221	-2196
984.302	-1023
984.384	-1492
984.465	-2182
984.547	-1782
984.628	-2434
984.710	-1342
984.791	-1758
984.872	-2684
984.954	-1317
985.035	-1778
985.116	-1897
985.198	-1799
985.279	-606
985.360	-2375
985.441	-1749
985.522	-1315
985.604	-1899
985.685	-2994
985.766	-870
985.847	-1317
985.928	-1713
986.009	-2331
986.090	-1690
986.171	-1912
986.252	-1835
986.333	-1257
986.414	-1601
986.495	-1912
986.576	-2379
986.656	-1634
986.737	-1180
986.818	-1574
986.899	-2032
986.980	-2516
987.060	-1231
987.141	-2452
987.222	-1735
987.302	-2553
987.383	-1299
987.464	-2607
987.544	-1036
987.625	-2550
987.705	-1726
987.786	-1671
987.866	-2186
987.947	-1621
988.027	-1865
988.108	-2055
988.188	-1488
988.268	-1625
988.349	-1521
988.429	-2065
988.509	-1085
988.589	-2283
988.670	-3327
988.750	-1020
988.830	-1074
988.910	-1094
988.990	-1782
989.070	-2388
989.151	-1396
989.231	-1906
989.311	-1130
989.391	-2637
989.471	-1378
989.551	-1691
989.631	-2033
989.711	-2311
989.791	-1997
989.870	-2477
989.950	-422
990.030	-2134
990.110	-1801
990.190	-2997
990.269	-2127
990.349	-2486
990.429	-1683
990.509	-1527
990.588	-1864
990.668	-711
990.747	-1799
990.827	-2682
990.907	-1541
990.986	-2166
991.066	-1383
991.145	-2411
991.225	-1023
991.304	-2533
991.383	-1439
991.463	-1617
991.542	-909
991.622	-1870
991.701	-1894
991.780	-2105
991.859	-1565
991.939	-1917
992.018	-1436
992.097	-1743
992.176	-1631
992.256	-1914
992.335	-1789
992.414	-1312
992.493	-2289
992.572	-2220
992.651	-1061
992.730	-2351
992.809	-1642
992.888	-2062
992.967	-2062
993.046	-1296
993.125	-2665
993.203	-1484
993.282	-1459
993.361	-1765
993.440	-1642
993.519	-3148
993.597	-1236
993.676	-1787
993.755	-1290
993.834	-2330
993.912	-3061
993.991	-1006
994.069	-2509
994.148	-1517
994.226	-1862
994.305	-1579
994.384	-2210
994.462	-836
994.540	-1969
994.619	-2369
994.697	-1754
994.776	-2120
994.854	-1574
994.932	-2400
995.011	-2008
995.089	-2470
995.167	-1025
995.245	-2005
995.324	-2218
995.402	-963
995.480	-2145
995.558	-2416
995.636	-999
995.714	-2572
995.792	-898
995.870	-2110
995.948	-1615
996.026	-2608
996.104	-3548
996.182	-1340
996.260	-1841
996.338	-1617
996.416	-2147
996.494	-2557
996.572	-244
996.649	-2288
996.727	-1815
996.805	-1946
996.883	-1980
996.960	-1759
997.038	-1371
997.116	-1804
997.193	-1525
997.271	-1718
997.348	-2325
997.426	-1605
997.504	-2029
997.581	-473
997.658	-1070
997.736	-2528
997.813	-2581
997.891	-1301
997.968	-2060
998.046	-2033
998.123	-1862
998.200	-1852
998.277	-2080
998.355	-1031
998.432	-3115
998.509	-2232
998.586	-1957
998.663	-1600
998.741	-1702
998.818	-2012
998.895	-1443
998.972	-1531
999.049	-1456
999.126	-2118
999.203	-1520
999.280	-1894
999.357	-2466
999.434	-2411
999.511	-2107
999.587	-1529
999.664	-1747
999.741	-2092
999.818	-1562
999.895	-2812
999.971	-1556
1000.048	-2207
1000.125	-1218
1000.202	-1820
1000.278	-2215
1000.355	-2601
1000.431	-1863
1000.508	-1889
1000.584	-1340
1000.661	-1913
1000.738	-2123
1000.814	-2499
1000.890	-1996
1000.967	-1594
1001.043	-911
1001.120	-2591
1001.196	-2060
1001.272	-2447
1001.349	-1837
1001.425	-2125
1001.501	-2516
1001.577	-2317
1001.654	-1383
1001.730	-3081
1001.806	-961
1001.882	-2726
1001.958	-1813
1002.034	-2155
1002.110	-1672
1002.186	-2870
1002.262	-1788
1002.338	-2234
1002.414	-1529
1002.490	-1803
1002.566	-1758
1002.642	-2495
1002.718	-1001
1002.794	-2847
1002.870	-1459
1002.945	-2020
1003.021	-1929
1003.097	-1693
1003.173	-1880
1003.248	-2610
1003.324	-1387
1003.400	-1663
1003.475	-2421
1003.551	-2311
1003.626	-2049
1003.702	-2184
1003.777	-1867
1003.853	-2153
1003.928	-1748
1004.004	-1684
1004.079	-1256
1004.155	-1963
1004.230	-3077
1004.305	-1164
1004.381	-2651
1004.456	-1713
1004.531	-1411
1004.607	-2485
1004.682	-1175
1004.757	-2154
1004.832	-2081
1004.907	-1911
1004.982	-1741
1005.057	-2219
1005.133	-1950
1005.208	-2022
1005.283	-1759
1005.358	-1841
1005.433	-2763
1005.508	-1600
1005.583	-2319
1005.657	-2559
1005.732	-2062
1005.807	-2547
1005.882	-2360
1005.957	-2602
1006.032	-1061
1006.106	-2224
1006.181	-2474
1006.256	-2364
1006.331	-2071
1006.405	-2507
1006.480	-1949
1006.554	-1896
1006.629	-1196
1006.704	-1792
1006.778	-1252
1006.853	-1851
1006.927	-1423
1007.002	-2319
1007.076	-1454
1007.150	-1683
1007.225	-1339
1007.299	-2510
1007.373	-2441
1007.448	-2198
1007.522	-2262
1007.596	-2484
1007.671	-2027
1007.745	-1234
1007.819	-2247
1007.893	-2435
1007.967	-1596
1008.041	-2357
1008.115	-1828
1008.190	-2833
1008.264	-1594
1008.338	-3057
1008.412	-2175
1008.486	-1501
1008.560	-1928
1008.633	-2239
1008.707	-1482
1008.781	-1742
1008.855	-2189
1008.929	-1860
1009.003	-2731
1009.076	-2295
1009.150	-1551
1009.224	-2175
1009.298	-1548
1009.371	-2220
1009.445	-1348
1009.519	-1440
1009.592	-2191
1009.666	-2516
1009.739	-1900
1009.813	-2299
1009.886	-1342
1009.960	-2731
1010.033	-1519
1010.107	-1609
1010.180	-1848
1010.253	-1602
1010.327	-2850
1010.400	-2092
1010.473	-1645
1010.547	-1364
1010.620	-1760
1010.693	-2392
1010.766	-1658
1010.840	-1576
1010.913	-1334
1010.986	-2217
1011.059	-2436
1011.132	-2070
1011.205	-1612
1011.278	-1876
1011.351	-1599
1011.424	-1750
1011.497	-2125
1011.570	-2129
1011.643	-1969
1011.716	-2519
1011.789	-1654
1011.862	-2163
1011.934	-1854
1012.007	-2716
1012.080	-1734
1012.153	-1454
1012.225	-733
1012.298	-2695
1012.371	-2317
1012.443	-1798
1012.516	-2061
1012.588	-1417
1012.661	-1645
1012.733	-2624
1012.806	-548
1012.879	-2618
1012.951	-1196
1013.023	-1550
1013.096	-1182
1013.168	-1874
1013.241	-1746
1013.313	-2114
1013.385	-2278
1013.458	-2632
1013.530	-1552
1013.602	-2416
1013.674	-830
1013.746	-1816
1013.819	-1840
1013.891	-1331
1013.963	-2294
1014.035	-2213
1014.107	-1359
1014.179	-1180
1014.251	-1680
1014.323	-1581
1014.395	-1406
1014.467	-2237
1014.539	-1689
1014.611	-2120
1014.683	-1501
1014.754	-1696
1014.826	-2751
1014.898	-2298
1014.970	-2999
1015.042	-1412
1015.113	-2539
1015.185	-2618
1015.257	-2659
1015.328	-2110
1015.400	-2539
1015.471	-1445
1015.543	-2287
1015.615	-1789
1015.686	-1143
1015.757	-2364
1015.829	-2040
1015.901	-1998
1015.972	-1685
1016.043	-2161
1016.115	-1325
1016.186	-1978
1016.257	-2095
1016.328	-1481
1016.400	-218
1016.471	-2735
1016.542	-1418
1016.613	-1849
1016.685	-738
1016.756	-1625
1016.827	-1472
1016.898	-2303
1016.969	-1196
1017.040	-2702
1017.111	-1020
1017.182	-1976
1017.253	-1693
1017.324	-1519
1017.395	-1902
1017.466	-1439
1017.537	-1964
1017.608	-1883
1017.678	-1852
1017.749	-2329
1017.820	-1627
1017.891	-2634
1017.961	-2203
1018.032	-1842
1018.103	-1348
1018.173	-2759
1018.244	-1576
1018.315	-1831
1018.385	-546
1018.456	-2063
1018.526	-2518
1018.597	-1786
1018.667	-2190
1018.738	-2258
1018.808	-1758
1018.878	-2041
1018.949	-1683
1019.019	-2310
1019.089	-1828
1019.160	-1835
1019.230	-2372
1019.300	-1999
1019.371	-2581
1019.441	-1464
1019.511	-1683
1019.581	-2083
1019.651	-1305
1019.721	-1722
1019.791	-1833
1019.861	-1731
1019.931	-2114
1020.001	-1473
1020.071	-1682
1020.141	-1798
1020.211	-1444
1020.281	-2212
1020.351	-2527
1020.421	-1895
1020.491	-1966
1020.560	-2680
1020.630	-1712
1020.700	-2536
1020.770	-1461
1020.839	-2561
1020.909	-929
1020.979	-1796
1021.048	-1835
1021.118	-1976
1021.187	-1580
1021.257	-2259
1021.326	-1671
1021.396	-2034
1021.465	-1983
1021.535	-2454
1021.604	-2312
1021.674	-1724
1021.743	-1654
1021.812	-2268
1021.882	-1572
1021.951	-2617
1022.020	-1439
1022.089	-2133
1022.159	-2146
1022.228	-1240
1022.297	-1972
1022.366	-2219
1022.435	-2048
1022.504	-2123
1022.573	-2201
1022.642	-2253
1022.711	-1893
1022.781	-1678
1022.849	-1020
1022.918	-2576
1022.987	-1783
1023.056	-2401
1023.125	-1587
1023.194	-1247
1023.263	-1825
1023.331	-1304
1023.400	-1515
1023.469	-2621
1023.538	-1260
1023.606	-2531
1023.675	-1334
1023.744	-2771
1023.812	-1978
1023.881	-2453
1023.949	-3017
1024.018	-1493
1024.086	-1607
1024.155	-2345
1024.223	-1653
1024.292	-1667
1024.360	-1924
1024.429	-2919
1024.497	-2240
1024.565	-2203
1024.634	-1908
1024.702	-2184
1024.770	-2045
1024.838	-2661
1024.907	-1675
1024.975	-2616
1025.043	-1983
1025.111	-2356
1025.179	-2172
1025.247	-1901
1025.315	-2024
1025.383	-3305
1025.451	-2199
1025.519	-2475
1025.587	-1723
1025.655	-1966
1025.723	-2255
1025.791	-2518
1025.859	-2720
1025.927	-756
1025.995	-2024
1026.062	-1819
1026.130	-1674
1026.198	-1796
1026.266	-2461
1026.333	-1667
1026.401	-1552
1026.469	-2459
1026.536	-1849
1026.604	-2343
1026.671	-1707
1026.739	-2198
1026.806	-2137
1026.874	-2837
1026.941	-2429
1027.009	-3115
1027.076	-1747
1027.144	-1867
1027.211	-3051
1027.278	-2701
1027.345	-2465
1027.413	-1611
1027.480	-2387
1027.547	-2693
1027.614	-2245
1027.682	-2578
1027.749	-1953
1027.816	-2825
1027.883	-2057
1027.950	-2068
1028.017	-1387
1028.084	-2515
1028.151	-2027
1028.218	-1613
1028.285	-2275
1028.352	-1902
1028.419	-2436
1028.486	-2122
1028.553	-2911
1028.619	-2374
1028.686	-1947
1028.753	-2026
1028.820	-2823
1028.886	-2724
1028.953	-1793
1029.020	-2176
1029.086	-1893
1029.153	-2359
1029.220	-2581
1029.286	-2612
1029.353	-2208
1029.419	-2795
1029.486	-1723
1029.552	-1986
1029.619	-2884
1029.685	-2798
1029.751	-2903
1029.818	-1915
1029.884	-1926
1029.951	-2029
1030.017	-1964
1030.083	-2728
1030.149	-2530
1030.216	-2681
1030.282	-2182
1030.348	-2105
1030.414	-2142
1030.480	-3081
1030.546	-2162
1030.612	-2368
1030.678	-2570
1030.744	-2269
1030.810	-2392
1030.876	-1402
1030.942	-2238
1031.008	-3096
1031.074	-2526
1031.140	-2379
1031.206	-2152
1031.272	-2673
1031.337	-2267
1031.403	-2602
1031.469	-2352
1031.534	-1980
1031.600	-1550
1031.666	-2859
1031.731	-2343
1031.797	-2187
1031.863	-2066
1031.928	-1879
1031.994	-2130
1032.059	-2532
1032.125	-2044
1032.190	-2605
1032.256	-2961
1032.321	-3288
1032.386	-2528
1032.452	-2122
1032.517	-2171
1032.582	-2607
1032.647	-1891
1032.713	-3103
1032.778	-2649
1032.843	-3026
1032.908	-2472
1032.974	-2479
1033.039	-2175
1033.104	-3125
1033.169	-2232
1033.234	-2495
1033.299	-1796
1033.364	-2672
1033.429	-2220
1033.494	-2704
1033.559	-2276
1033.624	-2517
1033.688	-2340
1033.753	-2970
1033.818	-2502
1033.883	-2667
1033.948	-1832
1034.013	-3027
1034.077	-2232
1034.142	-2856
1034.207	-2725
1034.271	-2685
1034.336	-2330
1034.400	-2814
1034.465	-2470
1034.530	-2267
1034.594	-2356
1034.658	-2630
1034.723	-2488
1034.787	-2418
1034.852	-1950
1034.916	-2926
1034.981	-3051
1035.045	-2463
1035.109	-2199
1035.173	-2914
1035.238	-2460
1035.302	-2163
1035.366	-2683
1035.430	-3073
1035.495	-2390
1035.559	-2586
1035.623	-1973
1035.687	-2471
1035.751	-2217
1035.815	-2869
1035.879	-2400
1035.943	-2139
1036.007	-2955
1036.071	-2484
1036.135	-2356
1036.198	-2896
1036.262	-2915
1036.326	-3342
1036.390	-2466
1036.454	-3107
1036.517	-2464
1036.581	-3845
1036.645	-3440
1036.709	-2748
1036.772	-3336
1036.836	-3475
1036.900	-2818
1036.963	-2333
1037.026	-2341
1037.090	-3041
1037.154	-2604
1037.217	-2882
1037.280	-2074
1037.344	-2758
1037.407	-3187
1037.471	-2716
1037.534	-2432
1037.597	-2857
1037.661	-2248
1037.724	-2526
1037.787	-1885
1037.850	-2792
1037.913	-2719
1037.977	-1391
1038.040	-1828
1038.103	-3070
1038.166	-2524
1038.229	-2259
1038.292	-2595
1038.355	-3167
1038.418	-2331
1038.481	-2259
1038.544	-2826
1038.607	-2793
1038.670	-1422
1038.732	-2216
1038.795	-2636
1038.858	-2284
1038.921	-2669
1038.984	-2136
1039.046	-2043
1039.109	-2800
1039.172	-1713
1039.234	-2836
1039.297	-2088
1039.360	-2830
1039.422	-2413
1039.485	-2577
1039.547	-2538
1039.610	-2967
1039.672	-2382
1039.734	-3167
1039.797	-2723
1039.859	-2520
1039.922	-2470
1039.984	-2748
1040.046	-1748
1040.109	-3794
1040.171	-3318
1040.233	-3460
1040.295	-2748
1040.358	-3538
1040.420	-2758
1040.482	-2903
1040.544	-2268
1040.606	-2423
1040.668	-2803
1040.730	-3067
1040.792	-2202
1040.854	-3491
1040.916	-3111
1040.978	-3434
1041.040	-1946
1041.102	-2917
1041.164	-2017
1041.225	-2740
1041.287	-2036
1041.349	-2951
1041.411	-3493
1041.472	-2516
1041.534	-3161
1041.596	-2696
1041.657	-2829
1041.719	-2908
1041.781	-2001
1041.842	-2859
1041.904	-2437
1041.965	-2779
1042.027	-2381
1042.088	-2719
1042.150	-2296
1042.211	-2862
1042.272	-2207
1042.334	-3104
1042.395	-2150
1042.456	-2898
1042.518	-2040
1042.579	-2628
1042.640	-2830
1042.701	-2926
1042.763	-2838
1042.824	-2504
1042.885	-2911
1042.946	-2417
1043.007	-2036
1043.068	-2159
1043.129	-1824
1043.190	-2354
1043.251	-2000
1043.312	-2602
1043.373	-2099
1043.434	-2560
1043.495	-1994
1043.556	-3021
1043.616	-2319
1043.677	-2472
1043.738	-2357
1043.799	-2417
1043.859	-2417
1043.920	-3026
1043.981	-2213
1044.041	-2206
1044.102	-2723
1044.162	-2972
1044.223	-2118
1044.284	-2909
1044.344	-2911
1044.405	-2602
1044.465	-2232
1044.525	-2578
1044.586	-2524
1044.646	-2680
1044.707	-1458
1044.767	-3288
1044.827	-2165
1044.887	-2870
1044.948	-2250
1045.008	-2500
1045.068	-1841
1045.128	-2838
1045.188	-2660
1045.249	-1857
1045.309	-1779
1045.369	-2419
1045.429	-2314
1045.489	-2091
1045.549	-2713
1045.609	-2676
1045.669	-1986
1045.729	-1582
1045.789	-1514
1045.848	-2691
1045.908	-1741
1045.968	-1842
1046.028	-2379
1046.088	-2334
1046.147	-2766
1046.207	-1986
1046.267	-1781
1046.326	-803
1046.386	-2382
1046.446	-1808
1046.505	-1923
1046.565	-2150
1046.624	-1164
1046.684	-1653
1046.743	-498
1046.803	-1538
1046.862	-579
1046.922	0
