'Start Wavelength	183.907
'End Wavelength	1046.922
'Gate Delay	5.000
'Gate Width (ms)	1.050
'Laser Output Level	0.000
'X Position	0.000
'Y Position	0.000
'Z Position	0.000
'Grid Point Number	1.000
'Shot Number	100.000
183.907	315.000
183.977	85.000
184.047	390
184.116	656
184.186	353
184.256	49
184.325	344
184.395	-205
184.465	1499
184.534	441
184.604	-105
184.674	1080
184.743	-627
184.813	283
184.883	375
184.952	323
185.022	-12
185.092	894
185.161	-100
185.231	389
185.301	-147
185.370	89
185.440	443
185.509	-49
185.579	-25
185.649	442
185.718	880
185.788	778
185.857	-44
185.927	-533
185.996	260
186.066	340
186.136	-212
186.205	62
186.275	-276
186.344	143
186.414	-105
186.483	-5
186.553	301
186.622	612
186.692	851
186.761	648
186.831	677
186.900	-486
186.970	870
187.039	101
187.109	72
187.178	522
187.248	257
187.317	346
187.387	-318
187.456	686
187.526	476
187.595	353
187.664	-375
187.734	751
187.803	-566
187.873	152
187.942	231
188.012	-88
188.081	460
188.150	74
188.220	880
188.289	734
188.358	513
188.428	1148
188.497	-472
188.567	289
188.636	138
188.705	233
188.775	282
188.844	-325
188.913	718
188.983	-344
189.052	92
189.121	-346
189.191	-425
189.260	982
189.329	-345
189.399	-24
189.468	-892
189.537	41
189.606	506
189.676	516
189.745	472
189.814	-75
189.883	411
189.953	93
190.022	936
190.091	-77
190.161	-480
190.230	604
190.299	-599
190.368	236
190.437	-433
190.507	351
190.576	271
190.645	645
190.714	409
190.783	499
190.853	871
190.922	488
190.991	-562
191.060	541
191.129	-514
191.198	325
191.268	-357
191.337	576
191.406	135
191.475	384
191.544	-521
191.613	1189
191.682	-243
191.752	747
191.821	430
191.890	-429
191.959	425
192.028	323
192.097	37
192.166	319
192.235	-728
192.304	937
192.373	136
192.442	662
192.511	-43
192.580	11
192.650	284
192.719	-86
192.788	1200
192.857	449
192.926	-300
192.995	440
193.064	-307
193.133	1123
193.202	-529
193.271	697
193.340	385
193.409	345
193.478	764
193.547	-622
193.615	-40
193.684	359
193.753	457
193.822	519
193.891	-761
193.960	417
194.029	-156
194.098	72
194.167	-458
194.236	498
194.305	577
194.374	942
194.443	-248
194.512	517
194.580	604
194.649	630
194.718	-73
194.787	317
194.856	-1154
194.925	11
194.994	-397
195.062	46
195.131	275
195.200	-124
195.269	-335
195.338	276
195.407	90
195.475	141
195.544	21
195.613	238
195.682	225
195.751	485
195.819	-153
195.888	587
195.957	828
196.026	-177
196.094	946
196.163	683
196.232	950
196.301	34
196.369	434
196.438	57
196.507	276
196.576	5
196.644	-264
196.713	50
196.782	-9
196.850	58
196.919	474
196.988	169
197.056	-423
197.125	333
197.194	-272
197.262	501
197.331	577
197.400	415
197.468	285
197.537	317
197.606	79
197.674	1098
197.743	-31
197.812	-609
197.880	-819
197.949	-588
198.017	48
198.086	-74
198.155	-1073
198.223	227
198.292	10
198.360	11
198.429	-676
198.497	323
198.566	-75
198.635	-10
198.703	-83
198.772	567
198.840	368
198.909	488
198.977	14
199.046	93
199.114	-14
199.183	-444
199.251	-226
199.320	-609
199.388	499
199.457	-320
199.525	-433
199.594	-96
199.662	-343
199.731	-294
199.799	-402
199.867	375
199.936	-245
200.004	-14
200.073	748
200.141	33
200.210	-738
200.278	-161
200.346	676
200.415	634
200.483	-267
200.552	26
200.620	-166
200.688	61
200.757	-209
200.825	656
200.893	-755
200.962	313
201.030	368
201.098	226
201.167	-195
201.235	212
201.303	270
201.372	-35
201.440	645
201.508	453
201.577	411
201.645	-61
201.713	-210
201.781	-234
201.850	169
201.918	431
201.986	-774
202.055	765
202.123	-650
202.191	-217
202.259	-407
202.327	625
202.396	-126
202.464	-275
202.532	146
202.600	1302
202.669	726
202.737	-435
202.805	-58
202.873	-161
202.941	699
203.009	340
203.078	364
203.146	269
203.214	-1289
203.282	-1226
203.350	616
203.418	426
203.487	352
203.555	575
203.623	-191
203.691	-730
203.759	-784
203.827	-310
203.895	-259
203.963	-171
204.031	-809
204.099	23
204.168	-295
204.236	258
204.304	96
204.372	-720
204.440	-350
204.508	-495
204.576	-1291
204.644	267
204.712	-245
204.780	565
204.848	-229
204.916	-100
204.984	82
205.052	6
205.120	-95
205.188	-129
205.256	-577
205.324	-732
205.392	-1001
205.460	10
205.528	-739
205.596	273
205.664	-316
205.732	-378
205.799	-127
205.867	-234
205.935	-858
206.003	192
206.071	147
206.139	-606
206.207	490
206.275	-281
206.343	-1694
206.411	70
206.478	-491
206.546	20
206.614	-17
206.682	54
206.750	-39
206.818	390
206.885	546
206.953	-1208
207.021	819
207.089	-127
207.157	238
207.225	228
207.292	-308
207.360	-581
207.428	-628
207.496	-496
207.563	19
207.631	811
207.699	-134
207.767	-309
207.834	-356
207.902	-511
207.970	-334
208.038	5
208.105	-347
208.173	-184
208.241	421
208.309	130
208.376	-198
208.444	-50
208.512	-23
208.579	-1176
208.647	64
208.715	734
208.782	-415
208.850	166
208.918	130
208.985	51
209.053	-492
209.120	-558
209.188	-744
209.256	-397
209.323	-427
209.391	-368
209.459	465
209.526	-298
209.594	-344
209.661	-225
209.729	-148
209.796	202
209.864	544
209.932	-938
209.999	329
210.067	-533
210.134	-892
210.202	-1284
210.269	349
210.337	531
210.404	-174
210.472	557
210.539	174
210.607	-265
210.674	-339
210.742	-146
210.809	-1001
210.877	-519
210.944	140
211.012	-604
211.079	628
211.146	-31
211.214	-178
211.281	927
211.349	19
211.416	83
211.484	229
211.551	-344
211.618	-56
211.686	-268
211.753	-240
211.821	168
211.888	-996
211.955	-313
212.023	-299
212.090	38
212.157	148
212.225	17
212.292	272
212.359	-657
212.427	426
212.494	56
212.561	587
212.629	270
212.696	-944
212.763	-118
212.831	-866
212.898	500
212.965	-44
213.032	-264
213.100	-421
213.167	-444
213.234	772
213.301	-11
213.369	-476
213.436	-262
213.503	-627
213.570	195
213.638	-515
213.705	-415
213.772	-1500
213.839	-114
213.906	-1161
213.973	151
214.041	-1238
214.108	-249
214.175	270
214.242	-424
214.309	-484
214.376	-223
214.444	-600
214.511	-107
214.578	-503
214.645	79
214.712	-182
214.779	-445
214.846	-622
214.913	213
214.980	352
215.048	568
215.115	801
215.182	531
215.249	157
215.316	-990
215.383	54
215.450	736
215.517	-176
215.584	-321
215.651	-195
215.718	363
215.785	-127
215.852	-634
215.919	-548
215.986	-144
216.053	558
216.120	-642
216.187	297
216.254	-283
216.321	-439
216.388	286
216.455	-183
216.522	231
216.589	-246
216.656	-686
216.722	-425
216.789	222
216.856	-441
216.923	194
216.990	236
217.057	284
217.124	-391
217.191	-594
217.258	180
217.324	-262
217.391	395
217.458	-836
217.525	70
217.592	-139
217.659	-1697
217.725	528
217.792	-717
217.859	534
217.926	-1060
217.993	-561
218.059	600
218.126	298
218.193	-446
218.260	-653
218.327	-781
218.393	2
218.460	-388
218.527	-138
218.594	31
218.660	131
218.727	510
218.794	-766
218.860	287
218.927	-299
218.994	-362
219.061	-359
219.127	-565
219.194	201
219.261	-252
219.327	-164
219.394	182
219.461	-469
219.527	-344
219.594	287
219.661	-757
219.727	-1174
219.794	43
219.860	-315
219.927	-95
219.994	556
220.060	1729
220.127	2534
220.193	1126
220.260	-366
220.326	992
220.393	-330
220.460	-302
220.526	89
220.593	-518
220.659	626
220.726	-783
220.792	474
220.859	109
220.925	292
220.992	-258
221.058	488
221.125	382
221.191	583
221.258	-584
221.324	153
221.391	-87
221.457	-424
221.524	-772
221.590	22
221.657	-28
221.723	-158
221.789	-742
221.856	745
221.922	-580
221.989	222
222.055	-548
222.121	-1459
222.188	808
222.254	-153
222.321	-285
222.387	-572
222.453	6
222.520	-452
222.586	-858
222.652	-200
222.719	-1024
222.785	-346
222.851	-536
222.918	-131
222.984	287
223.050	-464
223.116	-986
223.183	647
223.249	-918
223.315	-378
223.382	-890
223.448	677
223.514	-785
223.580	-286
223.647	-256
223.713	-592
223.779	-666
223.845	-1039
223.911	-123
223.978	-570
224.044	-398
224.110	-393
224.176	-482
224.242	-387
224.309	-1146
224.375	-230
224.441	-135
224.507	-805
224.573	-1439
224.639	521
224.705	-856
224.772	245
224.838	-553
224.904	510
224.970	-783
225.036	-601
225.102	-881
225.168	-394
225.234	-6
225.300	-452
225.366	-539
225.432	599
225.499	-219
225.565	-779
225.631	-554
225.697	350
225.763	-77
225.829	-411
225.895	-534
225.961	-668
226.027	-871
226.093	-437
226.159	-269
226.225	479
226.291	-136
226.357	-131
226.423	176
226.489	-477
226.554	-239
226.620	-402
226.686	-525
226.752	-46
226.818	-41
226.884	858
226.950	805
227.016	83
227.082	-161
227.148	88
227.214	-222
227.279	-1310
227.345	-634
227.411	694
227.477	1126
227.543	3914
227.609	2771
227.674	2577
227.740	-87
227.806	101
227.872	-455
227.938	96
228.003	74
228.069	-261
228.135	-574
228.201	-146
228.267	-1153
228.332	-198
228.398	-1903
228.464	-523
228.530	-505
228.595	158
228.661	-1345
228.727	-1128
228.792	54
228.858	-377
228.924	-2618
228.990	1279
229.055	-1319
229.121	-416
229.187	-537
229.252	-817
229.318	-1334
229.384	596
229.449	-345
229.515	-1687
229.581	-978
229.646	1391
229.712	-480
229.777	-5
229.843	-359
229.909	-109
229.974	-195
230.040	-32
230.105	-594
230.171	-510
230.236	192
230.302	-87
230.368	-584
230.433	-1392
230.499	-118
230.564	715
230.630	-1612
230.695	341
230.761	-24
230.826	-1212
230.892	934
230.957	-1416
231.023	-1228
231.088	-187
231.154	-967
231.219	416
231.284	-1564
231.350	604
231.415	-1044
231.481	-474
231.546	-897
231.612	-284
231.677	-1186
231.742	-1728
231.808	632
231.873	-669
231.939	-2093
232.004	1000
232.069	1090
232.135	-688
232.200	-275
232.265	305
232.331	-543
232.396	-1305
232.461	-1374
232.527	-574
232.592	-1143
232.657	-871
232.723	-421
232.788	-824
232.853	-518
232.918	645
232.984	-1161
233.049	-1151
233.114	-1450
233.179	514
233.245	-160
233.310	-32
233.375	-1939
233.440	-251
233.506	-775
233.571	-594
233.636	-573
233.701	-806
233.766	-1077
233.832	-25
233.897	-457
233.962	-1826
234.027	530
234.092	-284
234.157	-431
234.222	-644
234.288	-1093
234.353	109
234.418	-259
234.483	556
234.548	-593
234.613	-540
234.678	-27
234.743	-1397
234.808	1323
234.873	-1672
234.938	901
235.004	-204
235.069	-814
235.134	-1310
235.199	-383
235.264	-223
235.329	-1985
235.394	-498
235.459	185
235.524	-918
235.589	-123
235.654	-1225
235.719	-1137
235.784	-195
235.849	-223
235.913	-198
235.978	-758
236.043	-574
236.108	-889
236.173	-1033
236.238	423
236.303	-1536
236.368	-1276
236.433	424
236.498	-1124
236.563	68
236.627	-911
236.692	1196
236.757	567
236.822	-738
236.887	-1702
236.952	420
237.017	-1923
237.081	375
237.146	-1215
237.211	1249
237.276	398
237.341	2632
237.405	-11
237.470	-94
237.535	-835
237.600	-674
237.664	239
237.729	-1268
237.794	-1429
237.859	886
237.923	-1242
237.988	-567
238.053	149
238.118	-221
238.182	-517
238.247	946
238.312	-1258
238.376	612
238.441	-1205
238.506	150
238.570	-2015
238.635	927
238.700	-713
238.764	-652
238.829	-512
238.893	-891
238.958	635
239.023	-1052
239.087	-725
239.152	546
239.216	-125
239.281	668
239.346	-310
239.410	-1005
239.475	-913
239.539	1418
239.604	-954
239.668	1072
239.733	271
239.797	1984
239.862	6443
239.926	3705
239.991	2359
240.055	657
240.120	-1421
240.184	-82
240.249	-883
240.313	535
240.378	-387
240.442	-279
240.507	190
240.571	-434
240.635	-571
240.700	-792
240.764	108
240.829	7
240.893	-811
240.957	7
241.022	-407
241.086	708
241.151	-1639
241.215	-2277
241.279	519
241.344	-893
241.408	-493
241.472	-1573
241.537	72
241.601	-270
241.665	-1718
241.730	-1477
241.794	919
241.858	-1629
241.922	-309
241.987	-236
242.051	-862
242.115	-1575
242.179	42
242.244	-1019
242.308	-323
242.372	-694
242.436	-912
242.501	-52
242.565	-1488
242.629	-1151
242.693	331
242.757	-479
242.822	-452
242.886	-129
242.950	-75
243.014	-1080
243.078	-203
243.142	-452
243.206	-785
243.271	-44
243.335	-768
243.399	86
243.463	-715
243.527	1555
243.591	-1320
243.655	-24
243.719	-1686
243.783	333
243.847	-271
243.911	188
243.975	-984
244.040	-1564
244.104	129
244.168	-386
244.232	-935
244.296	-951
244.360	-112
244.424	-1237
244.488	96
244.552	-468
244.615	-2477
244.679	256
244.743	-366
244.807	-716
244.871	-359
244.935	-580
244.999	-1650
245.063	-1020
245.127	433
245.191	-56
245.255	-1103
245.319	-361
245.383	-1333
245.446	636
245.510	-1457
245.574	-51
245.638	75
245.702	-1271
245.766	516
245.829	1319
245.893	-1065
245.957	-647
246.021	172
246.085	-915
246.149	-796
246.212	996
246.276	-141
246.340	201
246.404	-726
246.467	354
246.531	-2473
246.595	471
246.659	175
246.722	-1611
246.786	-127
246.850	-162
246.913	-428
246.977	-1635
247.041	-227
247.104	-469
247.168	-617
247.232	-397
247.295	784
247.359	636
247.423	-547
247.486	89
247.550	923
247.614	-777
247.677	-906
247.741	174
247.804	-356
247.868	-298
247.932	-924
247.995	2048
248.059	-955
248.122	-1267
248.186	576
248.249	-262
248.313	1857
248.376	2533
248.440	521
248.503	-1582
248.567	792
248.630	-771
248.694	-443
248.757	1850
248.821	2174
248.884	1788
248.948	-189
249.011	2103
249.075	2803
249.138	3090
249.202	599
249.265	-1393
249.328	1032
249.392	-1055
249.455	-571
249.519	-270
249.582	30
249.645	790
249.709	-330
249.772	-606
249.835	-633
249.899	-950
249.962	411
250.025	-1051
250.089	-295
250.152	2173
250.215	155
250.279	-1086
250.342	-533
250.405	-382
250.468	-1139
250.532	-668
250.595	542
250.658	1163
250.721	4786
250.785	563
250.848	764
250.911	-603
250.974	131
251.038	-510
251.101	1480
251.164	-441
251.227	733
251.290	-189
251.354	263
251.417	2839
251.480	2451
251.543	989
251.606	6666
251.669	4170
251.732	1326
251.795	1388
251.859	1537
251.922	3174
251.985	2344
252.048	769
252.111	-100
252.174	-640
252.237	529
252.300	3392
252.363	1364
252.426	7363
252.489	1183
252.552	509
252.615	-535
252.678	378
252.741	1462
252.804	1733
252.867	7428
252.930	3049
252.993	1417
253.056	986
253.119	-501
253.182	-95
253.245	-521
253.308	-35
253.371	-1094
253.434	35
253.497	-830
253.559	821
253.622	766
253.685	227
253.748	702
253.811	-215
253.874	973
253.937	-782
254.000	-200
254.062	200
254.125	1601
254.188	1953
254.251	-288
254.314	-462
254.376	-848
254.439	777
254.502	-88
254.565	-293
254.628	2055
254.690	-67
254.753	-749
254.816	-379
254.878	-459
254.941	578
255.004	891
255.067	-424
255.129	-687
255.192	466
255.255	-1418
255.317	-101
255.380	-205
255.443	-1156
255.505	-97
255.568	-654
255.631	-506
255.693	-2
255.756	-1237
255.819	102
255.881	-220
255.944	-58
256.006	-586
256.069	-598
256.132	-924
256.194	-673
256.257	-332
256.319	546
256.382	-828
256.444	574
256.507	-115
256.569	-862
256.632	-774
256.694	-1273
256.757	-211
256.819	1305
256.882	-878
256.944	-844
257.007	216
257.069	-1082
257.132	-253
257.194	261
257.257	-754
257.319	-532
257.381	-1514
257.444	841
257.506	1994
257.569	2768
257.631	1232
257.693	191
257.756	-15
257.818	-509
257.880	-1269
257.943	413
258.005	-1234
258.067	-217
258.130	-257
258.192	-292
258.254	55
258.317	-274
258.379	449
258.441	613
258.503	121
258.566	-98
258.628	46
258.690	-850
258.753	557
258.815	148
258.877	-1194
258.939	-1011
259.001	-357
259.064	-152
259.126	-1087
259.188	-508
259.250	-222
259.312	1
259.375	-655
259.437	-45
259.499	-966
259.561	-453
259.623	-688
259.685	-1464
259.747	89
259.809	399
259.872	203
259.934	1450
259.996	875
260.058	1086
260.120	-887
260.182	33
260.244	-226
260.306	227
260.368	-937
260.430	-825
260.492	234
260.554	880
260.616	-646
260.678	-49
260.740	803
260.802	-696
260.864	-247
260.926	-1433
260.988	1045
261.050	-51
261.112	-592
261.174	1230
261.236	611
261.298	-684
261.359	-564
261.421	1360
261.483	-1373
261.545	535
261.607	-1654
261.669	-119
261.731	-194
261.793	252
261.854	-1707
261.916	540
261.978	-1009
262.040	214
262.102	-407
262.164	-1121
262.225	-224
262.287	-337
262.349	-505
262.411	9
262.472	553
262.534	514
262.596	40
262.658	-135
262.719	-1000
262.781	142
262.843	-685
262.904	276
262.966	-146
263.028	-149
263.090	587
263.151	1905
263.213	-114
263.275	-235
263.336	-397
263.398	354
263.459	-641
263.521	13
263.583	258
263.644	283
263.706	-586
263.767	-1084
263.829	104
263.891	-234
263.952	-1761
264.014	-1081
264.075	-396
264.137	-391
264.198	378
264.260	-591
264.321	-590
264.383	-791
264.444	-757
264.506	-1328
264.567	-563
264.629	197
264.690	-2244
264.752	-889
264.813	236
264.875	-1325
264.936	-498
264.998	-587
265.059	-827
265.120	-223
265.182	-511
265.243	-297
265.305	31
265.366	366
265.427	-372
265.489	-153
265.550	-1291
265.611	30
265.673	-657
265.734	-470
265.795	574
265.857	-919
265.918	-716
265.979	219
266.040	-94
266.102	309
266.163	557
266.224	-388
266.286	-703
266.347	-986
266.408	-732
266.469	328
266.530	-546
266.592	-845
266.653	506
266.714	284
266.775	-569
266.836	231
266.898	-297
266.959	-229
267.020	-34
267.081	862
267.142	-596
267.203	123
267.264	-206
267.326	278
267.387	-15
267.448	-418
267.509	234
267.570	17
267.631	-612
267.692	-536
267.753	-520
267.814	-1078
267.875	514
267.936	482
267.997	-1182
268.058	281
268.119	-610
268.180	-524
268.241	-73
268.302	-685
268.363	-759
268.424	-380
268.485	-229
268.546	-1730
268.607	-486
268.668	-935
268.729	-430
268.790	-875
268.851	-834
268.912	-641
268.972	186
269.033	-279
269.094	-791
269.155	-47
269.216	-164
269.277	-695
269.338	-52
269.398	-462
269.459	-1036
269.520	-85
269.581	-136
269.642	-284
269.702	-943
269.763	-252
269.824	-604
269.885	-440
269.945	226
270.006	-471
270.067	-744
270.128	-766
270.188	-1237
270.249	-740
270.310	-1179
270.370	-82
270.431	-966
270.492	-574
270.553	-971
270.613	-123
270.674	217
270.734	-319
270.795	-663
270.856	-192
270.916	-228
270.977	471
271.038	-114
271.098	-489
271.159	-1426
271.219	-184
271.280	-280
271.340	420
271.401	-706
271.462	-139
271.522	-204
271.583	331
271.643	-101
271.704	170
271.764	576
271.825	-76
271.885	1817
271.946	3776
272.006	641
272.066	1079
272.127	2890
272.187	2716
272.248	1335
272.308	3
272.369	2536
272.429	748
272.489	1099
272.550	535
272.610	707
272.671	255
272.731	680
272.791	-316
272.852	-480
272.912	780
272.972	-30
273.033	-211
273.093	-397
273.153	54
273.214	61
273.274	1555
273.334	1675
273.394	4047
273.455	2122
273.515	2634
273.575	2988
273.635	2762
273.696	2394
273.756	5092
273.816	2880
273.876	1840
273.936	765
273.997	1547
274.057	265
274.117	-40
274.177	189
274.237	2871
274.297	3306
274.358	896
274.418	1407
274.478	961
274.538	-66
274.598	-695
274.658	701
274.718	1187
274.778	-51
274.838	-490
274.898	-1143
274.958	1667
275.018	2040
275.078	1501
275.138	-40
275.198	-641
275.258	-641
275.318	-330
275.378	-783
275.438	372
275.498	326
275.558	453
275.618	1426
275.678	1040
275.738	462
275.798	260
275.858	-1168
275.918	-463
275.978	-10
276.038	276
276.098	-738
276.157	124
276.217	700
276.277	-195
276.337	58
276.397	-587
276.457	-105
276.517	-152
276.576	436
276.636	87
276.696	-118
276.756	-384
276.815	184
276.875	587
276.935	-800
276.995	65
277.055	-263
277.114	897
277.174	132
277.234	1468
277.293	144
277.353	287
277.413	275
277.472	669
277.532	-114
277.592	1150
277.651	5374
277.711	14594
277.771	4760
277.830	13443
277.890	14129
277.950	8671
278.009	26348
278.069	12199
278.128	10269
278.188	17224
278.248	7830
278.307	16248
278.367	11066
278.426	3116
278.486	1323
278.545	814
278.605	1163
278.664	1198
278.724	309
278.783	1982
278.843	4571
278.902	1336
278.962	1503
279.021	1201
279.081	3134
279.140	3774
279.199	1677
279.259	2348
279.318	3329
279.378	4851
279.437	7522
279.496	20577
279.556	60959
279.615	56782
279.675	19112
279.734	10317
279.793	9873
279.853	13045
279.912	5309
279.971	4530
280.031	3949
280.090	5278
280.149	8815
280.208	11576
280.268	41089
280.327	50593
280.386	14476
280.445	7364
280.505	4958
280.564	3337
280.623	2155
280.682	2243
280.742	2786
280.801	1169
280.860	1170
280.919	1035
280.978	1063
281.037	943
281.097	565
281.156	1676
281.215	114
281.274	382
281.333	2996
281.392	1890
281.451	851
281.510	978
281.569	939
281.628	637
281.688	562
281.747	680
281.806	663
281.865	1110
281.924	-231
281.983	324
282.042	233
282.101	-135
282.160	571
282.219	166
282.278	-406
282.337	1104
282.396	4
282.454	1008
282.513	217
282.572	1104
282.631	1094
282.690	733
282.749	-119
282.808	201
282.867	395
282.926	171
282.985	692
283.043	460
283.102	670
283.161	987
283.220	739
283.279	3378
283.338	829
283.396	691
283.455	619
283.514	1294
283.573	845
283.631	1196
283.690	956
283.749	1099
283.808	2159
283.866	1151
283.925	1210
283.984	1965
284.043	1187
284.101	2000
284.160	1574
284.219	2825
284.277	4261
284.336	3536
284.395	4211
284.453	4978
284.512	4601
284.570	5267
284.629	7110
284.688	8851
284.746	10281
284.805	13228
284.863	16582
284.922	21548
284.981	27292
285.039	34785
285.098	47671
285.156	57066
285.215	39277
285.273	33695
285.332	54106
285.390	52241
285.449	39199
285.507	30479
285.566	22101
285.624	18483
285.683	13184
285.741	11510
285.799	8697
285.858	7515
285.916	6488
285.975	5011
286.033	3958
286.091	4441
286.150	2841
286.208	2968
286.267	2940
286.325	2684
286.383	2407
286.442	2285
286.500	1896
286.558	1711
286.616	2012
286.675	1853
286.733	1938
286.791	636
286.850	1134
286.908	701
286.966	1881
287.024	972
287.083	562
287.141	1308
287.199	610
287.257	1291
287.315	997
287.374	728
287.432	792
287.490	777
287.548	49
287.606	-60
287.664	9
287.723	972
287.781	592
287.839	655
287.897	-23
287.955	528
288.013	341
288.071	1003
288.129	3355
288.187	17208
288.245	7365
288.303	2289
288.361	891
288.419	884
288.477	-636
288.535	312
288.593	-261
288.651	457
288.709	-1005
288.767	327
288.825	-25
288.883	-259
288.941	-94
288.999	-742
289.057	-406
289.115	-317
289.173	79
289.231	655
289.289	-110
289.346	-263
289.404	209
289.462	-146
289.520	1208
289.578	-125
289.636	-289
289.694	-324
289.751	-97
289.809	392
289.867	-315
289.925	330
289.983	-409
290.040	685
290.098	-632
290.156	-447
290.214	7
290.271	-188
290.329	211
290.387	-604
290.444	421
290.502	-556
290.560	-449
290.617	-409
290.675	-716
290.733	-477
290.790	-273
290.848	95
290.906	-975
290.963	-75
291.021	240
291.078	410
291.136	-497
291.194	-256
291.251	73
291.309	-575
291.366	-486
291.424	697
291.481	-482
291.539	545
291.596	872
291.654	-284
291.711	327
291.769	476
291.826	715
291.884	195
291.941	-50
291.999	-233
292.056	-616
292.114	-490
292.171	-214
292.228	649
292.286	-175
292.343	120
292.401	340
292.458	49
292.515	-447
292.573	83
292.630	48
292.687	175
292.745	-595
292.802	-130
292.859	777
292.917	2217
292.974	436
293.031	121
293.089	-263
293.146	-257
293.203	332
293.260	937
293.318	-197
293.375	7
293.432	-875
293.489	560
293.546	377
293.604	585
293.661	1639
293.718	5289
293.775	2343
293.832	2106
293.889	2391
293.947	2031
294.004	-42
294.061	331
294.118	416
294.175	2381
294.232	3314
294.289	2423
294.346	120
294.403	798
294.460	-505
294.517	-321
294.574	-180
294.631	-428
294.688	44
294.745	24
294.802	2652
294.859	2289
294.916	463
294.973	905
295.030	-134
295.087	34
295.144	-380
295.201	709
295.258	-1102
295.315	869
295.372	125
295.429	3088
295.486	1229
295.542	-538
295.599	-179
295.656	891
295.713	46
295.770	2682
295.827	340
295.883	226
295.940	-579
295.997	-469
296.054	-60
296.111	-718
296.167	149
296.224	-660
296.281	-1063
296.338	520
296.394	-861
296.451	-630
296.508	582
296.564	1236
296.621	514
296.678	2507
296.734	3796
296.791	736
296.848	-157
296.904	233
296.961	626
297.018	2444
297.074	1407
297.131	-135
297.187	63
297.244	864
297.301	2434
297.357	6944
297.414	1712
297.470	545
297.527	-469
297.583	-46
297.640	-903
297.696	110
297.753	-1032
297.809	-392
297.866	-200
297.922	-82
297.979	-930
298.035	-633
298.092	-660
298.148	1260
298.204	978
298.261	-132
298.317	1362
298.374	3860
298.430	2273
298.486	1308
298.543	-415
298.599	-26
298.656	-230
298.712	-782
298.768	-91
298.824	-385
298.881	-550
298.937	-36
298.993	-174
299.050	-750
299.106	-62
299.162	-383
299.218	-136
299.275	-350
299.331	-288
299.387	1061
299.443	4175
299.500	10495
299.556	7520
299.612	2837
299.668	1853
299.724	6677
299.780	8805
299.837	3166
299.893	1836
299.949	6138
300.005	11249
300.061	7088
300.117	13792
300.173	5886
300.229	1773
300.285	801
300.341	2356
300.397	1068
300.453	516
300.510	133
300.566	1431
300.622	2932
300.678	10687
300.734	17052
300.790	8141
300.845	6621
300.901	6074
300.957	11832
301.013	5508
301.069	1576
301.125	1199
301.181	914
301.237	467
301.293	307
301.349	608
301.405	322
301.461	-99
301.516	16
301.572	-624
301.628	-196
301.684	-255
301.740	56
301.796	645
301.851	1073
301.907	396
301.963	1586
302.019	2081
302.074	10049
302.130	10740
302.186	3634
302.242	745
302.297	847
302.353	779
302.409	857
302.464	727
302.520	959
302.576	2552
302.631	3532
302.687	552
302.743	-293
302.798	-336
302.854	314
302.910	37
302.965	-257
303.021	-333
303.076	637
303.132	-546
303.187	616
303.243	206
303.299	-40
303.354	-542
303.410	-168
303.465	-534
303.521	360
303.576	-1005
303.632	19
303.687	158
303.743	2553
303.798	3471
303.853	922
303.909	-37
303.964	-538
304.020	-748
304.075	639
304.130	-552
304.186	238
304.241	1719
304.297	1027
304.352	-301
304.358	-221
304.407	420
304.449	-27
304.463	-175
304.518	-311
304.539	-413
304.573	-582
304.629	560
304.630	543
304.684	-190
304.720	753
304.739	1217
304.794	3510
304.811	3103
304.850	2097
304.902	441
304.905	335
304.960	153
304.992	-184
305.015	-423
305.071	41
305.083	-35
305.126	-361
305.173	-316
305.181	-293
305.236	-635
305.264	-444
305.292	-320
305.347	-15
305.354	-16
305.402	62
305.445	-490
305.457	-649
305.512	102
305.535	76
305.567	23
305.622	-441
305.626	-418
305.678	130
305.716	1121
305.733	1485
305.788	3332
305.807	2953
305.843	2480
305.897	3204
305.898	3205
305.953	4248
305.988	2422
306.008	1418
306.063	446
306.078	316
306.118	200
306.168	-406
306.173	-475
306.228	127
306.259	170
306.283	270
306.338	-507
306.349	-346
306.393	194
306.440	-92
306.448	-110
306.503	-77
306.530	194
306.558	390
306.613	255
306.620	293
306.668	958
306.711	1980
306.723	2068
306.778	1465
306.801	1194
306.833	1071
306.888	-47
306.892	-2
306.943	531
306.982	22
306.997	-114
307.052	86
307.072	112
307.107	159
307.162	485
307.163	488
307.217	881
307.253	679
307.272	572
307.327	-126
307.343	117
307.381	610
307.434	457
307.436	470
307.491	944
307.524	1423
307.546	1556
307.600	2080
307.614	1798
307.655	900
307.704	709
307.710	733
307.765	482
307.795	664
307.819	727
307.874	623
307.885	658
307.929	1033
307.975	1578
307.984	1667
308.038	2065
308.065	2070
308.093	3127
308.148	6793
308.156	7644
308.202	11549
308.246	14930
308.257	14964
308.312	7887
308.336	5587
308.366	4213
308.421	2887
308.426	2791
308.475	2358
308.517	2428
308.530	2416
308.585	2141
308.607	2152
308.639	2262
308.694	2451
308.697	2431
308.748	2497
308.787	2876
308.803	2989
308.857	3020
308.877	3283
308.912	4045
308.967	5152
308.967	5170
309.021	8771
309.058	11380
309.076	12843
309.130	19496
309.148	21062
309.185	28191
309.238	39647
309.239	39833
309.293	51158
309.328	53989
309.348	49818
309.402	30788
309.418	25824
309.457	20159
309.508	14792
309.511	14842
309.566	18312
309.598	21316
309.620	27639
309.674	46085
309.688	51153
309.729	50228
309.778	41804
309.783	40683
309.837	25325
309.868	17734
309.892	15498
309.946	11319
309.959	10696
310.001	9395
310.049	7935
310.055	7729
310.109	5823
310.139	4749
310.163	4063
310.218	2927
310.229	2732
310.272	2944
310.319	3225
310.326	3087
310.381	2050
310.409	1535
310.435	1607
310.489	1742
310.499	1760
310.543	1538
310.589	1403
310.598	1457
310.652	1855
310.679	1841
310.706	1750
310.760	2058
310.769	2044
310.814	1623
310.859	1334
310.868	1365
310.923	1441
310.948	1477
310.977	1462
311.031	1446
311.038	1448
311.085	1277
311.128	994
311.139	981
311.193	970
311.218	917
311.247	1089
311.301	1555
311.308	1605
311.356	1399
311.398	1114
311.410	1105
311.464	1071
311.488	1089
311.518	1317
311.572	1643
311.578	1682
311.626	1180
311.668	639
311.680	773
311.734	1436
311.758	1701
311.788	1476
311.842	1150
311.847	1106
311.896	1553
311.937	1939
311.950	1846
312.004	1425
312.027	1243
312.058	1293
312.112	1362
312.117	1366
312.165	1268
312.207	1177
312.297	1167
312.386	924
312.476	1360
312.566	1273
312.656	1909
312.745	2121
312.835	1861
312.925	1337
313.015	1950
313.104	1809
313.194	1738
313.284	1260
313.374	1250
313.463	2006
313.553	1247
313.643	2859
313.732	1836
313.822	1819
313.912	2661
314.001	1880
314.091	2736
314.180	2058
314.270	2674
314.360	2539
314.449	2295
314.539	2455
314.628	2521
314.718	2322
314.808	2578
314.897	2495
314.987	3889
315.076	3785
315.166	3169
315.255	3243
315.345	3491
315.434	1853
315.524	3667
315.613	3000
315.703	5068
315.792	11035
315.881	39758
315.971	11535
316.060	4185
316.150	3556
316.239	2652
316.328	1628
316.418	3403
316.507	2396
316.597	3702
316.686	3182
316.775	2911
316.865	3307
316.954	2473
317.043	2944
317.133	2284
317.222	2153
317.311	2472
317.400	607
317.490	3740
317.579	2868
317.668	3741
317.757	6051
317.847	19104
317.936	60234
318.025	18194
318.114	15009
318.203	6777
318.293	3460
318.382	4459
318.471	4893
318.560	4440
318.649	3634
318.738	2353
318.828	1732
318.917	1923
319.006	1324
319.095	1775
319.184	2717
319.273	2970
319.362	2134
319.451	1347
319.540	2033
319.629	1946
319.718	2994
319.807	2358
319.896	1000
319.985	3747
320.074	1958
320.163	1051
320.252	2273
320.341	2260
320.430	1895
320.519	2708
320.608	2232
320.697	3884
320.786	2815
320.875	4653
320.964	4986
321.053	4881
321.142	4623
321.230	6876
321.319	6150
321.408	9120
321.497	7426
321.586	6710
321.675	4104
321.764	5075
321.852	4673
321.941	4963
322.030	4109
322.119	4903
322.207	6587
322.296	7300
322.385	8233
322.474	10179
322.562	12247
322.651	8497
322.740	6012
322.829	5353
322.917	4023
323.006	3656
323.095	3859
323.183	2596
323.272	3182
323.361	3027
323.449	3509
323.538	2892
323.626	2771
323.715	1893
323.804	1354
323.892	2485
323.981	3083
324.069	2418
324.158	2349
324.246	1937
324.335	2247
324.424	3004
324.512	1834
324.601	1924
324.689	1934
324.778	2918
324.866	1403
324.954	1346
325.043	1103
325.131	989
325.220	2445
325.308	1402
325.397	1812
325.485	1880
325.574	1797
325.662	1300
325.750	1355
325.839	1994
325.927	595
326.015	1414
326.104	1469
326.192	1266
326.280	1422
326.369	2141
326.457	1384
326.545	2251
326.634	899
326.722	1988
326.810	2262
326.898	1668
326.987	1474
327.075	1478
327.163	2836
327.251	2075
327.340	1940
327.428	2891
327.516	3548
327.604	1984
327.692	1398
327.781	1577
327.869	1322
327.957	875
328.045	702
328.133	2401
328.221	887
328.309	1684
328.397	1939
328.485	2241
328.574	2909
328.662	6148
328.750	2520
328.838	1943
328.926	993
329.014	1478
329.102	959
329.190	2551
329.278	1669
329.366	1285
329.454	758
329.542	1480
329.630	1384
329.718	1329
329.806	1885
329.893	1865
329.981	598
330.069	1333
330.157	1161
330.245	2428
330.333	1889
330.421	2150
330.509	1884
330.597	3919
330.684	2156
330.772	1748
330.860	1618
330.948	1580
331.036	1351
331.123	1764
331.211	1340
331.299	2122
331.387	1552
331.475	2179
331.562	1778
331.650	2467
331.738	1914
331.825	1455
331.913	832
332.001	1916
332.089	1475
332.176	1590
332.264	887
332.352	1827
332.439	1719
332.527	1976
332.614	925
332.702	1620
332.790	1990
332.877	2638
332.965	6342
333.052	6154
333.140	7097
333.228	17443
333.315	3739
333.403	2053
333.490	2453
333.578	7363
333.665	26164
333.753	10691
333.840	3014
333.928	3242
334.015	3663
334.103	3776
334.190	5824
334.278	7170
334.365	10212
334.452	11473
334.540	7565
334.627	5789
334.715	8249
334.802	11265
334.889	19387
334.977	28684
335.064	18102
335.151	8041
335.239	5654
335.326	4044
335.413	4085
335.501	4888
335.588	4914
335.675	5674
335.762	6280
335.850	8190
335.937	14075
336.024	22556
336.111	37575
336.199	36669
336.286	15407
336.373	8575
336.460	5390
336.547	4205
336.635	3275
336.722	2980
336.809	2739
336.896	2533
336.983	2708
337.070	3148
337.157	3067
337.245	3436
337.332	2429
337.419	2462
337.506	2885
337.593	1961
337.680	1723
337.767	3396
337.854	1984
337.941	2264
338.028	2082
338.115	1532
338.202	2846
338.289	2406
338.376	1570
338.463	1934
338.550	1449
338.637	1846
338.724	1385
338.811	2588
338.898	1349
338.984	1897
339.071	1189
339.158	2070
339.245	2108
339.332	2177
339.419	2004
339.506	1716
339.593	452
339.679	3033
339.766	684
339.853	2571
339.940	1463
340.027	1532
340.113	1883
340.200	1220
340.287	1347
340.374	1498
340.460	2060
340.547	922
340.634	2100
340.720	3537
340.807	1362
340.894	2340
340.980	1078
341.067	1521
341.154	1712
341.240	1370
341.327	1045
341.414	2480
341.500	800
341.587	1763
341.674	1453
341.760	2459
341.847	2073
341.933	1212
342.020	657
342.106	1419
342.193	2088
342.279	1589
342.366	451
342.452	1911
342.539	1655
342.625	2185
342.712	2917
342.798	2594
342.885	1314
342.971	989
343.058	889
343.144	1620
343.230	1273
343.317	1942
343.403	861
343.490	1534
343.576	1032
343.662	1297
343.749	1101
343.835	1709
343.921	1867
344.008	9980
344.094	18873
344.180	5122
344.267	1619
344.353	4439
344.439	3847
344.525	1596
344.612	867
344.698	1825
344.784	564
344.870	1354
344.957	558
345.043	2108
345.129	1129
345.215	1665
345.301	818
345.387	1567
345.474	657
345.560	1394
345.646	534
345.732	1525
345.818	313
345.904	1107
345.990	1379
346.076	945
346.162	894
346.249	1584
346.335	710
346.421	2205
346.507	2255
346.593	6294
346.679	849
346.765	3013
346.851	3016
346.937	2262
347.023	2544
347.108	1983
347.194	1473
347.280	2240
347.366	2177
347.452	8176
347.538	12734
347.624	7298
347.710	4206
347.796	1905
347.882	1345
347.967	1580
348.053	1634
348.139	1679
348.225	1402
348.311	1309
348.397	1286
348.482	2572
348.568	1697
348.654	3230
348.740	11137
348.825	8791
348.911	4850
348.997	5247
349.083	8140
349.168	2068
349.254	1999
349.340	1551
349.425	1229
349.511	1559
349.597	1705
349.682	1721
349.768	5080
349.854	2420
349.939	2090
350.025	1830
350.110	1253
350.196	1133
350.282	656
350.367	2010
350.453	1417
350.538	1168
350.624	700
350.709	2126
350.795	1223
350.880	1178
350.966	2270
351.051	1808
351.137	1217
351.222	1367
351.308	2142
351.393	3248
351.479	1175
351.564	1224
351.649	1770
351.735	1919
351.820	808
351.906	1624
351.991	1986
352.076	2681
352.162	2543
352.247	2079
352.332	1275
352.418	964
352.503	1457
352.588	4941
352.673	2928
352.759	1292
352.844	1361
352.929	1601
353.014	480
353.100	2013
353.185	2481
353.270	1467
353.355	2339
353.441	2064
353.526	1339
353.611	1428
353.696	1139
353.781	2000
353.866	318
353.952	2565
354.037	1542
354.122	2639
354.207	2171
354.292	1321
354.377	1957
354.462	2070
354.547	1255
354.632	1869
354.717	2041
354.802	715
354.887	1573
354.972	1776
355.057	839
355.142	1093
355.227	1665
355.312	1717
355.397	1925
355.482	3507
355.567	350
355.652	2463
355.737	2801
355.822	4762
355.907	3569
355.991	2491
356.076	657
356.161	1709
356.246	1211
356.331	2491
356.416	1769
356.501	12096
356.585	8432
356.670	1880
356.755	4025
356.840	2615
356.924	7469
357.009	21778
357.094	7936
357.179	1864
357.263	1559
357.348	2496
357.433	1468
357.517	1764
357.602	1991
357.687	1146
357.771	2781
357.856	2532
357.941	2580
358.025	7090
358.110	24957
358.195	10628
358.279	2005
358.364	2807
358.448	4354
358.533	7777
358.617	5262
358.702	6435
358.787	2524
358.871	2059
358.956	1762
359.040	1543
359.125	1282
359.209	2474
359.294	2863
359.378	3267
359.462	3240
359.547	1882
359.631	1478
359.716	913
359.800	991
359.885	2439
359.969	800
360.053	2382
360.138	994
360.222	2462
360.306	1769
360.391	2280
360.475	1692
360.559	2947
360.644	3262
360.728	2103
360.812	6608
360.896	14449
360.981	5054
361.065	2604
361.149	3015
361.233	1945
361.318	1085
361.402	1627
361.486	2800
361.570	1513
361.654	2344
361.739	3383
361.823	9800
361.907	15313
361.991	4244
362.075	4558
362.159	5476
362.243	11738
362.327	26193
362.411	44436
362.495	15005
362.580	7029
362.664	5610
362.748	6959
362.832	10878
362.916	23222
363.000	72605
363.084	105961
363.168	46462
363.252	12934
363.336	7040
363.420	6366
363.503	4364
363.587	4679
363.671	3954
363.755	4691
363.839	5614
363.923	4440
364.007	5946
364.091	8984
364.175	11758
364.258	30694
364.342	77738
364.426	151358
364.510	77709
364.594	22618
364.677	11472
364.761	15774
364.845	11267
364.929	4483
365.013	3047
365.096	3977
365.180	2896
365.264	3030
365.347	4143
365.431	2803
365.515	1637
365.598	1359
365.682	4152
365.766	990
365.849	1914
365.933	2086
366.017	3073
366.100	1088
366.184	1577
366.267	2646
366.351	1952
366.435	1624
366.518	1639
366.602	2339
366.685	2512
366.769	2067
366.852	2546
366.936	2600
367.019	2420
367.103	1297
367.186	3085
367.270	2643
367.353	1664
367.436	3562
367.520	2344
367.603	2681
367.687	1760
367.770	2732
367.853	3422
367.937	5184
368.020	5926
368.104	2825
368.187	3025
368.270	3007
368.353	1816
368.437	1905
368.520	2173
368.603	2642
368.687	3242
368.770	5816
368.853	1908
368.936	3043
369.020	2686
369.103	1953
369.186	1290
369.269	1491
369.352	2662
369.436	2373
369.519	1905
369.602	412
369.685	3276
369.768	1560
369.851	2159
369.934	1699
370.018	1512
370.101	1221
370.184	3960
370.267	2820
370.350	2685
370.433	4056
370.516	9326
370.599	24389
370.682	8455
370.765	5543
370.848	6743
370.931	7415
371.014	5112
371.097	1637
371.180	3040
371.263	3705
371.346	1181
371.429	3440
371.511	2430
371.594	3003
371.677	3492
371.760	4093
371.843	3823
371.926	12228
372.009	21492
372.091	12096
372.174	5993
372.257	11870
372.340	5839
372.423	4790
372.505	6254
372.588	3369
372.671	5967
372.754	7838
372.836	5550
372.919	4804
373.002	4994
373.085	3181
373.167	4453
373.250	5578
373.332	8906
373.415	15274
373.498	26851
373.580	14721
373.663	37685
373.746	37192
373.828	7098
373.911	5165
373.993	2892
374.076	4060
374.159	3864
374.241	4369
374.324	7661
374.406	6530
374.489	10002
374.571	21942
374.654	8144
374.736	6835
374.819	13893
374.901	21609
374.983	19456
375.066	6136
375.148	4158
375.231	5275
375.313	5376
375.395	3889
375.478	4132
375.560	4209
375.643	3960
375.725	6328
375.807	16229
375.890	12526
375.972	3088
376.054	2865
376.136	2742
376.219	2674
376.301	6344
376.383	12597
376.465	5859
376.548	3387
376.630	4948
376.712	10859
376.794	4804
376.877	1791
376.959	1616
377.041	1931
377.123	1585
377.205	2445
377.287	1920
377.369	2961
377.452	1608
377.534	2538
377.616	1761
377.698	2288
377.780	1397
377.862	2882
377.944	3081
378.026	1584
378.108	2644
378.190	2597
378.272	2746
378.354	1083
378.436	1984
378.518	1372
378.600	1612
378.682	3385
378.764	5378
378.846	4995
378.928	1695
379.010	2365
379.091	2970
379.173	2524
379.255	1532
379.337	1804
379.419	2813
379.501	7036
379.583	4082
379.664	1959
379.746	1454
379.828	6125
379.910	5713
379.991	6324
380.073	1031
380.155	2815
380.237	1894
380.318	2574
380.400	900
380.482	4157
380.564	3263
380.645	3021
380.727	2607
380.809	3513
380.890	2176
380.972	1875
381.053	3112
381.135	3586
381.217	3384
381.298	6440
381.380	4135
381.461	4544
381.543	10791
381.624	13879
381.706	5171
381.787	4166
381.869	4829
381.951	8298
382.032	22381
382.113	16739
382.195	4680
382.276	7853
382.358	7660
382.439	13333
382.521	17277
382.602	25312
382.684	18954
382.765	31740
382.846	76862
382.928	166498
383.009	93418
383.090	75778
383.172	200474
383.253	246630
383.334	88770
383.416	42264
383.497	30442
383.578	33689
383.659	63855
383.741	179187
383.822	318120
383.903	172740
383.984	55135
384.066	35772
384.147	20604
384.228	13225
384.309	10375
384.390	10266
384.471	8572
384.553	8399
384.634	7097
384.715	7640
384.796	6491
384.877	6900
384.958	10273
385.039	8224
385.120	6183
385.201	6642
385.282	5131
385.363	7715
385.444	8220
385.525	9037
385.606	11842
385.687	10401
385.768	6387
385.849	5276
385.930	13677
386.011	20384
386.092	7544
386.173	6214
386.254	5218
386.335	5392
386.416	3884
386.496	5576
386.577	7183
386.658	5131
386.739	4204
386.820	5597
386.901	3872
386.981	6431
387.062	6780
387.143	6700
387.224	8857
387.304	10188
387.385	8634
387.466	6331
387.547	7549
387.627	8210
387.708	9651
387.789	13857
387.869	13311
387.950	8485
388.031	6203
388.111	3066
388.192	6107
388.273	6656
388.353	5110
388.434	3917
388.514	3765
388.595	11152
388.676	11918
388.756	6327
388.837	6378
388.917	4192
388.998	1411
389.078	3886
389.159	3275
389.239	1476
389.320	4614
389.400	1694
389.480	4937
389.561	5956
389.641	5160
389.722	4022
389.802	2335
389.883	4473
389.963	7859
390.043	4347
390.124	1671
390.204	4194
390.284	5770
390.365	3724
390.445	3332
390.525	3680
390.605	5191
390.686	3440
390.766	4389
390.846	5160
390.927	2340
391.007	2779
391.087	4157
391.167	2751
391.247	2372
391.328	4086
391.408	4247
391.488	4357
391.568	2750
391.648	3157
391.728	4876
391.808	5454
391.888	4393
391.969	6129
392.049	7228
392.129	6261
392.209	7749
392.289	11204
392.369	8990
392.449	8458
392.529	8348
392.609	10711
392.689	12545
392.769	16988
392.849	19042
392.929	23875
393.009	33438
393.089	47745
393.169	88377
393.248	202511
393.328	389879
393.408	375814
393.488	192928
393.568	82940
393.648	43817
393.728	27889
393.807	18935
393.887	15734
393.967	12117
394.047	10304
394.127	7952
394.206	9115
394.286	11215
394.366	32863
394.446	31614
394.525	9068
394.605	5824
394.685	5492
394.764	6813
394.844	11641
394.924	13955
395.003	7249
395.083	5003
395.163	4875
395.242	3900
395.322	4673
395.402	2784
395.481	6409
395.561	5984
395.640	18953
395.720	35867
395.799	15987
395.879	7029
395.958	6802
396.038	12258
396.117	45157
396.197	44864
396.276	14595
396.356	11220
396.435	14032
396.515	19326
396.594	30349
396.673	66232
396.753	183714
396.832	346441
396.912	258596
396.991	92990
397.070	40606
397.150	21386
397.229	18937
397.308	32648
397.388	56639
397.467	24613
397.546	9693
397.625	5163
397.705	8265
397.784	4970
397.863	4702
397.942	4337
398.022	3649
398.101	2840
398.180	4088
398.259	3022
398.338	4633
398.417	3241
398.497	2766
398.576	3953
398.655	2066
398.734	2647
398.813	2169
398.892	2269
398.971	3787
399.050	1153
399.129	2071
399.208	2669
399.287	2909
399.366	1563
399.445	1624
399.524	2144
399.603	481
399.682	2173
399.761	2269
399.840	2665
399.919	2875
399.998	1442
400.077	835
400.156	1396
400.235	3908
400.313	1343
400.392	1315
400.471	2846
400.550	4490
400.629	774
400.708	2488
400.786	741
400.865	1342
400.944	511
401.023	3702
401.102	1279
401.180	1599
401.259	1700
401.338	838
401.416	1944
401.495	1275
401.574	1721
401.652	920
401.731	2062
401.810	950
401.888	1532
401.967	374
402.046	489
402.124	1997
402.203	137
402.281	1931
402.360	910
402.438	2046
402.517	222
402.596	1286
402.674	750
402.753	673
402.831	1128
402.910	2360
402.988	3241
403.066	10267
403.145	6136
403.223	5715
403.302	7938
403.380	7308
403.459	7018
403.537	2849
403.615	1553
403.694	1116
403.772	1690
403.850	2053
403.929	1256
404.007	716
404.085	3058
404.164	2017
404.242	1706
404.320	3258
404.398	3235
404.477	3457
404.555	13505
404.633	11198
404.711	3155
404.789	2469
404.868	1293
404.946	804
405.024	1028
405.102	980
405.180	198
405.258	129
405.336	1016
405.415	100
405.493	1574
405.571	1848
405.649	965
405.727	-148
405.805	2306
405.883	2091
405.961	1951
406.039	506
406.117	-407
406.195	723
406.273	1368
406.351	9503
406.429	6011
406.507	860
406.585	1376
406.663	1421
406.740	686
406.818	769
406.896	965
406.974	1039
407.052	313
407.130	5158
407.208	6426
407.285	1924
407.363	228
407.441	1078
407.519	41
407.596	1170
407.674	1864
407.752	4226
407.830	2847
407.907	1706
407.985	-225
408.063	690
408.141	-517
408.218	1534
408.296	-624
408.373	1388
408.451	1391
408.529	1009
408.606	691
408.684	2113
408.762	2045
408.839	1909
408.917	1940
408.994	2301
409.072	1679
409.149	3338
409.227	6128
409.304	9478
409.382	10997
409.459	12165
409.537	16208
409.614	13710
409.692	9724
409.769	9881
409.846	16154
409.924	20169
410.001	12077
410.079	7861
410.156	6468
410.233	4531
410.311	2940
410.388	2758
410.465	3219
410.543	2190
410.620	3294
410.697	2992
410.775	2503
410.852	2116
410.929	3594
411.006	4301
411.083	2118
411.161	2231
411.238	2087
411.315	2613
411.392	1976
411.469	2113
411.547	1959
411.624	899
411.701	1503
411.778	2053
411.855	1632
411.932	784
412.009	14
412.086	1832
412.163	1203
412.240	718
412.317	1305
412.394	653
412.471	1488
412.548	924
412.625	837
412.702	846
412.779	957
412.856	839
412.933	213
413.010	1141
413.087	1200
413.164	1382
413.241	2163
413.318	639
413.395	1717
413.471	1500
413.548	298
413.625	1155
413.702	-130
413.779	644
413.855	600
413.932	514
414.009	-694
414.086	1080
414.162	1191
414.239	1295
414.316	923
414.393	4338
414.469	54
414.546	360
414.623	114
414.699	712
414.776	108
414.853	273
414.929	927
415.006	501
415.082	866
415.159	441
415.236	734
415.312	770
415.389	859
415.465	-36
415.542	114
415.618	48
415.695	1141
415.771	246
415.848	-120
415.924	1291
416.000	100
416.077	2093
416.153	-358
416.230	463
416.306	-277
416.383	748
416.459	967
416.535	875
416.612	260
416.688	1199
416.764	1328
416.841	438
416.917	1104
416.993	882
417.069	751
417.146	494
417.222	55
417.298	637
417.374	-252
417.451	1234
417.527	51
417.603	276
417.679	365
417.755	745
417.831	-238
417.908	711
417.984	-77
418.060	-470
418.136	1223
418.212	522
418.288	1165
418.364	1596
418.440	-200
418.516	858
418.592	-326
418.668	484
418.744	400
418.820	642
418.896	666
418.972	-168
419.048	787
419.124	2271
419.200	-523
419.276	208
419.352	298
419.428	1448
419.504	-245
419.579	1812
419.655	535
419.731	1436
419.807	765
419.883	1209
419.959	1510
420.034	1437
420.110	1539
420.186	2657
420.262	2905
420.337	1588
420.413	1437
420.489	2300
420.565	2415
420.640	1660
420.716	2992
420.792	1275
420.867	2308
420.943	2483
421.019	2600
421.094	3275
421.170	2798
421.245	3448
421.321	3626
421.397	3413
421.472	5324
421.548	5982
421.623	6547
421.699	6558
421.774	8233
421.850	7581
421.925	9663
422.001	12315
422.076	14077
422.152	18111
422.227	23976
422.302	34739
422.378	51903
422.453	85726
422.529	144681
422.604	179507
422.679	146000
422.755	173023
422.830	144908
422.905	89144
422.981	55816
423.056	38699
423.131	28453
423.207	20836
423.282	16291
423.357	14276
423.432	11164
423.508	10366
423.583	7830
423.658	7586
423.733	6597
423.808	5708
423.883	6170
423.959	7418
424.034	8083
424.109	7614
424.184	5133
424.259	3998
424.334	3769
424.409	2880
424.484	2600
424.559	3094
424.634	1642
424.709	2013
424.784	1784
424.859	2174
424.934	1925
425.009	2785
425.084	3101
425.159	1815
425.234	1569
425.309	986
425.384	1002
425.459	1500
425.534	1763
425.609	1933
425.683	1034
425.758	1218
425.833	1464
425.908	1815
425.983	1508
426.058	3703
426.132	1077
426.207	879
426.282	2077
426.357	1019
426.431	527
426.506	2140
426.581	429
426.655	1003
426.730	370
426.805	508
426.879	1705
426.954	259
427.029	644
427.103	3107
427.178	7266
427.253	3247
427.327	1665
427.402	601
427.476	1050
427.551	475
427.625	1043
427.700	929
427.774	689
427.849	2209
427.923	615
427.998	766
428.072	717
428.147	4439
428.221	24635
428.296	71808
428.370	35483
428.444	5477
428.519	2133
428.593	1411
428.667	1213
428.742	1830
428.816	8446
428.890	44663
428.965	62531
429.039	14357
429.113	2816
429.188	1126
429.262	1167
429.336	505
429.410	1875
429.485	1204
429.559	1263
429.633	1485
429.707	1481
429.781	8292
429.855	42120
429.930	55961
430.004	14073
430.078	7494
430.152	27536
430.226	95880
430.300	86065
430.374	17033
430.448	5876
430.522	3252
430.596	3580
430.670	13937
430.744	57504
430.818	57261
430.892	9257
430.966	1695
431.040	1408
431.114	691
431.188	795
431.262	894
431.336	322
431.410	1835
431.484	680
431.557	1596
431.631	1580
431.705	3834
431.779	18834
431.853	69317
431.927	41306
432.000	5993
432.074	1035
432.148	93
432.222	-36
432.295	123
432.369	-329
432.443	261
432.516	2189
432.590	6907
432.664	2172
432.737	-142
432.811	-63
432.885	-76
432.958	416
433.032	-268
433.106	-809
433.179	142
433.253	42
433.326	-170
433.400	-87
433.473	315
433.547	-889
433.620	639
433.694	-549
433.767	373
433.841	-586
433.914	-308
433.988	-571
434.061	5
434.134	197
434.208	768
434.281	-374
434.355	999
434.428	-153
434.501	-638
434.575	-503
434.648	-145
434.721	-614
434.795	-314
434.868	729
434.941	-83
435.014	-426
435.088	555
435.161	1584
435.234	2802
435.307	1767
435.381	3470
435.454	4562
435.527	9097
435.600	9677
435.673	6377
435.746	4066
435.819	2203
435.892	1830
435.966	1458
436.039	238
436.112	896
436.185	3
436.258	112
436.331	113
436.404	93
436.477	-879
436.550	443
436.623	665
436.696	220
436.769	-160
436.842	14
436.915	-365
436.987	-350
437.060	137
437.133	202
437.206	-544
437.279	445
437.352	222
437.425	-448
437.498	-390
437.570	896
437.643	-246
437.716	-24
437.789	-100
437.861	314
437.934	-102
438.007	4
438.080	-710
438.152	112
438.225	1077
438.298	4635
438.370	11592
438.443	3849
438.516	356
438.588	200
438.661	-796
438.734	-239
438.806	-471
438.879	186
438.951	-353
439.024	688
439.096	-78
439.169	324
439.241	81
439.314	-742
439.386	259
439.459	-124
439.531	-927
439.604	-1046
439.676	407
439.749	-388
439.821	-384
439.893	-319
439.966	51
440.038	-432
440.110	-578
440.183	64
440.255	-652
440.327	223
440.400	832
440.472	5378
440.544	3335
440.617	479
440.689	649
440.761	589
440.833	-40
440.905	782
440.978	-312
441.050	-733
441.122	380
441.194	159
441.266	-66
441.338	-277
441.411	9
441.483	1228
441.555	2162
441.627	408
441.699	154
441.771	-543
441.843	-203
441.915	341
441.987	357
442.059	342
442.131	133
442.203	1551
442.275	1950
442.347	5154
442.419	11814
442.491	58031
442.563	110168
442.635	41455
442.706	8479
442.778	3597
442.850	2142
442.922	1223
442.994	1425
443.066	1800
443.137	2582
443.209	4549
443.281	6791
443.353	18465
443.425	64614
443.496	174895
443.568	171471
443.640	67093
443.711	14511
443.783	5896
443.855	3929
443.926	3131
443.998	2336
444.070	1891
444.141	801
444.213	995
444.285	1323
444.356	539
444.428	1376
444.499	946
444.571	1273
444.642	762
444.714	1124
444.785	762
444.857	722
444.928	2877
445.000	1734
445.071	2806
445.143	5251
445.214	6997
445.285	13379
445.357	35509
445.428	121067
445.500	203042
445.571	159625
445.642	100596
445.714	33137
445.785	10481
445.856	4357
445.928	3290
445.999	2030
446.070	697
446.141	1377
446.213	1258
446.284	635
446.355	1105
446.426	469
446.497	-27
446.569	-21
446.640	536
446.711	-381
446.782	1327
446.853	144
446.924	152
446.995	259
447.066	573
447.138	-561
447.209	481
447.280	-712
447.351	120
447.422	-666
447.493	-461
447.564	294
447.635	-736
447.706	-392
447.777	-126
447.847	-109
447.918	-994
447.989	64
448.060	200
448.131	115
448.202	145
448.273	-997
448.344	532
448.414	15
448.485	79
448.556	-17
448.627	33
448.698	788
448.768	-274
448.839	-372
448.910	89
448.981	284
449.051	-101
449.122	-821
449.193	290
449.263	-1060
449.334	-334
449.405	-182
449.475	-734
449.546	-235
449.616	197
449.687	432
449.758	-113
449.828	-834
449.899	-645
449.969	-1455
450.040	-900
450.110	-568
450.181	674
450.251	-1464
450.322	-165
450.392	-498
450.463	-515
450.533	-311
450.604	-235
450.674	-359
450.744	464
450.815	-388
450.885	1431
450.955	549
451.026	4
451.096	-122
451.166	211
451.237	921
451.307	1138
451.377	114
451.447	-173
451.518	-283
451.588	-278
451.658	-432
451.728	-355
451.799	-211
451.869	163
451.939	-695
452.009	-119
452.079	-409
452.149	13
452.219	-695
452.289	-269
452.360	-548
452.430	-230
452.500	500
452.570	2362
452.640	6888
452.710	18882
452.780	19724
452.850	8296
452.920	2876
452.990	1922
453.060	832
453.129	-102
453.199	-548
453.269	-224
453.339	99
453.409	419
453.479	-15
453.549	718
453.619	-507
453.688	-304
453.758	-151
453.828	-102
453.898	-438
453.968	-119
454.037	-620
454.087	-179
454.107	-5
454.168	-271
454.177	-323
454.247	-597
454.249	-597
454.316	-852
454.330	-818
454.386	-730
454.411	-859
454.456	-1151
454.492	-612
454.525	-132
454.574	121
454.595	211
454.655	-368
454.665	-471
454.734	-422
454.736	-409
454.804	-289
454.817	-332
454.873	-614
454.898	-264
454.943	396
454.979	77
455.013	-254
455.060	377
455.082	645
455.141	136
455.152	50
455.221	300
455.222	310
455.291	154
455.303	252
455.360	665
455.384	581
455.430	336
455.465	388
455.499	302
455.546	-160
455.569	-270
455.627	62
455.638	78
455.707	170
455.708	181
455.777	-58
455.789	-89
455.846	-67
455.869	-15
455.916	28
455.950	183
455.985	250
456.031	253
456.054	294
456.112	489
456.124	508
456.193	357
456.193	346
456.262	236
456.274	357
456.332	718
456.355	461
456.401	2
456.436	284
456.470	469
456.516	254
456.540	197
456.597	776
456.609	849
456.678	707
456.678	696
456.747	484
456.759	389
456.817	-20
456.840	39
456.886	126
456.920	441
456.955	619
457.001	524
457.024	542
457.082	804
457.093	833
457.162	1439
457.163	1450
457.232	1309
457.243	1227
457.301	901
457.324	889
457.370	931
457.405	1539
457.439	2007
457.485	1558
457.508	1396
457.566	2094
457.577	2302
457.646	3307
457.647	3338
457.715	8671
457.727	10047
457.784	18397
457.808	25388
457.853	34529
457.889	39139
457.922	38415
457.969	23116
457.991	21794
458.050	27883
458.060	28933
458.129	55021
458.130	55628
458.198	56633
458.211	50250
458.267	24657
458.292	16432
458.336	9269
458.372	8758
458.405	12922
458.453	21229
458.474	27074
458.533	51115
458.543	53046
458.611	88655
458.614	88710
458.680	51391
458.694	40303
458.749	16853
458.775	11736
458.818	6176
458.855	4980
458.887	4031
458.936	2985
458.955	2767
459.016	2199
459.024	2105
459.093	2594
459.097	2566
459.162	2035
459.177	2080
459.230	2145
459.257	2044
459.299	2094
459.338	2125
459.368	1950
459.418	2111
459.437	2199
459.499	1867
459.505	1830
459.574	1905
459.579	1887
459.643	1687
459.659	1838
459.711	2222
459.740	2094
459.780	1653
459.820	1354
459.849	1326
459.900	1795
459.917	1993
459.981	2120
459.986	2089
460.054	1566
460.061	1617
460.123	2133
460.141	2039
460.191	1915
460.222	2081
460.260	2152
460.302	2261
460.328	2498
460.382	2290
460.397	2119
460.462	1751
460.465	1757
460.534	2760
460.543	2844
460.602	5361
460.623	6355
460.671	8863
460.703	11351
460.739	10913
460.783	9075
460.808	7864
460.864	3192
460.876	2814
460.944	2488
460.945	2477
461.013	2423
461.024	2283
461.081	1733
461.104	1780
461.150	2125
461.184	2293
461.218	2221
461.264	2173
461.286	2178
461.345	2060
461.355	2084
461.423	2424
461.425	2431
461.491	1854
461.505	1768
461.559	2148
461.585	2199
461.628	2255
461.665	2376
461.696	2344
461.745	2414
461.764	2406
461.825	2143
461.832	2153
461.901	2533
461.905	2552
461.969	1946
461.985	1751
462.037	2561
462.065	3081
462.105	2528
462.145	2049
462.173	2195
462.225	2399
462.241	2411
462.305	2186
462.310	2200
462.378	2898
462.385	2903
462.446	2145
462.465	2117
462.514	2783
462.545	2974
462.582	2630
462.625	2245
462.650	2164
462.705	2350
462.718	2451
462.785	2358
462.786	2359
462.854	2510
462.865	2535
462.922	2560
462.945	2586
462.990	2897
463.025	3049
463.058	2877
463.104	2968
463.126	3019
463.184	2804
463.194	2801
463.262	2406
463.264	2419
463.330	2986
463.344	2985
463.398	2907
463.424	2829
463.466	2332
463.504	2264
463.533	2727
463.583	2957
463.601	2871
463.663	2791
463.669	2776
463.737	2662
463.743	2636
463.805	3524
463.823	3796
463.873	3127
463.903	2695
463.940	2743
463.982	2761
464.008	2612
464.062	2515
464.076	2561
464.142	2603
464.144	2607
464.211	2507
464.221	2511
464.279	2411
464.301	2290
464.347	2007
464.381	1917
464.414	2117
464.461	2300
464.482	2219
464.540	2013
464.550	2054
464.617	2212
464.620	2226
464.685	2793
464.699	2802
464.753	2793
464.779	2911
464.820	3225
464.859	3427
464.888	3070
464.938	2401
464.956	2556
465.018	3207
465.023	3235
465.091	3585
465.098	3591
465.158	3143
465.177	3075
465.226	3389
465.257	3501
465.293	3148
465.336	2760
465.361	2725
465.416	2515
465.428	2638
465.495	3421
465.496	3423
465.563	2529
465.575	2410
465.631	3016
465.654	3270
465.698	3245
465.734	3165
465.765	3119
465.813	2981
465.833	3073
465.893	3382
465.900	3387
465.968	3425
465.972	3418
466.035	3100
466.052	3000
466.102	3430
466.131	3681
466.170	3427
466.210	3125
466.237	3189
466.290	3342
466.304	3364
466.369	3313
466.372	3322
466.439	3469
466.449	3478
466.506	3250
466.528	3160
466.573	3365
466.607	3474
466.641	3508
466.687	3625
466.708	3734
466.766	3897
466.775	3816
466.842	3238
466.845	3204
466.909	3436
466.925	3490
466.977	3548
467.004	3557
467.044	3789
467.083	4033
467.111	4257
467.163	4649
467.178	4526
467.242	3960
467.245	3965
467.312	3932
467.321	3922
467.379	3874
467.400	3844
467.446	3670
467.480	3535
467.559	4369
467.638	4242
467.717	3019
467.796	4212
467.875	4188
467.955	4102
468.034	5188
468.113	5214
468.192	6544
468.271	6820
468.350	10397
468.429	15233
468.508	17799
468.588	10122
468.667	6204
468.746	4191
468.825	4276
468.904	4247
468.983	3828
469.062	4323
469.141	4136
469.220	3911
469.299	3457
469.378	3759
469.456	5261
469.535	3823
469.614	3859
469.693	3199
469.772	4529
469.851	5256
469.930	4241
470.009	4348
470.088	4744
470.166	7217
470.245	12156
470.324	14901
470.403	9000
470.482	6698
470.560	3873
470.639	4875
470.718	4490
470.797	4321
470.875	4356
470.954	3337
471.033	3787
471.111	3805
471.190	3429
471.269	3912
471.347	3719
471.426	3710
471.505	4147
471.583	3303
471.662	4021
471.740	3935
471.819	3999
471.898	4078
471.976	4205
472.055	4033
472.133	2830
472.212	4162
472.290	3627
472.369	4055
472.447	3825
472.526	3500
472.604	4262
472.683	4129
472.761	4313
472.839	4247
472.918	4351
472.996	3415
473.075	3917
473.153	4593
473.231	4142
473.310	4630
473.388	4384
473.466	4732
473.545	4429
473.623	4029
473.701	3867
473.780	4612
473.858	2349
473.936	5863
474.014	3561
474.093	5167
474.171	3398
474.249	4673
474.327	4146
474.405	3330
474.484	3850
474.562	3383
474.640	3435
474.718	4378
474.796	4023
474.874	3976
474.952	4084
475.030	3381
475.108	3128
475.187	4398
475.265	4154
475.343	4751
475.421	4578
475.499	3721
475.577	3989
475.655	4720
475.733	4828
475.811	4214
475.889	3932
475.966	4192
476.044	3840
476.122	4076
476.200	4260
476.278	3903
476.356	4370
476.434	4586
476.512	4231
476.590	4129
476.667	4363
476.745	4024
476.823	4117
476.901	3956
476.979	4032
477.056	4379
477.134	2501
477.212	4369
477.290	3561
477.367	3018
477.445	3522
477.523	3519
477.601	3057
477.678	4310
477.756	3599
477.834	3646
477.911	3445
477.989	3697
478.066	2915
478.144	4144
478.222	4337
478.299	5083
478.377	5304
478.454	4365
478.532	3099
478.609	3891
478.687	3971
478.764	3062
478.842	4258
478.919	4083
478.997	4399
479.074	3355
479.152	3146
479.229	3788
479.307	2940
479.384	3498
479.461	4359
479.539	3677
479.616	3812
479.694	2918
479.771	3966
479.848	3137
479.926	2383
480.003	4634
480.080	3347
480.157	4336
480.235	3693
480.312	4365
480.389	3125
480.467	3559
480.544	3438
480.621	4018
480.698	4758
480.775	3329
480.853	3422
480.930	3791
481.007	4070
481.084	3194
481.161	4206
481.238	4769
481.315	3617
481.392	2833
481.470	3478
481.547	3655
481.624	3042
481.701	4384
481.778	3933
481.855	3701
481.932	4484
482.009	5418
482.086	4582
482.163	5202
482.240	6854
482.317	8123
482.393	5488
482.470	4779
482.547	4315
482.624	4855
482.701	4472
482.778	4046
482.855	3480
482.932	3577
483.009	3032
483.085	5141
483.162	4734
483.239	6444
483.316	5462
483.393	6582
483.469	5005
483.546	5361
483.623	4405
483.699	3669
483.776	3554
483.853	3762
483.930	4117
484.006	3009
484.083	4111
484.160	4979
484.236	5717
484.313	4567
484.389	4916
484.466	6725
484.543	6088
484.619	7801
484.696	10819
484.772	7555
484.849	5356
484.925	4988
485.002	5150
485.078	4754
485.155	4396
485.231	4677
485.308	3656
485.384	4032
485.461	4360
485.537	3141
485.614	4771
485.690	3927
485.766	4340
485.843	3336
485.919	4319
485.995	3796
486.072	4306
486.148	4202
486.224	4026
486.301	3571
486.377	2815
486.453	2605
486.530	4450
486.606	4639
486.682	3462
486.758	4736
486.835	4413
486.911	3591
486.987	5301
487.063	5770
487.139	6110
487.215	6371
487.292	7904
487.368	7499
487.444	9758
487.520	14409
487.596	19401
487.672	47958
487.748	165039
487.824	251155
487.900	73155
487.976	18037
488.052	9668
488.128	8087
488.204	5380
488.280	5714
488.356	5332
488.432	5160
488.508	5709
488.584	3683
488.660	3668
488.736	3923
488.812	3786
488.888	5110
488.964	3801
489.039	5243
489.115	7016
489.191	5589
489.267	4483
489.343	3392
489.418	3587
489.494	4162
489.570	2362
489.646	5210
489.722	4232
489.797	3260
489.873	4194
489.949	4676
490.024	4088
490.100	3850
490.176	3928
490.251	4287
490.327	4725
490.403	3996
490.478	4462
490.554	3874
490.629	3981
490.705	3831
490.781	4541
490.856	4236
490.932	3301
491.007	3796
491.083	4367
491.158	4089
491.234	3435
491.309	4983
491.385	3209
491.460	3240
491.536	4503
491.611	4254
491.686	3897
491.762	3462
491.837	4889
491.913	5489
491.988	6142
492.063	5986
492.139	4644
492.214	3141
492.289	3922
492.365	4005
492.440	4478
492.515	3223
492.590	4103
492.666	3409
492.741	4232
492.816	3192
492.891	3008
492.967	4184
493.042	3825
493.117	3207
493.192	3845
493.267	4999
493.342	5500
493.418	6677
493.493	4656
493.568	4492
493.643	3707
493.718	4609
493.793	2740
493.868	3861
493.943	3929
494.018	2969
494.093	3472
494.168	4827
494.243	3493
494.318	4721
494.393	5062
494.468	4267
494.543	4604
494.618	4440
494.693	4766
494.768	4457
494.842	4200
494.917	4702
494.992	4412
495.067	4412
495.142	4054
495.217	4842
495.292	3737
495.366	4247
495.441	4047
495.516	6194
495.591	5061
495.665	6873
495.740	9788
495.815	7660
495.890	3733
495.964	3165
496.039	7662
496.114	4644
496.188	5820
496.263	5058
496.338	4572
496.412	3917
496.487	5023
496.561	4206
496.636	4462
496.710	4636
496.785	4249
496.860	4862
496.934	4066
497.009	5797
497.083	5586
497.158	5403
497.232	5409
497.307	5882
497.381	6315
497.455	6869
497.530	5077
497.604	3821
497.679	4427
497.753	4335
497.827	4120
497.902	4398
497.976	5511
498.050	5893
498.125	6984
498.199	8172
498.273	5968
498.348	5169
498.422	6012
498.496	7648
498.570	7985
498.645	5154
498.719	2661
498.793	4129
498.867	3729
498.941	4178
499.016	4527
499.090	7438
499.164	5528
499.238	5828
499.312	5163
499.386	4986
499.460	6356
499.534	7319
499.609	8243
499.683	5789
499.757	3541
499.831	3011
499.905	4290
499.979	4693
500.053	3509
500.127	4218
500.201	3583
500.275	4658
500.349	5070
500.422	5972
500.496	6930
500.570	7413
500.644	10717
500.718	10459
500.792	3937
500.866	4393
500.940	3392
501.013	3202
501.087	3117
501.161	3416
501.235	1530
501.309	4141
501.382	2955
501.456	4512
501.530	2986
501.603	1964
501.677	2591
501.751	1902
501.825	4229
501.898	3505
501.972	2787
502.046	3183
502.119	1685
502.193	2841
502.266	2730
502.340	2877
502.413	2617
502.487	4028
502.561	1998
502.634	4163
502.708	2357
502.781	2186
502.855	3139
502.928	1782
503.002	2056
503.075	1582
503.149	3044
503.222	3655
503.295	2644
503.369	3774
503.442	3254
503.516	3486
503.589	4720
503.662	5560
503.736	5611
503.809	7040
503.882	8578
503.956	14808
504.029	28439
504.102	94732
504.175	146374
504.249	47248
504.322	15538
504.395	8356
504.468	5677
504.542	4099
504.615	3301
504.688	3505
504.761	1041
504.834	4591
504.907	2993
504.980	2318
505.053	2128
505.127	350
505.200	4173
505.273	2000
505.346	2210
505.419	1636
505.492	2769
505.565	1815
505.638	1718
505.711	1292
505.784	1297
505.857	1919
505.930	3251
506.003	1926
506.076	4296
506.149	1871
506.221	60
506.294	2840
506.367	963
506.440	2654
506.513	2705
506.586	3007
506.659	1140
506.731	1273
506.804	890
506.877	1470
506.950	2923
507.022	3001
507.095	712
507.168	2035
507.241	3413
507.313	1945
507.386	725
507.459	2745
507.531	1692
507.604	1085
507.677	2874
507.749	234
507.822	3511
507.894	1352
507.967	2763
508.040	1084
508.112	2286
508.185	2172
508.257	579
508.330	3412
508.402	1680
508.475	1394
508.547	2599
508.620	1903
508.692	2395
508.765	2350
508.837	1293
508.909	2839
508.982	967
509.054	1946
509.127	1210
509.199	1814
509.271	1544
509.344	1256
509.416	2117
509.488	1566
509.560	2474
509.633	1739
509.705	1249
509.777	1543
509.849	2674
509.922	512
509.994	1579
510.066	2625
510.138	188
510.210	4263
510.283	1930
510.355	2367
510.427	2535
510.499	2088
510.571	2168
510.643	1473
510.715	3004
510.787	491
510.859	3123
510.931	2436
511.003	2592
511.076	3048
511.148	1135
511.219	1902
511.291	2762
511.363	1619
511.435	2064
511.507	911
511.579	2363
511.651	3187
511.723	1697
511.795	1776
511.867	1354
511.939	1943
512.010	1313
512.082	3628
512.154	1184
512.226	1930
512.298	2239
512.369	1859
512.441	2737
512.513	2158
512.585	1116
512.656	3383
512.728	2034
512.800	1662
512.871	3055
512.943	2304
513.015	175
513.086	2095
513.158	1817
513.230	2315
513.301	2339
513.373	3867
513.444	1930
513.516	2614
513.588	1798
513.659	2926
513.731	1966
513.802	1337
513.874	3752
513.945	3675
514.016	1030
514.088	3083
514.159	654
514.231	2726
514.302	2405
514.374	3088
514.445	511
514.516	4478
514.588	776
514.659	1958
514.730	1790
514.802	3614
514.873	-485
514.944	3810
515.016	3344
515.087	2033
515.158	1796
515.229	2756
515.301	889
515.372	3661
515.443	905
515.514	2737
515.585	1640
515.656	2697
515.728	3528
515.799	2162
515.870	3483
515.941	3656
516.012	1386
516.083	4477
516.154	3455
516.225	4979
516.296	7259
516.367	7300
516.438	8738
516.509	11024
516.580	16909
516.651	63674
516.722	223463
516.793	89662
516.864	16633
516.935	15105
517.006	18442
517.077	23414
517.148	51788
517.219	256188
517.289	384860
517.360	60612
517.431	14311
517.502	7478
517.573	7677
517.643	7028
517.714	6926
517.785	7581
517.856	7683
517.926	12861
517.997	15308
518.068	20437
518.138	29716
518.209	42556
518.280	163240
518.350	550569
518.421	227510
518.492	37810
518.562	21295
518.633	21209
518.703	26170
518.774	59322
518.845	180403
518.915	175712
518.986	42516
519.056	15712
519.127	10582
519.197	7823
519.268	5987
519.338	6496
519.408	3740
519.479	3781
519.549	2782
519.620	4414
519.690	2674
519.760	3164
519.831	2064
519.901	3525
519.971	3833
520.042	2254
520.112	2195
520.182	3409
520.253	2771
520.323	1985
520.393	845
520.463	4432
520.534	-657
520.604	4433
520.674	3223
520.744	2149
520.814	858
520.885	3148
520.955	1756
521.025	2008
521.095	2445
521.165	2994
521.235	1268
521.305	844
521.375	1565
521.445	1619
521.515	432
521.585	3736
521.655	1081
521.725	3510
521.795	2568
521.865	-970
521.935	4755
522.005	1571
522.075	1817
522.145	3490
522.215	330
522.285	2662
522.355	1864
522.424	1961
522.494	766
522.564	2738
522.634	2956
522.704	6196
522.774	2617
522.843	2551
522.913	2400
522.983	1295
523.053	1219
523.122	3617
523.192	1899
523.262	2798
523.331	2057
523.401	2883
523.471	2742
523.540	2503
523.610	1722
523.680	3017
523.749	2784
523.819	3065
523.888	1851
523.958	2457
524.027	2313
524.097	2500
524.166	2502
524.236	1202
524.305	3902
524.375	2799
524.444	1081
524.514	4312
524.583	871
524.653	2179
524.722	2969
524.791	979
524.861	3877
524.930	1970
524.999	2595
525.069	4284
525.138	2962
525.207	2771
525.277	3552
525.346	4099
525.415	4675
525.484	4125
525.554	4559
525.623	6607
525.692	8176
525.761	11345
525.830	14663
525.900	18149
525.969	29084
526.038	52382
526.107	110791
526.176	331712
526.245	262950
526.314	73404
526.383	157703
526.452	216073
526.522	304563
526.591	281819
526.660	44995
526.729	27552
526.797	29601
526.867	37529
526.935	115637
527.004	451687
527.073	292827
527.142	36528
527.211	14666
527.280	9870
527.349	7765
527.418	4305
527.487	5712
527.555	3829
527.624	4055
527.693	2452
527.762	5181
527.831	1871
527.899	4162
527.968	3233
528.037	2482
528.106	4194
528.174	3947
528.243	3089
528.312	3485
528.380	3464
528.449	1536
528.518	4566
528.586	1555
528.655	4115
528.723	2710
528.792	2059
528.861	1846
528.929	1559
528.998	3701
529.066	2906
529.135	2699
529.203	2642
529.272	1643
529.340	3088
529.409	4649
529.477	1758
529.545	1252
529.614	5232
529.682	1919
529.751	2825
529.819	5768
529.887	3731
529.956	2280
530.024	3803
530.092	2006
530.161	4023
530.229	3425
530.297	2048
530.365	3852
530.434	2705
530.502	2341
530.570	3846
530.638	2351
530.707	4183
530.775	4120
530.843	2981
530.911	3528
530.979	3733
531.047	2933
531.115	3695
531.183	3708
531.252	3695
531.320	3023
531.388	2144
531.456	4140
531.524	1855
531.592	4974
531.660	5677
531.728	2653
531.796	2700
531.864	3390
531.932	3892
532.000	2364
532.067	3386
532.135	4859
532.203	5392
532.271	4195
532.339	5800
532.407	6388
532.475	5145
532.542	5155
532.610	6235
532.678	3408
532.746	8812
532.814	12357
532.881	7322
532.949	5856
533.017	5332
533.084	4565
533.152	3785
533.220	4927
533.287	3604
533.355	4502
533.423	5173
533.490	4475
533.558	5564
533.625	4890
533.693	4718
533.761	5548
533.828	5875
533.896	3853
533.963	7066
534.031	6420
534.098	8153
534.166	8750
534.233	8023
534.300	10505
534.368	9160
534.435	9077
534.503	10053
534.570	10798
534.637	12563
534.705	13740
534.772	16593
534.840	29346
534.907	140350
534.974	181162
535.041	25896
535.109	11740
535.176	9203
535.243	9487
535.310	8557
535.378	8408
535.445	7398
535.512	7970
535.579	8794
535.646	7335
535.714	8279
535.781	9391
535.848	8748
535.915	9269
535.982	8430
536.049	8227
536.116	10268
536.183	7584
536.250	7447
536.317	7642
536.384	9266
536.451	9290
536.518	9012
536.585	7911
536.652	10479
536.719	10046
536.786	8085
536.853	9208
536.920	10655
536.987	10438
537.053	8034
537.120	13666
537.187	12235
537.254	9476
537.321	9829
537.388	11037
537.454	9317
537.521	10392
537.588	9123
537.654	10541
537.721	9514
537.788	10615
537.855	9334
537.921	9326
537.988	10266
538.055	9828
538.121	7941
538.188	9067
538.254	8530
538.321	8680
538.388	10027
538.454	10066
538.521	10838
538.587	10574
538.654	10171
538.720	9429
538.787	9951
538.853	9921
538.920	10201
538.986	7964
539.053	8830
539.119	9895
539.185	9578
539.252	11171
539.318	10395
539.385	12375
539.451	9049
539.517	10245
539.583	10171
539.650	9768
539.716	12078
539.782	10218
539.849	8982
539.915	9877
539.981	10010
540.047	8984
540.114	9841
540.180	10804
540.246	9317
540.312	10775
540.378	10524
540.444	11470
540.510	11375
540.576	13265
540.643	10674
540.709	8446
540.775	9618
540.841	9796
540.907	9962
540.973	11033
541.039	10200
541.105	10638
541.171	10969
541.237	10944
541.303	11758
541.369	12292
541.435	10962
541.500	10451
541.566	8878
541.632	9375
541.698	9463
541.764	11813
541.830	9790
541.896	9754
541.961	10608
542.027	9664
542.093	11106
542.159	11058
542.224	9183
542.290	11461
542.356	9954
542.421	11340
542.487	10238
542.553	9793
542.618	9952
542.684	9689
542.750	10270
542.815	11060
542.881	10766
542.947	13258
543.012	12784
543.078	10336
543.143	8858
543.209	9636
543.274	8575
543.340	9472
543.405	11401
543.471	10957
543.536	11038
543.602	10715
543.667	9241
543.732	12032
543.798	9840
543.863	11562
543.928	10069
543.994	10466
544.059	11660
544.124	10996
544.190	12053
544.255	12279
544.320	12177
544.386	10965
544.451	13230
544.516	11609
544.581	11450
544.646	11975
544.712	14509
544.777	12211
544.842	11755
544.907	11507
544.972	12408
545.037	12751
545.102	12594
545.168	12991
545.233	13531
545.298	13802
545.363	12997
545.428	15187
545.493	16110
545.558	15162
545.623	14915
545.688	14186
545.753	15429
545.818	16349
545.883	17367
545.947	16807
546.012	17973
546.077	19108
546.142	20518
546.207	19790
546.272	21196
546.337	20581
546.401	22561
546.466	23811
546.531	23357
546.596	27408
546.661	28110
546.725	29021
546.790	30238
546.855	33433
546.919	35682
546.984	41884
547.049	44606
547.113	50715
547.178	56551
547.243	64573
547.307	74469
547.372	81741
547.436	82728
547.501	87682
547.565	95155
547.630	87352
547.695	83680
547.759	84246
547.823	85325
547.888	86588
547.952	89468
548.017	91052
548.081	93625
548.146	92793
548.210	95708
548.274	103040
548.339	101143
548.403	92563
548.468	86539
548.532	86812
548.596	87025
548.660	89392
548.725	97084
548.789	103617
548.853	102935
548.917	98430
548.982	94246
549.046	84897
549.110	76054
549.174	81050
549.238	93405
549.303	103113
549.367	104908
549.431	100970
549.495	93947
549.559	93606
549.623	110094
549.687	119944
549.751	116996
549.815	139582
549.879	142671
549.943	135384
550.007	142226
550.071	139216
550.135	125694
550.199	118649
550.263	118473
550.327	110147
550.391	113093
550.455	126679
550.519	134568
550.582	140461
550.646	160194
550.710	160732
550.774	160906
550.838	162766
550.901	164434
550.965	173129
551.029	178742
551.093	188050
551.156	200686
551.220	213847
551.284	238103
551.347	195799
551.411	170008
551.475	164914
551.538	174134
551.602	162938
551.666	154363
551.729	145002
551.793	143104
551.856	139241
551.920	137887
551.983	139101
552.047	135843
552.110	137601
552.174	138861
552.237	142025
552.301	133354
552.364	126938
552.428	123706
552.491	127427
552.554	130231
552.618	129508
552.681	133711
552.745	127448
552.808	141747
552.871	156056
552.934	139999
552.998	132033
553.061	128397
553.124	122933
553.187	122320
553.251	127371
553.314	127087
553.377	127444
553.440	134314
553.503	140509
553.567	139920
553.630	138531
553.693	137855
553.756	139888
553.819	136017
553.882	130460
553.945	131291
554.008	131079
554.071	133306
554.134	134236
554.197	126849
554.260	124202
554.323	127015
554.386	127291
554.449	132813
554.512	132761
554.575	126733
554.638	124781
554.701	126252
554.764	123059
554.827	120823
554.889	115509
554.952	108428
555.015	105630
555.078	109388
555.141	109113
555.203	107696
555.266	107522
555.329	106221
555.391	102467
555.454	100746
555.517	96102
555.580	93074
555.642	90449
555.705	88037
555.768	88905
555.830	84655
555.893	79809
555.955	79388
556.018	76347
556.080	78253
556.143	80023
556.206	79310
556.268	76232
556.330	74953
556.393	70916
556.455	70793
556.518	69130
556.580	65790
556.643	63363
556.705	61676
556.767	60726
556.830	60920
556.892	59408
556.955	57467
557.017	56672
557.079	56073
557.142	54886
557.204	53606
557.266	53679
557.328	50633
557.391	47233
557.453	45686
557.515	45898
557.577	47349
557.639	45934
557.701	46700
557.764	45839
557.826	47117
557.888	47766
557.950	48362
558.012	50911
558.074	57862
558.136	114273
558.198	256327
558.260	100543
558.322	47581
558.384	48231
558.446	49893
558.508	53694
558.570	59202
558.632	65325
558.694	76857
558.756	113954
558.818	301489
558.880	628372
558.942	264472
559.003	269067
559.065	137224
559.127	59889
559.189	55767
559.251	58207
559.312	76705
559.374	166409
559.436	479446
559.498	250564
559.559	67242
559.621	54514
559.683	57910
559.744	87367
559.806	260000
559.868	371998
559.929	90587
559.991	58561
560.052	86473
560.114	241527
560.176	151744
560.237	140174
560.299	222522
560.360	54639
560.422	26258
560.483	22696
560.545	21168
560.606	20262
560.667	19024
560.729	18949
560.790	17921
560.852	17786
560.913	17445
560.974	16503
561.036	17520
561.097	16900
561.158	16960
561.220	15991
561.281	15610
561.342	14594
561.403	14991
561.465	14385
561.526	15513
561.587	16236
561.648	13867
561.709	13794
561.771	13856
561.832	12503
561.893	13595
561.954	13873
562.015	12796
562.076	13022
562.137	13589
562.198	12575
562.259	12410
562.320	12653
562.381	12110
562.442	12284
562.503	11377
562.564	11836
562.625	11546
562.686	12067
562.747	11390
562.808	11908
562.869	11439
562.930	10500
562.991	10630
563.051	10236
563.112	9950
563.173	11275
563.234	9589
563.294	10702
563.355	9699
563.416	10576
563.477	10166
563.537	9634
563.598	9968
563.659	10077
563.720	10141
563.780	9977
563.841	10290
563.901	9737
563.962	10062
564.023	9573
564.083	9268
564.144	9801
564.204	9200
564.265	8243
564.325	9660
564.386	9106
564.446	8618
564.507	9080
564.567	9085
564.628	8641
564.688	9438
564.749	8144
564.809	8612
564.869	9294
564.930	9126
564.990	10022
565.050	9647
565.111	8992
565.171	8071
565.231	9059
565.292	9621
565.352	8226
565.412	9357
565.472	8524
565.532	8915
565.593	8540
565.653	8277
565.713	8635
565.773	8659
565.833	9267
565.893	9093
565.953	8156
566.013	8428
566.074	8676
566.134	8635
566.194	7641
566.254	8034
566.314	8821
566.374	7363
566.434	8407
566.494	7991
566.554	7725
566.614	8071
566.673	8334
566.733	9408
566.793	8218
566.853	8795
566.913	9148
566.973	8595
567.033	8891
567.092	8077
567.152	8889
567.212	9044
567.272	8474
567.331	8633
567.391	9110
567.451	9545
567.511	9714
567.570	9928
567.630	9391
567.690	9120
567.749	7826
567.809	8870
567.868	9859
567.928	8178
567.988	8814
568.047	9093
568.107	8522
568.166	8939
568.226	8747
568.285	9145
568.345	9521
568.404	8855
568.464	9103
568.523	7975
568.582	8344
568.642	9016
568.701	7623
568.761	8023
568.820	9614
568.879	8320
568.939	8267
568.998	8474
569.057	8337
569.116	8843
569.176	8396
569.235	8580
569.294	7983
569.353	7918
569.413	7851
569.472	8789
569.531	7823
569.590	7391
569.649	7849
569.708	7776
569.767	8303
569.827	8480
569.886	8894
569.945	7275
570.004	8365
570.063	8339
570.122	8515
570.181	8863
570.240	8613
570.299	8678
570.358	9458
570.417	8114
570.475	9127
570.534	8691
570.593	8449
570.652	9536
570.711	9138
570.770	9022
570.829	7582
570.887	9052
570.946	9351
571.005	8701
571.064	9565
571.122	10699
571.181	8487
571.240	8936
571.299	7658
571.357	8763
571.416	7773
571.475	7780
571.533	8817
571.592	9309
571.650	9318
571.709	9309
571.768	10008
571.826	10615
571.885	9316
571.943	9885
572.002	8290
572.060	8887
572.119	9183
572.177	8036
572.236	8528
572.294	8903
572.352	10234
572.411	9490
572.469	8109
572.528	7705
572.586	8258
572.644	7530
572.703	8918
572.761	8270
572.819	7207
572.877	7996
572.936	7483
572.994	8126
573.052	7764
573.110	7741
573.169	8132
573.227	8001
573.285	7886
573.343	8309
573.401	7593
573.459	8148
573.517	7618
573.576	8128
573.634	8305
573.692	8184
573.750	8405
573.808	6819
573.866	6153
573.924	7057
573.982	7630
574.040	7650
574.098	7896
574.155	7170
574.213	7558
574.271	6467
574.329	7585
574.387	7464
574.445	6513
574.503	6629
574.560	6910
574.618	7153
574.676	6255
574.734	6184
574.792	5872
574.849	7187
574.907	5770
574.965	5932
575.022	5912
575.080	5772
575.138	5616
575.195	6196
575.253	5316
575.311	5097
575.368	6806
575.426	5946
575.483	5391
575.541	6427
575.598	4972
575.656	4458
575.713	6569
575.771	6432
575.828	5171
575.886	5038
575.943	5661
576.001	4910
576.058	5246
576.115	5086
576.173	6731
576.230	5500
576.287	4872
576.345	5072
576.402	4809
576.459	5678
576.517	4857
576.574	5497
576.631	4719
576.688	5136
576.746	4783
576.803	4661
576.860	5103
576.917	5245
576.974	4937
577.031	5372
577.089	5024
577.146	4821
577.203	4518
577.260	5665
577.317	4243
577.374	4197
577.431	4144
577.488	4080
577.545	4403
577.602	5365
577.659	4210
577.716	5430
577.773	4768
577.830	4654
577.886	5236
577.943	4843
578.000	3907
578.057	4740
578.114	4890
578.171	5112
578.227	4665
578.284	4733
578.341	5778
578.398	4020
578.454	5167
578.511	4721
578.568	4867
578.625	4707
578.681	4198
578.738	4559
578.794	4965
578.851	5561
578.908	5265
578.964	4429
579.021	4882
579.077	4498
579.134	5049
579.190	5211
579.247	4788
579.303	4432
579.360	4170
579.416	5211
579.473	4648
579.529	4249
579.586	4437
579.642	4105
579.698	4787
579.755	4741
579.811	4880
579.867	5086
579.924	5060
579.980	4754
580.036	5561
580.093	5519
580.149	5617
580.205	4838
580.261	5170
580.317	4683
580.374	5441
580.430	5803
580.486	5715
580.542	4745
580.598	5142
580.619	5398
580.654	5846
580.692	5235
580.710	4942
580.765	5523
580.767	5546
580.823	4705
580.838	4990
580.879	5750
580.911	5520
580.935	5355
580.984	5644
580.991	5694
581.047	6103
581.057	5910
581.103	5059
581.130	5283
581.159	5513
581.203	5549
581.215	5576
581.270	4876
581.276	4950
581.326	5627
581.349	5096
581.382	4322
581.422	5141
581.438	5497
581.494	4831
581.494	4832
581.550	5124
581.567	5138
581.606	5202
581.640	5157
581.661	5127
581.713	6070
581.717	6155
581.773	4736
581.786	4777
581.829	4837
581.859	4813
581.885	4852
581.932	5346
581.940	5414
581.996	5987
582.004	5849
582.052	5074
582.077	5115
582.107	5223
582.150	5220
582.163	5225
582.219	4154
582.223	4230
582.274	5141
582.296	5143
582.330	5118
582.368	5057
582.386	5110
582.441	4756
582.441	4755
582.497	4879
582.514	4949
582.552	5402
582.587	5090
582.608	4770
582.659	4846
582.663	4855
582.719	5392
582.732	5139
582.774	4492
582.805	5023
582.830	5411
582.877	4934
582.885	4847
582.941	4984
582.950	4979
582.996	4959
583.023	4851
583.052	4842
583.095	5899
583.107	6146
583.162	5358
583.168	5369
583.218	5468
583.240	5286
583.273	5046
583.313	5378
583.328	5509
583.384	4912
583.385	4915
583.439	4856
583.458	4850
583.494	5039
583.531	5168
583.549	5199
583.603	5796
583.605	5806
583.660	5355
583.676	5179
583.715	4855
583.748	5160
583.770	5448
583.820	5507
583.825	5493
583.881	4867
583.893	4906
583.936	5136
583.965	5342
583.991	5447
584.038	5648
584.046	5692
584.101	4470
584.110	4620
584.156	5481
584.183	5549
584.211	5595
584.255	5744
584.266	5795
584.321	5674
584.328	5745
584.376	6196
584.400	6158
584.431	6178
584.472	5901
584.486	5791
584.541	6791
584.545	6777
584.596	6210
584.617	6009
584.651	6258
584.689	6538
584.706	6429
584.761	7390
584.762	7385
584.816	7232
584.834	7622
584.871	8270
584.906	8057
584.926	7979
584.978	8399
584.980	8430
585.035	9714
585.051	10010
585.090	10848
585.123	12161
585.145	12907
585.195	14060
585.200	14261
585.254	16442
585.267	17502
585.309	20770
585.340	22608
585.364	24342
585.412	28660
585.419	29461
585.473	36379
585.484	38148
585.528	49447
585.556	61008
585.583	86309
585.628	145616
585.637	166959
585.692	348937
585.700	377940
585.747	463738
585.772	398736
585.801	251974
585.845	89137
585.856	70130
585.910	34441
585.917	30888
585.965	22592
585.989	19547
586.019	17525
586.061	15132
586.074	14606
586.128	13911
586.133	13825
586.183	12952
586.205	12615
586.237	12453
586.277	12199
586.292	12035
586.346	12183
586.349	12133
586.401	11633
586.421	11563
586.455	11405
586.493	12081
586.509	12440
586.564	11709
586.565	11723
586.618	13403
586.637	14183
586.672	16234
586.709	18480
586.727	19393
586.781	22210
586.781	22212
586.835	16039
586.853	14685
586.889	13087
586.925	12163
586.944	12111
586.996	12012
586.998	12010
587.052	12501
587.068	12345
587.106	12205
587.140	12078
587.161	11950
587.212	11793
587.215	11787
587.269	12029
587.284	12127
587.323	12536
587.356	12688
587.377	12865
587.427	13382
587.431	13404
587.485	13525
587.499	13466
587.539	13644
587.571	14270
587.593	14633
587.643	15369
587.648	15445
587.702	15849
587.715	15873
587.755	15615
587.786	15573
587.810	15663
587.858	15939
587.864	15943
587.917	15967
587.930	15882
587.971	15923
588.001	16191
588.025	16354
588.073	16349
588.079	16380
588.133	16607
588.145	16629
588.187	16293
588.217	16393
588.241	16850
588.288	17247
588.295	17250
588.348	17733
588.360	17827
588.402	18789
588.431	19353
588.456	19575
588.503	19979
588.510	20164
588.564	21917
588.575	22401
588.617	23593
588.646	23963
588.671	24581
588.718	26301
588.725	26858
588.778	31937
588.789	33372
588.832	49615
588.861	63276
588.886	92007
588.932	157040
588.939	162690
588.993	200284
589.004	197442
589.047	103661
589.075	51739
589.100	39715
589.147	26487
589.154	26085
589.207	24044
589.218	23686
589.261	24093
589.290	24657
589.314	25170
589.361	26679
589.368	27642
589.421	36551
589.433	38965
589.475	67333
589.504	90575
589.528	119124
589.576	180254
589.582	174772
589.635	86188
589.647	68993
589.689	38896
589.718	23256
589.742	22063
589.790	19458
589.795	19307
589.849	18638
589.861	18416
589.902	18463
589.932	18627
589.955	18481
590.004	17948
590.009	17908
590.062	17780
590.075	17589
590.115	17449
590.146	17571
590.168	17482
590.218	17219
590.222	17228
590.275	17295
590.289	17253
590.328	18026
590.360	18801
590.381	18973
590.431	19261
590.435	19271
590.488	19120
590.503	19085
590.541	19096
590.574	19105
590.594	19449
590.645	20303
590.647	20329
590.700	20680
590.716	20794
590.753	21250
590.787	21613
590.806	21937
590.859	22989
590.859	23008
590.912	23220
590.930	23302
590.965	23693
591.001	23945
591.018	23842
591.071	23456
591.072	23433
591.124	22288
591.143	21915
591.177	22784
591.214	23629
591.230	23614
591.283	23759
591.285	23738
591.336	23183
591.356	22940
591.389	23162
591.427	23540
591.442	23476
591.495	23046
591.498	22995
591.547	23341
591.569	23577
591.600	23824
591.640	24066
591.653	24116
591.706	24103
591.711	24096
591.759	24712
591.782	25018
591.811	25860
591.853	27141
591.864	27132
591.917	26787
591.924	26728
591.969	27035
591.995	27177
592.022	27186
592.066	27203
592.075	27428
592.127	28708
592.137	28917
592.180	28551
592.208	28297
592.233	28644
592.279	29254
592.285	29343
592.338	29947
592.350	30069
592.390	30189
592.421	30245
592.443	30533
592.491	31124
592.495	31204
592.548	32108
592.562	32342
592.600	31820
592.633	31338
592.653	31415
592.704	31414
592.705	31611
592.775	32562
592.846	33169
592.916	33021
592.987	33570
593.058	33998
593.128	34190
593.199	35453
593.270	36505
593.341	37203
593.411	37134
593.482	38735
593.553	39626
593.623	39229
593.694	41756
593.764	42864
593.835	41050
593.906	43116
593.976	42459
594.047	42869
594.117	46143
594.188	45818
594.258	47157
594.329	47094
594.399	48969
594.470	49711
594.540	51567
594.611	51634
594.681	51864
594.751	52306
594.822	53884
594.892	56624
594.963	58118
595.033	59423
595.103	62500
595.174	63020
595.244	63022
595.314	65259
595.384	67434
595.455	68963
595.525	71336
595.595	74768
595.665	74188
595.736	72352
595.806	74437
595.876	74004
595.946	75712
596.016	79269
596.087	81076
596.157	80654
596.227	81694
596.297	86756
596.367	94045
596.437	98065
596.507	97507
596.577	95714
596.647	100505
596.717	105661
596.787	107080
596.857	106068
596.927	106735
596.997	107056
597.067	108264
597.137	110199
597.207	110956
597.277	111631
597.347	105186
597.417	102903
597.487	103999
597.557	106745
597.626	109713
597.696	110699
597.766	108774
597.836	102877
597.906	97376
597.975	96452
598.045	98536
598.115	102712
598.185	110995
598.254	125377
598.324	133565
598.394	137056
598.464	131213
598.533	129727
598.603	121047
598.672	117065
598.742	120809
598.812	120150
598.881	124238
598.951	123506
599.020	125129
599.090	129856
599.159	131897
599.229	126201
599.299	124958
599.368	126805
599.437	126222
599.507	114675
599.576	109820
599.646	108041
599.715	105760
599.785	107034
599.854	102780
599.924	101342
599.993	101565
600.062	103997
600.132	105750
600.201	114661
600.270	132683
600.340	139500
600.409	136108
600.478	134632
600.547	137752
600.617	122645
600.686	97454
600.755	87191
600.824	82067
600.894	81229
600.963	82540
601.032	80106
601.101	77694
601.170	73600
601.239	70168
601.308	70191
601.378	70562
601.447	70609
601.516	71346
601.585	72092
601.654	74449
601.723	74571
601.792	76025
601.861	78039
601.930	81842
601.999	81914
602.068	80781
602.137	82532
602.206	84259
602.275	84844
602.343	84629
602.412	86218
602.481	87004
602.550	88476
602.619	91106
602.688	91243
602.756	91931
602.825	93292
602.894	97643
602.963	98704
603.032	100752
603.100	99931
603.169	100207
603.238	100930
603.307	103926
603.375	103969
603.444	105356
603.513	107882
603.581	109513
603.650	109835
603.719	109556
603.787	111722
603.856	116020
603.924	117596
603.993	122479
604.061	127734
604.130	132713
604.198	135054
604.267	137262
604.335	140871
604.404	142317
604.472	143356
604.541	144515
604.609	148669
604.678	146388
604.746	148765
604.815	154692
604.883	154535
604.951	155479
605.020	158041
605.088	159813
605.156	166206
605.225	168801
605.293	167786
605.361	169976
605.429	170701
605.498	175774
605.566	178747
605.634	188582
605.702	193740
605.771	200523
605.839	200281
605.907	197444
605.975	187881
606.043	185167
606.111	186445
606.180	185243
606.248	184445
606.316	181370
606.384	180514
606.452	183687
606.520	189936
606.588	194939
606.656	198200
606.724	192683
606.792	180898
606.860	163189
606.928	148669
606.996	143545
607.064	141318
607.132	145936
607.200	154961
607.267	160411
607.335	164680
607.403	165565
607.471	160319
607.539	155577
607.607	155346
607.674	136805
607.742	137767
607.810	135738
607.878	137298
607.946	140113
608.013	147489
608.081	148682
608.149	151300
608.216	156980
608.284	162060
608.352	160186
608.419	156799
608.487	155258
608.555	154218
608.622	158832
608.690	167909
608.757	186804
608.825	188397
608.893	183271
608.960	170339
609.028	165450
609.095	165246
609.163	163701
609.230	145909
609.298	136327
609.365	144222
609.432	155877
609.500	170646
609.567	193979
609.635	221150
609.702	227534
609.769	217549
609.837	166327
609.904	148156
609.971	152889
610.039	171153
610.106	219856
610.173	393718
610.241	789255
610.308	429630
610.375	188855
610.442	161884
610.509	154270
610.577	155334
610.644	156903
610.711	161608
610.778	165570
610.845	173332
610.912	184593
610.980	189484
611.047	190066
611.114	186188
611.181	181039
611.248	179077
611.315	191086
611.382	195083
611.449	201613
611.516	206311
611.583	202143
611.650	203270
611.717	206723
611.784	210189
611.851	218524
611.918	229854
611.984	264311
612.051	352158
612.118	618210
612.185	1197141
612.252	774385
612.319	323226
612.386	269462
612.452	244113
612.519	231211
612.586	225478
612.653	231740
612.719	237612
612.786	226475
612.853	210803
612.919	209673
612.986	210176
613.053	197919
613.120	187332
613.186	182357
613.253	183217
613.319	184187
613.386	185042
613.453	185789
613.519	188885
613.586	183569
613.652	187765
613.719	184536
613.785	188989
613.852	189612
613.918	186781
613.985	191700
614.051	196855
614.118	193558
614.184	187872
614.250	189848
614.317	191766
614.383	190388
614.449	193816
614.516	192151
614.582	193324
614.648	188354
614.715	188739
614.781	183764
614.847	184410
614.914	182643
614.980	177269
615.046	178750
615.112	183639
615.179	187338
615.245	187249
615.311	185298
615.377	187628
615.443	189912
615.509	191548
615.575	199622
615.642	195903
615.708	200264
615.774	209221
615.840	222135
615.906	236061
615.972	277152
616.038	397799
616.104	734863
616.170	1323851
616.236	1057207
616.302	445967
616.368	358679
616.434	260282
616.500	242309
616.565	275359
616.631	341408
616.697	275038
616.763	289060
616.829	435627
616.895	735702
616.961	652239
617.026	297683
617.092	215344
617.158	200627
617.224	193482
617.289	179183
617.355	170324
617.421	169104
617.487	166983
617.552	160775
617.618	159934
617.684	160405
617.749	162137
617.815	153999
617.880	151038
617.946	151535
618.012	155265
618.077	157695
618.143	149648
618.208	151890
618.274	164264
618.339	160409
618.405	133970
618.470	135603
618.536	134467
618.601	132721
618.667	120984
618.732	117250
618.798	116118
618.863	114805
618.928	115035
618.994	116356
619.059	113349
619.124	116193
619.190	115493
619.255	113218
619.320	113758
619.386	112981
619.451	112643
619.516	108218
619.581	110654
619.647	114588
619.712	113424
619.777	109148
619.842	111675
619.907	112540
619.972	115035
620.038	113560
620.103	110194
620.168	110788
620.233	113958
620.298	113480
620.363	114084
620.428	119209
620.493	121421
620.558	122245
620.623	123282
620.688	122986
620.753	123058
620.818	124667
620.883	125062
620.948	124363
621.013	123270
621.078	120688
621.143	120613
621.207	123497
621.272	120878
621.337	116581
621.402	115266
621.467	115774
621.532	114603
621.596	114944
621.661	110527
621.726	110937
621.791	112393
621.855	113374
621.920	111898
621.985	113116
622.049	114026
622.114	114208
622.179	117192
622.243	118798
622.308	123611
622.373	129378
622.437	122676
622.502	118915
622.566	117661
622.631	115794
622.695	120057
622.760	119417
622.824	118072
622.889	119207
622.953	118469
623.018	126265
623.082	127758
623.147	126571
623.211	122888
623.276	123366
623.340	117814
623.404	116216
623.469	114595
623.533	116489
623.597	113133
623.662	112265
623.726	104502
623.790	99389
623.854	96045
623.919	98587
623.983	98810
624.047	101519
624.111	102541
624.176	102987
624.240	102933
624.304	108289
624.368	103575
624.432	105604
624.496	106948
624.560	113335
624.625	113232
624.689	114069
624.753	117982
624.817	112803
624.881	108004
624.945	98970
625.009	95664
625.073	97471
625.137	99694
625.201	105433
625.265	105257
625.329	101162
625.393	102034
625.456	102981
625.520	106853
625.584	106616
625.648	109569
625.712	111393
625.776	109557
625.839	104440
625.903	89028
625.967	84095
626.031	91321
626.095	107478
626.158	95584
626.222	75464
626.286	72606
626.349	69121
626.413	64698
626.477	66038
626.540	65721
626.604	64556
626.668	64429
626.731	62627
626.795	62442
626.858	62709
626.922	61832
626.986	62309
627.049	61397
627.113	65277
627.176	61540
627.240	59938
627.303	60148
627.366	59655
627.430	60408
627.493	60079
627.557	56896
627.620	60710
627.684	62343
627.747	64414
627.810	54999
627.874	52597
627.937	49193
628.000	52977
628.064	49652
628.127	43459
628.190	44503
628.253	42567
628.317	41168
628.380	39236
628.443	38199
628.506	38032
628.569	36558
628.632	35470
628.696	34948
628.759	34418
628.822	32467
628.885	32298
628.948	32954
629.011	31141
629.074	30125
629.137	28705
629.200	28674
629.263	29747
629.326	27932
629.389	27705
629.452	27636
629.515	27649
629.578	27071
629.641	28424
629.704	26058
629.767	26668
629.830	26481
629.892	26109
629.955	25289
630.018	28178
630.081	24867
630.144	26949
630.207	23398
630.269	27381
630.332	24251
630.395	25211
630.458	23518
630.520	21438
630.583	23800
630.646	25221
630.708	23832
630.771	23862
630.834	26740
630.896	25070
630.959	25093
631.021	23955
631.084	24702
631.146	25230
631.209	26136
631.272	24698
631.334	25474
631.397	25860
631.459	26953
631.522	28271
631.584	29633
631.646	32559
631.709	34133
631.771	32796
631.834	31240
631.896	29780
631.958	26764
632.021	27270
632.083	24817
632.145	25207
632.208	23412
632.270	24857
632.332	22586
632.395	22446
632.457	23377
632.519	22510
632.581	24898
632.643	21577
632.706	22557
632.768	21959
632.830	23474
632.892	23980
632.954	22024
633.016	25407
633.078	23427
633.141	24220
633.203	22482
633.265	23340
633.327	23317
633.389	22125
633.451	23932
633.513	22978
633.575	24069
633.637	24057
633.698	24328
633.760	26827
633.822	28289
633.884	27941
633.946	29963
634.008	30599
634.070	30506
634.132	34828
634.193	37790
634.255	41352
634.317	41446
634.379	41544
634.441	35570
634.502	30945
634.564	29376
634.626	26754
634.687	25232
634.749	23580
634.811	24033
634.873	23216
634.934	23313
634.996	24618
635.057	23571
635.119	23609
635.181	24183
635.242	25820
635.304	22599
635.365	27347
635.427	23388
635.488	24614
635.550	23166
635.611	25339
635.673	24141
635.734	27987
635.796	28259
635.857	33390
635.918	34733
635.980	40017
636.041	41646
636.102	46719
636.164	46556
636.225	44083
636.286	36490
636.348	32718
636.409	28118
636.470	26583
636.531	25326
636.593	23294
636.654	22979
636.715	21557
636.776	21615
636.838	20804
636.899	20824
636.960	19320
637.021	19612
637.082	19188
637.143	19331
637.204	17342
637.265	18571
637.326	19745
637.387	18821
637.448	18853
637.509	19166
637.570	19050
637.631	18776
637.692	16799
637.753	15994
637.814	17506
637.875	17281
637.936	18089
637.997	16957
638.058	16630
638.119	17530
638.179	17040
638.240	16928
638.301	17170
638.362	15933
638.423	16287
638.483	16576
638.544	14797
638.605	16104
638.666	15425
638.726	15506
638.787	16769
638.848	14912
638.908	15874
638.969	15384
639.030	14640
639.090	14685
639.151	14465
639.211	15837
639.272	15542
639.332	16072
639.393	17404
639.453	17172
639.514	18496
639.574	16425
639.635	14343
639.695	15016
639.756	14044
639.816	14551
639.877	13925
639.937	14486
639.997	14842
640.058	13416
640.118	13746
640.178	15080
640.239	13967
640.299	13834
640.359	14529
640.420	16210
640.480	18618
640.540	22180
640.600	21070
640.661	18028
640.721	16894
640.781	17153
640.841	13307
640.901	15342
640.961	15200
641.021	16375
641.082	15920
641.142	14035
641.202	15594
641.262	11985
641.322	14708
641.382	12376
641.442	13235
641.502	13491
641.562	14716
641.622	14497
641.682	16486
641.742	17404
641.802	16043
641.861	14176
641.921	13073
641.981	12769
642.041	12249
642.101	11768
642.161	11534
642.221	12331
642.280	12934
642.340	11459
642.400	11735
642.460	13540
642.519	13056
642.579	13120
642.639	13574
642.698	11105
642.758	15509
642.818	13466
642.877	12457
642.937	13121
642.997	13572
643.056	13281
643.116	12133
643.175	15157
643.235	13914
643.294	14279
643.354	15380
643.414	17058
643.473	20602
643.532	23449
643.592	33617
643.651	52860
643.711	92039
643.770	178763
643.830	424580
643.889	696734
643.948	189447
644.008	47764
644.067	28666
644.126	21329
644.186	17991
644.245	17543
644.304	13523
644.363	15653
644.423	12429
644.482	14808
644.541	15758
644.600	14683
644.659	20774
644.719	25819
644.778	41332
644.837	73252
644.896	157864
644.955	317725
645.014	90899
645.073	24173
645.132	19331
645.191	16866
645.250	15651
645.309	18197
645.368	19707
645.427	28485
645.486	53022
645.545	84272
645.604	21481
645.663	14173
645.722	14439
645.781	15258
645.840	18366
645.898	21657
645.957	33101
646.016	49282
646.075	90096
646.134	171533
646.192	445890
646.251	522180
646.310	96134
646.369	35308
646.427	29185
646.486	18582
646.545	15625
646.603	14491
646.662	13550
646.721	12335
646.779	13062
646.838	12822
646.896	18291
646.955	26112
647.014	43070
647.072	89642
647.131	229044
647.189	87521
647.248	15606
647.306	12259
647.365	11714
647.423	8015
647.481	10389
647.540	8475
647.598	9156
647.657	8591
647.715	10174
647.773	7689
647.832	9250
647.890	6943
647.948	6801
648.007	7581
648.065	6336
648.123	6671
648.181	8213
648.240	6799
648.298	6365
648.356	6226
648.414	7893
648.472	6530
648.531	7153
648.589	6000
648.647	6124
648.705	7502
648.763	6981
648.821	7432
648.879	7184
648.937	8877
648.995	11330
649.053	15158
649.111	23414
649.169	41644
649.227	76661
649.285	167386
649.343	416902
649.401	166877
649.459	25971
649.516	16374
649.574	11215
649.632	12616
649.690	14709
649.748	19438
649.806	30484
649.863	61616
649.921	172551
649.979	90952
650.037	13382
650.094	7485
650.152	7877
650.210	5647
650.268	6271
650.325	5063
650.383	4200
650.440	4291
650.498	5142
650.556	4323
650.613	4273
650.671	5923
650.728	4354
650.786	6343
650.843	9575
650.901	4498
650.958	4670
651.016	3412
651.073	4323
651.131	3654
651.188	3758
651.246	3333
651.303	2441
651.360	3505
651.418	3472
651.475	3198
651.532	2705
651.590	3909
651.647	3912
651.704	3611
651.762	2916
651.819	2866
651.876	3007
651.933	3214
651.990	4030
652.048	2151
652.105	3369
652.162	3113
652.219	2824
652.276	3332
652.333	3362
652.390	1201
652.448	2997
652.505	2851
652.562	2680
652.619	2616
652.676	2642
652.733	3034
652.790	2385
652.847	2074
652.904	2991
652.961	1117
653.017	2026
653.074	2495
653.131	2931
653.188	1987
653.245	2271
653.302	1723
653.359	2478
653.415	3006
653.472	1608
653.529	2710
653.586	2018
653.642	1834
653.699	3452
653.756	1428
653.813	2164
653.869	3664
653.926	2402
653.983	1915
654.039	2974
654.096	2585
654.152	2750
654.209	1471
654.266	2097
654.322	991
654.379	2457
654.435	1862
654.492	1439
654.548	1895
654.605	1596
654.661	1712
654.717	1248
654.774	2457
654.830	2257
654.887	2073
654.943	2245
655.000	2407
655.056	2331
655.112	1721
655.168	1177
655.225	2594
655.281	2349
655.337	2336
655.394	1604
655.450	1852
655.506	1775
655.562	1158
655.618	2235
655.675	1230
655.731	2423
655.787	1309
655.843	2389
655.899	1186
655.955	2838
656.011	2392
656.067	694
656.123	1572
656.179	1467
656.235	3613
656.291	1273
656.347	3045
656.403	1449
656.459	2172
656.515	2061
656.571	2060
656.627	1573
656.683	998
656.739	2556
656.795	1967
656.850	1830
656.906	1832
656.962	3398
657.018	1919
657.074	2768
657.129	3974
657.185	10210
657.241	24708
657.297	10907
657.352	2165
657.408	674
657.464	1616
657.519	454
657.575	1011
657.630	1869
657.686	1964
657.742	765
657.797	1358
657.853	1814
657.908	2676
657.964	111
658.019	1229
658.075	1415
658.130	1295
658.186	858
658.241	1954
658.297	959
658.352	951
658.407	1560
658.463	747
658.518	2274
658.573	1140
658.629	1039
658.684	1194
658.739	1780
658.795	80
658.850	1452
658.905	793
658.960	1071
659.016	784
659.071	285
659.126	904
659.181	1350
659.236	1036
659.291	2466
659.346	885
659.401	1280
659.457	1674
659.512	391
659.567	2448
659.622	1713
659.677	915
659.732	42
659.787	961
659.842	627
659.897	975
659.952	1251
660.007	508
660.061	567
660.116	218
660.171	184
660.226	545
660.281	1331
660.336	588
660.391	2065
660.445	-496
660.500	1417
660.555	724
660.610	579
660.664	1325
660.719	781
660.774	185
660.828	988
660.883	-13
660.938	1173
660.992	-163
661.047	1041
661.101	282
661.156	-1
661.211	650
661.265	1349
661.320	148
661.374	1077
661.429	413
661.483	956
661.538	-835
661.592	983
661.647	702
661.701	1338
661.755	924
661.810	344
661.864	-527
661.919	26
661.973	1165
662.027	580
662.081	407
662.136	795
662.190	1024
662.244	377
662.299	834
662.353	1019
662.407	492
662.461	632
662.515	692
662.569	250
662.624	135
662.678	691
662.732	47
662.786	393
662.840	1007
662.894	226
662.948	-78
663.002	-397
663.056	36
663.110	119
663.164	68
663.218	1086
663.272	936
663.326	1201
663.380	-329
663.434	1193
663.488	-254
663.542	532
663.595	468
663.649	561
663.703	346
663.757	515
663.811	-124
663.864	766
663.918	662
663.972	307
664.026	161
664.079	698
664.133	498
664.187	573
664.240	-151
664.294	734
664.348	406
664.401	683
664.455	776
664.508	204
664.562	614
664.615	952
664.669	288
664.722	1118
664.776	918
664.829	792
664.883	303
664.936	-40
664.990	50
665.043	735
665.097	906
665.150	950
665.203	314
665.257	767
665.310	74
665.363	363
665.417	646
665.470	819
665.523	754
665.576	587
665.630	1389
665.683	1321
665.736	1300
665.789	1255
665.842	45
665.895	899
665.949	829
666.002	419
666.055	316
666.108	1599
666.161	945
666.214	1735
666.267	883
666.320	1177
666.373	1298
666.426	1426
666.479	1273
666.532	886
666.585	1142
666.638	1258
666.691	578
666.744	1794
666.796	781
666.849	986
666.902	940
666.955	1407
667.008	877
667.060	320
667.113	329
667.166	1333
667.219	812
667.271	1193
667.324	1051
667.377	1562
667.430	319
667.482	1839
667.535	604
667.587	1600
667.640	777
667.693	689
667.745	1089
667.798	1376
667.850	1387
667.903	1139
667.955	858
668.008	271
668.060	597
668.113	833
668.165	662
668.218	481
668.270	441
668.322	399
668.375	1115
668.427	1579
668.479	-223
668.532	1357
668.584	1191
668.636	879
668.689	649
668.741	936
668.793	905
668.845	632
668.898	74
668.950	666
669.002	1187
669.054	485
669.106	1295
669.158	1159
669.211	673
669.263	1558
669.315	1238
669.367	801
669.419	51
669.471	1108
669.523	195
669.575	451
669.627	-409
669.679	1153
669.731	313
669.783	1303
669.835	515
669.886	614
669.938	753
669.990	1026
670.042	-191
670.094	1350
670.146	488
670.197	992
670.249	956
670.301	937
670.353	929
670.404	1620
670.456	1302
670.508	2363
670.560	2884
670.611	5557
670.663	8425
670.715	23417
670.766	30390
670.818	6235
670.869	1663
670.921	2475
670.972	1233
671.024	1098
671.075	583
671.127	1234
671.178	2154
671.230	1156
671.281	1553
671.333	2678
671.384	2733
671.436	5134
671.487	8364
671.538	12583
671.590	21624
671.641	38891
671.692	71965
671.744	128754
671.795	74039
671.846	23798
671.897	10102
671.949	6321
672.000	3695
672.051	3180
672.102	1955
672.153	1358
672.204	1485
672.256	1974
672.307	491
672.358	1184
672.409	646
672.460	933
672.511	-106
672.562	144
672.613	151
672.664	557
672.715	519
672.766	592
672.817	-677
672.868	-309
672.919	441
672.970	22
673.021	-51
673.071	605
673.122	366
673.173	389
673.224	-459
673.275	-650
673.326	290
673.376	396
673.427	52
673.478	12
673.528	337
673.579	441
673.630	347
673.680	371
673.731	37
673.782	354
673.832	-554
673.883	432
673.934	-15
673.984	57
674.035	82
674.085	148
674.136	-151
674.186	-479
674.237	-213
674.287	67
674.338	-677
674.388	-457
674.438	38
674.489	460
674.539	-121
674.589	247
674.640	738
674.690	8
674.740	-338
674.791	-293
674.841	-883
674.891	614
674.942	-376
674.992	-960
675.042	-1418
675.092	-618
675.142	-1281
675.193	-712
675.243	61
675.293	-122
675.343	-576
675.393	-593
675.443	-621
675.493	-303
675.543	-170
675.593	330
675.643	29
675.693	278
675.743	-87
675.793	-762
675.843	-614
675.893	-238
675.943	-598
675.993	-501
676.043	-932
676.093	-556
676.142	-923
676.192	-683
676.242	-378
676.292	-175
676.341	-1104
676.391	-1254
676.441	-1075
676.491	-95
676.540	-930
676.590	328
676.640	-48
676.689	-812
676.739	-1317
676.789	-327
676.838	-910
676.888	-570
676.937	-767
676.987	-410
677.037	-1379
677.086	-760
677.136	-481
677.185	-931
677.235	-1121
677.284	-864
677.333	-1167
677.383	-859
677.432	-1234
677.482	175
677.531	-709
677.580	-1128
677.630	-745
677.679	-1052
677.728	-544
677.778	-465
677.827	-1116
677.876	-1226
677.925	-1697
677.975	-424
678.024	-773
678.073	45
678.122	-612
678.171	-722
678.220	-938
678.269	499
678.319	454
678.368	-100
678.417	-615
678.466	-41
678.515	-379
678.564	-799
678.613	-1355
678.662	-979
678.711	-1161
678.760	-866
678.809	-1407
678.857	-357
678.906	-1031
678.955	-1139
679.004	-711
679.053	-727
679.102	-1494
679.151	-1423
679.199	-949
679.248	-446
679.297	-926
679.346	-706
679.394	-1653
679.443	-897
679.492	-745
679.540	-812
679.589	-580
679.638	-1177
679.686	-599
679.735	-401
679.784	-1061
679.832	214
679.881	-263
679.929	-579
679.978	-1320
680.026	-187
680.075	-29
680.123	-581
680.172	-1428
680.220	-513
680.268	-1369
680.317	-255
680.365	-1340
680.414	-1380
680.462	-924
680.510	-286
680.559	-980
680.607	-444
680.655	-1400
680.703	-795
680.752	-1154
680.800	-1338
680.848	-1327
680.896	-1572
680.945	-1227
680.993	-1061
681.041	-951
681.089	-1353
681.137	-1489
681.185	-1122
681.233	-1136
681.258	-1033
681.281	-958
681.329	-1132
681.377	-954
681.380	-911
681.425	-472
681.473	-457
681.502	-808
681.521	-1093
681.569	-98
681.617	-917
681.624	-860
681.665	-632
681.713	-528
681.745	-525
681.761	-566
681.809	-537
681.857	597
681.867	279
681.904	-900
681.952	147
681.989	-824
682.000	-1147
682.048	-408
682.096	-742
682.111	-660
682.143	-539
682.191	35
682.233	42
682.239	18
682.286	-254
682.334	-321
682.354	-396
682.382	-517
682.430	199
682.476	-81
682.477	-107
682.525	-180
682.572	-320
682.598	-10
682.620	222
682.667	1160
682.715	610
682.720	596
682.763	276
682.810	276
682.841	323
682.857	335
682.905	716
682.952	232
682.963	315
683.000	489
683.047	-139
683.085	1141
683.095	1485
683.142	894
683.190	543
683.206	493
683.237	283
683.284	1402
683.328	888
683.332	835
683.379	1352
683.426	439
683.449	926
683.473	1388
683.521	552
683.568	1096
683.571	1124
683.615	1274
683.662	840
683.693	816
683.709	781
683.757	1261
683.804	960
683.814	1129
683.851	1641
683.898	1021
683.936	1518
683.945	1633
683.992	1030
684.039	2344
684.057	1973
684.086	1335
684.133	1419
684.179	1060
684.180	1034
684.227	2076
684.274	1630
684.300	1810
684.321	1979
684.368	1645
684.415	2502
684.422	2351
684.462	1322
684.509	1633
684.543	1921
684.556	2017
684.603	1966
684.649	2164
684.665	2044
684.696	1764
684.743	1984
684.786	2301
684.790	2319
684.837	2438
684.883	2732
684.908	2736
684.930	2643
684.977	2705
685.023	2011
685.029	2103
685.070	2878
685.117	1998
685.150	2499
685.164	2643
685.210	2430
685.257	2746
685.272	2739
685.303	2759
685.350	2739
685.393	2160
685.396	2100
685.443	2586
685.490	2454
685.514	2507
685.536	2557
685.583	2453
685.629	2531
685.636	2451
685.675	2034
685.722	2760
685.757	2754
685.768	2724
685.815	2448
685.861	2743
685.878	2807
685.908	2948
685.954	2760
686.000	3430
686.000	3435
686.047	3306
686.093	3525
686.121	3502
686.139	3467
686.185	3450
686.232	2745
686.242	2807
686.278	3052
686.324	3717
686.363	3421
686.370	3352
686.416	3385
686.463	3084
686.484	3049
686.509	3036
686.555	3222
686.601	3417
686.606	3445
686.647	3577
686.693	3611
686.727	3288
686.739	3209
686.785	2879
686.831	3039
686.848	3233
686.877	3574
686.923	3408
686.969	4134
686.969	4138
687.015	4228
687.061	4407
687.090	4708
687.107	4743
687.153	4354
687.199	3997
687.211	3899
687.245	3860
687.291	4455
687.332	4400
687.336	4377
687.382	4224
687.428	3862
687.453	3996
687.474	4187
687.520	4073
687.565	4236
687.574	4208
687.611	4147
687.657	4580
687.695	4541
687.702	4528
687.748	4988
687.794	4914
687.816	5046
687.839	5092
687.885	4579
687.931	4794
687.937	4752
687.976	4670
688.022	4716
688.058	4878
688.067	4911
688.113	5273
688.158	5070
688.179	5061
688.204	4998
688.249	5190
688.295	4876
688.300	4865
688.340	4839
688.386	5069
688.421	4879
688.431	4857
688.477	4783
688.522	4975
688.542	5090
688.567	5409
688.613	5467
688.658	6328
688.663	6319
688.703	5823
688.749	5681
688.784	5558
688.794	5592
688.839	5906
688.884	5781
688.905	5970
688.930	6118
688.975	5596
689.020	5745
689.026	5687
689.065	5339
689.110	5386
689.146	5291
689.155	5304
689.201	5474
689.246	5799
689.267	5657
689.291	5548
689.336	5669
689.381	5912
689.388	5853
689.426	5588
689.471	6257
689.509	6366
689.516	6360
689.561	6085
689.606	5777
689.630	5835
689.651	6041
689.696	5783
689.741	6303
689.750	6260
689.785	6040
689.830	6247
689.871	6337
689.875	6346
689.920	6119
689.965	6314
689.992	6195
690.010	6147
690.054	5844
690.099	5624
690.112	5617
690.144	5720
690.189	6195
690.233	5426
690.233	5433
690.278	6093
690.323	6073
690.354	6071
690.367	6093
690.412	5960
690.457	6225
690.474	6104
690.501	5899
690.546	6148
690.590	6032
690.595	6009
690.635	5944
690.680	5596
690.716	5565
690.724	5619
690.769	6366
690.813	6841
690.836	6645
690.857	6554
690.902	6943
690.946	6949
690.957	7112
690.991	7769
691.035	8099
691.077	8701
691.080	8703
691.124	7846
691.168	7638
691.198	7257
691.213	7187
691.257	6711
691.301	6761
691.318	6642
691.346	6706
691.390	6801
691.434	6878
691.439	6885
691.478	6941
691.522	7332
691.559	7246
691.567	7271
691.611	7750
691.655	7775
691.680	7711
691.699	7534
691.743	7160
691.787	6969
691.800	6850
691.831	6853
691.875	7272
691.919	7320
691.921	7303
691.964	7273
692.008	7330
692.041	7438
692.052	7471
692.096	7436
692.139	7919
692.162	7699
692.183	7389
692.227	7381
692.271	6783
692.282	6709
692.315	6924
692.359	7253
692.402	7581
692.403	7600
692.447	7287
692.490	7403
692.523	7479
692.534	7506
692.578	7557
692.622	7353
692.643	7342
692.666	7374
692.709	7182
692.753	7094
692.763	7069
692.797	7181
692.840	7146
692.884	7585
692.884	7607
692.928	7470
692.971	7558
693.004	7831
693.015	7860
693.059	7350
693.102	7792
693.124	7427
693.146	7182
693.189	7488
693.233	7070
693.245	7115
693.276	7547
693.320	7661
693.363	8016
693.365	8003
693.407	7783
693.450	7567
693.485	7512
693.493	7637
693.537	8168
693.580	8274
693.605	8643
693.624	8837
693.667	8797
693.710	9111
693.725	9133
693.753	9762
693.797	10733
693.840	11938
693.845	11990
693.883	10900
693.926	9922
693.966	9155
693.970	9179
694.013	9308
694.056	9026
694.086	8729
694.099	8578
694.142	8412
694.185	7988
694.206	7862
694.229	8184
694.272	8628
694.315	9027
694.326	9127
694.358	9141
694.401	9371
694.444	8993
694.446	8977
694.487	9227
694.530	9124
694.566	9218
694.573	9216
694.616	8646
694.659	8593
694.686	8354
694.702	8390
694.745	8512
694.787	8375
694.806	8492
694.830	8712
694.873	8753
694.916	8854
694.926	8863
694.959	9010
695.002	9045
695.044	9124
695.046	9112
695.087	9455
695.130	9284
695.166	9480
695.172	9550
695.215	9615
695.258	9720
695.286	9728
695.301	9850
695.343	10314
695.386	10515
695.406	10711
695.428	11302
695.471	12229
695.514	13334
695.526	13528
695.556	14059
695.599	15113
695.641	15922
695.646	15978
695.684	15367
695.726	14544
695.766	13738
695.769	13739
695.811	13307
695.854	12894
695.886	12502
695.896	12573
695.938	12861
695.981	12804
696.005	12957
696.023	13477
696.065	14289
696.108	15534
696.125	15852
696.150	15948
696.192	16359
696.235	16390
696.245	16440
696.277	16496
696.319	16418
696.361	16267
696.365	16201
696.404	15989
696.446	15895
696.485	15721
696.488	15762
696.530	15729
696.572	15584
696.604	15533
696.614	15656
696.656	16066
696.698	16331
696.724	16497
696.740	16503
696.783	16258
696.825	16259
696.844	16155
696.867	16269
696.909	16353
696.951	16533
696.964	16523
696.992	16659
697.034	16782
697.076	16867
697.083	16856
697.118	17466
697.160	18057
697.202	18685
697.203	18648
697.244	18280
697.286	18109
697.323	17635
697.327	17671
697.369	17778
697.411	17797
697.442	17714
697.453	17771
697.494	17830
697.536	17939
697.562	17967
697.578	18103
697.620	18273
697.661	18398
697.682	18458
697.703	18885
697.744	19574
697.786	20436
697.801	20598
697.828	20418
697.869	20169
697.911	19918
697.921	19797
697.952	19575
697.994	19177
698.035	18883
698.040	18784
698.077	19224
698.118	19734
698.160	20135
698.160	20080
698.201	20597
698.243	20942
698.279	21262
698.284	21301
698.325	21069
698.367	20877
698.399	20643
698.408	20883
698.449	21754
698.491	22603
698.518	23110
698.532	23290
698.573	23622
698.614	24004
698.638	24147
698.656	23988
698.697	23477
698.738	22928
698.757	22622
698.779	22690
698.820	22676
698.862	22683
698.877	22624
698.903	23063
698.944	23656
698.985	24259
698.996	24360
699.026	24001
699.067	23410
699.116	22644
699.235	22741
699.354	22702
699.474	20899
699.593	20949
699.713	21510
699.832	21907
699.951	22985
700.070	23065
700.190	21189
700.309	19768
700.428	19180
700.547	19670
700.667	18609
700.786	19095
700.905	17797
701.024	19638
701.143	17648
701.262	19897
701.381	18880
701.500	20045
701.619	18301
701.738	20279
701.857	19883
701.976	18036
702.095	19267
702.214	19807
702.333	18644
702.452	20139
702.571	20148
702.690	19180
702.809	19710
702.928	18768
703.047	17453
703.165	18312
703.284	17663
703.403	17394
703.522	16965
703.640	16940
703.759	16373
703.878	16365
703.997	16120
704.115	17426
704.234	16606
704.353	17438
704.471	14996
704.590	15024
704.708	15262
704.827	16259
704.946	15610
705.064	15111
705.183	14965
705.301	15203
705.420	14059
705.538	14341
705.656	13087
705.775	13451
705.893	13325
706.012	14130
706.130	13365
706.249	15250
706.367	13823
706.485	13581
706.604	12538
706.722	13104
706.840	13149
706.958	14323
707.077	12300
707.195	12401
707.313	12978
707.431	11736
707.549	11712
707.668	11286
707.786	12972
707.904	13012
708.022	12418
708.140	11667
708.258	11588
708.376	12653
708.494	10912
708.612	13526
708.730	11912
708.848	12618
708.966	12325
709.084	11975
709.202	12096
709.320	10864
709.438	10968
709.556	11990
709.674	10016
709.791	11063
709.909	9949
710.027	10949
710.145	9933
710.263	10499
710.380	10650
710.498	9809
710.616	10200
710.733	9512
710.851	9268
710.969	10264
711.086	9691
711.204	9373
711.322	9507
711.439	9217
711.557	8349
711.674	9908
711.792	9028
711.909	9016
712.027	8197
712.144	10219
712.262	9610
712.379	8952
712.497	8859
712.614	8464
712.732	9534
712.849	9157
712.966	10033
713.084	9899
713.201	8051
713.318	8955
713.436	9709
713.553	9761
713.670	10221
713.787	10158
713.905	8933
714.022	9971
714.139	11058
714.256	13942
714.373	21001
714.490	40126
714.608	115909
714.725	451664
714.842	326778
714.959	33114
715.076	14648
715.193	12593
715.310	11214
715.427	9057
715.544	9895
715.661	9450
715.778	9024
715.895	8995
716.011	8134
716.128	8701
716.245	8528
716.362	8060
716.479	6580
716.596	8523
716.713	7430
716.829	7326
716.946	7750
717.063	6485
717.180	6705
717.296	6688
717.413	7630
717.530	7364
717.646	6252
717.763	6924
717.880	6166
717.996	5828
718.113	5998
718.229	6063
718.346	5881
718.462	6747
718.579	6034
718.695	6788
718.812	6179
718.928	6381
719.045	6199
719.161	6006
719.277	7148
719.394	6947
719.510	6791
719.626	7218
719.743	9989
719.859	18171
719.975	40389
720.092	169862
720.208	295474
720.324	29171
720.440	10032
720.557	7587
720.673	8174
720.789	6402
720.905	6413
721.021	6558
721.137	5117
721.253	6110
721.369	6340
721.486	6468
721.602	5721
721.718	5416
721.834	5973
721.950	5877
722.066	5405
722.181	4829
722.297	5784
722.413	5275
722.529	5879
722.645	4932
722.761	5789
722.877	5913
722.993	6246
723.108	8648
723.224	5547
723.340	5149
723.456	4956
723.571	4575
723.687	4689
723.803	4606
723.918	5260
724.034	4710
724.150	4471
724.265	4563
724.381	4537
724.497	4421
724.612	4385
724.728	4895
724.843	4789
724.959	4847
725.074	4682
725.190	4741
725.305	4470
725.421	4655
725.536	4284
725.651	4434
725.767	3828
725.882	5700
725.997	3250
726.113	5583
726.228	3882
726.343	4647
726.459	4849
726.574	6004
726.689	4317
726.804	5254
726.920	5167
727.035	4943
727.150	3828
727.265	4469
727.380	4926
727.495	4717
727.610	3857
727.725	4117
727.841	3903
727.956	4674
728.071	4165
728.186	4443
728.301	4731
728.416	4631
728.531	4724
728.645	2988
728.760	4498
728.875	3988
728.990	4404
729.105	4741
729.220	4866
729.335	4658
729.449	3855
729.564	5121
729.679	3326
729.794	4643
729.908	4425
730.023	3956
730.138	4400
730.253	5604
730.367	4250
730.482	4426
730.596	5328
730.711	5383
730.826	6995
730.940	6503
731.055	5701
731.169	6190
731.284	5651
731.398	6385
731.513	6590
731.627	6684
731.742	9098
731.856	12069
731.970	11636
732.085	14546
732.199	20830
732.313	37389
732.428	104270
732.542	300345
732.656	136181
732.771	26850
732.885	16288
732.999	15451
733.113	16354
733.227	16362
733.342	15369
733.456	14058
733.570	14688
733.684	13574
733.798	12218
733.912	13835
734.026	11900
734.140	12664
734.254	11929
734.368	12426
734.482	11990
734.596	12513
734.710	11225
734.824	11772
734.938	11518
735.052	11608
735.166	11776
735.280	11597
735.393	11183
735.507	11661
735.621	10940
735.735	10279
735.849	11930
735.962	10863
736.076	10544
736.190	10370
736.303	10650
736.417	10324
736.531	10418
736.644	10995
736.758	9916
736.872	10007
736.985	10094
737.099	9851
737.212	8919
737.326	9713
737.439	10285
737.553	9772
737.666	10008
737.780	8804
737.893	10159
738.007	9388
738.120	9205
738.233	9377
738.347	8001
738.460	8738
738.573	9957
738.687	8257
738.800	8793
738.913	10709
739.026	8632
739.140	8926
739.253	9198
739.366	8672
739.479	7767
739.592	8928
739.705	7474
739.818	8982
739.932	7512
740.045	8830
740.158	8567
740.271	8074
740.384	8019
740.497	7673
740.610	8257
740.723	7581
740.836	7827
740.949	8078
741.062	8520
741.174	7853
741.287	8191
741.400	8275
741.513	7829
741.626	8444
741.739	6971
741.851	7777
741.964	8407
742.077	7317
742.189	7112
742.302	7000
742.415	6854
742.527	6985
742.640	7175
742.753	6637
742.865	6883
742.978	6975
743.090	7197
743.203	6985
743.316	6274
743.428	7458
743.541	6251
743.653	5333
743.766	6379
743.878	6728
743.990	5302
744.103	6754
744.215	6012
744.327	6399
744.440	7997
744.552	6483
744.664	5407
744.777	6914
744.889	6175
745.001	7092
745.113	6383
745.226	6412
745.338	6104
745.450	7411
745.562	5566
745.674	5155
745.786	6673
745.898	6744
746.010	5206
746.122	6216
746.234	6831
746.347	6388
746.459	5903
746.570	3850
746.682	6476
746.794	7064
746.906	5747
747.018	4902
747.130	6214
747.242	4936
747.354	4806
747.466	5990
747.577	5069
747.689	6616
747.801	5508
747.913	4855
748.024	4486
748.136	4936
748.248	5190
748.359	5031
748.471	5269
748.583	4334
748.694	4177
748.806	5047
748.918	4471
749.029	5022
749.141	5290
749.252	5238
749.364	4501
749.475	4479
749.587	4242
749.698	4176
749.809	5336
749.921	5405
750.032	4059
750.144	5383
750.255	4068
750.366	4505
750.478	3546
750.589	4427
750.700	3303
750.811	4614
750.923	4709
751.034	4671
751.145	5144
751.256	3913
751.367	4423
751.479	4544
751.590	4023
751.701	4492
751.812	3061
751.923	3998
752.034	4226
752.145	4586
752.256	4295
752.367	4644
752.478	4609
752.589	4546
752.700	4359
752.811	4369
752.922	4501
753.032	5100
753.143	4148
753.254	3555
753.365	4994
753.476	4813
753.586	4134
753.697	4307
753.808	3456
753.919	4187
754.029	3818
754.140	3764
754.251	4493
754.361	3498
754.472	5490
754.582	3704
754.693	3847
754.804	4977
754.914	3927
755.025	3776
755.135	3009
755.246	5227
755.356	4329
755.466	4314
755.577	3885
755.687	4091
755.798	2806
755.908	3922
756.018	3697
756.129	3756
756.239	3733
756.349	3926
756.460	3441
756.570	4429
756.680	3270
756.790	4083
756.900	3926
757.011	3990
757.121	3767
757.231	3810
757.341	3849
757.451	3232
757.561	2154
757.671	3839
757.781	3395
757.891	4178
758.001	2902
758.111	3781
758.221	4398
758.331	4196
758.441	4026
758.551	3747
758.661	4351
758.771	4736
758.880	2983
758.990	2815
759.100	3934
759.210	3195
759.320	5079
759.429	4225
759.539	4530
759.649	5001
759.758	5549
759.868	6102
759.978	5590
760.087	5971
760.197	5623
760.307	4821
760.416	5025
760.526	3675
760.635	5896
760.745	5755
760.854	5641
760.964	7150
761.073	5705
761.182	6013
761.292	5136
761.401	4745
761.511	3950
761.620	3633
761.729	3718
761.839	3072
761.948	3273
762.057	3867
762.166	3600
762.276	3203
762.385	3749
762.494	4069
762.603	3009
762.712	3316
762.822	3528
762.931	3975
763.040	1823
763.149	3151
763.258	3030
763.367	3617
763.476	2590
763.585	3069
763.694	2456
763.803	3505
763.912	2799
764.021	3694
764.130	2165
764.238	3347
764.347	3560
764.456	4320
764.565	3316
764.674	3123
764.783	2912
764.891	3614
765.000	3888
765.109	4168
765.217	3289
765.326	4701
765.435	4593
765.543	6250
765.652	5773
765.761	7437
765.869	10083
765.978	14102
766.086	24391
766.195	47576
766.303	115096
766.412	227193
766.520	170220
766.629	66521
766.737	28122
766.846	17072
766.954	10685
767.062	9388
767.171	5962
767.279	6565
767.387	5353
767.496	5513
767.604	3307
767.712	4962
767.820	4239
767.928	3690
768.037	4004
768.145	4807
768.253	4423
768.361	2612
768.469	2988
768.577	3730
768.685	4430
768.793	4075
768.901	4006
769.009	4832
769.117	4971
769.225	5649
769.333	7606
769.441	10939
769.549	19324
769.657	44049
769.765	125801
769.873	177354
769.981	72618
770.088	22796
770.196	11828
770.304	9272
770.412	7082
770.519	6611
770.627	6381
770.735	4645
770.842	4295
770.950	5420
771.058	4608
771.165	6222
771.273	5274
771.380	7127
771.488	8926
771.595	9118
771.703	7710
771.810	7321
771.918	8333
772.025	10032
772.133	10254
772.240	9619
772.348	11355
772.455	11794
772.562	9846
772.670	9717
772.777	10178
772.884	9094
772.991	8509
773.099	9668
773.206	8752
773.313	9056
773.420	8521
773.528	9662
773.635	8698
773.742	9936
773.849	9294
773.956	9353
774.063	8517
774.170	7718
774.277	8813
774.384	8391
774.491	8149
774.598	9381
774.705	8077
774.812	8511
774.919	7647
775.026	8463
775.133	7802
775.239	8511
775.346	7010
775.453	7615
775.560	7720
775.667	8282
775.773	6919
775.880	9263
775.987	7334
776.093	8054
776.200	7886
776.307	5570
776.413	6143
776.520	8391
776.627	6842
776.733	6703
776.840	5563
776.946	9957
777.053	6918
777.159	6965
777.266	5490
777.372	7127
777.478	7239
777.585	7559
777.691	5489
777.798	7282
777.904	6019
778.010	5823
778.117	6030
778.223	6242
778.329	6012
778.435	6480
778.542	7177
778.648	6037
778.754	5697
778.860	6646
778.966	6046
779.072	5973
779.178	6058
779.284	5436
779.391	5189
779.497	5193
779.603	6715
779.708	5320
779.815	5746
779.920	7372
780.026	6908
780.132	6318
780.238	5592
780.344	4989
780.450	6882
780.556	4334
780.661	4811
780.767	5775
780.873	3901
780.979	4802
781.085	5293
781.190	5536
781.296	4047
781.402	5627
781.507	4918
781.613	3919
781.719	4756
781.824	5774
781.930	4375
782.035	5268
782.141	5295
782.246	3846
782.352	4228
782.457	4325
782.563	4792
782.668	4840
782.773	3494
782.879	3069
782.984	4988
783.090	4410
783.195	4903
783.300	4804
783.405	3566
783.511	3628
783.616	4109
783.721	4755
783.826	2960
783.932	4239
784.037	4807
784.142	4401
784.247	3750
784.352	4725
784.457	2809
784.562	4690
784.667	3912
784.772	3047
784.877	2152
784.982	4527
785.087	4569
785.192	4542
785.297	3072
785.402	3757
785.507	3766
785.611	3661
785.716	2664
785.821	4080
785.926	4233
786.031	4208
786.135	3320
786.240	3425
786.345	1512
786.450	3632
786.554	3655
786.659	3113
786.763	2858
786.868	3549
786.973	4407
787.077	2503
787.182	2396
787.286	3660
787.391	4300
787.495	2335
787.600	1653
787.704	2631
787.809	3652
787.913	3254
788.017	3729
788.122	3761
788.226	2916
788.330	1519
788.435	2994
788.539	3927
788.643	3404
788.747	1923
788.852	1948
788.956	2842
789.060	3868
789.164	3251
789.268	2398
789.372	3836
789.476	2471
789.580	2314
789.684	1955
789.788	4212
789.892	2331
789.996	2468
790.100	1931
790.204	2902
790.308	3576
790.412	1954
790.516	1456
790.620	2159
790.724	3287
790.828	2668
790.931	927
791.035	4014
791.139	2039
791.242	2109
791.346	3081
791.450	3326
791.554	1584
791.657	1697
791.761	3154
791.864	3433
791.968	2569
792.072	2972
792.175	1719
792.279	2796
792.382	1981
792.486	2728
792.589	1950
792.693	3428
792.796	1066
792.899	2798
793.003	3259
793.106	1429
793.209	1538
793.313	2564
793.416	-49
793.519	3127
793.623	3019
793.726	2454
793.829	1669
793.932	1659
794.035	558
794.138	3342
794.242	2364
794.345	2151
794.448	1878
794.551	1068
794.654	3947
794.757	3658
794.860	1762
794.963	3052
795.066	1302
795.169	2967
795.272	1325
795.375	2860
795.477	422
795.580	1834
795.683	508
795.786	2690
795.889	1435
795.991	2364
796.094	2242
796.197	245
796.300	3324
796.402	2456
796.505	1141
796.608	1332
796.710	2122
796.813	2513
796.915	2188
797.018	1801
797.120	2246
797.223	974
797.326	2502
797.428	1572
797.530	691
797.633	2013
797.735	2477
797.838	1444
797.940	3130
798.042	1957
798.145	593
798.247	2297
798.349	578
798.452	2887
798.554	1890
798.656	1947
798.758	3716
798.860	2067
798.962	1034
799.065	745
799.167	804
799.269	2416
799.371	2087
799.473	3327
799.575	1425
799.677	1621
799.779	2741
799.881	136
799.983	1893
800.085	1800
800.187	1527
800.289	533
800.390	1237
800.492	2168
800.594	2575
800.696	1009
800.798	953
800.899	740
801.001	1323
801.103	1708
801.205	1111
801.306	1544
801.408	865
801.509	1769
801.611	2424
801.713	1412
801.814	1049
801.916	747
802.017	1220
802.119	-130
802.220	1508
802.322	612
802.423	2293
802.525	173
802.626	1483
802.727	1404
802.829	1154
802.930	-1395
803.031	1973
803.133	1194
803.234	636
803.335	1476
803.436	333
803.538	936
803.639	459
803.740	1567
803.841	748
803.942	1754
804.043	1848
804.144	168
804.245	1052
804.346	506
804.447	695
804.548	797
804.649	1763
804.750	544
804.851	197
804.952	994
805.053	21
805.154	-201
805.255	2023
805.355	1345
805.456	595
805.557	1282
805.658	183
805.758	2193
805.859	1433
805.960	1639
806.061	526
806.161	1154
806.262	1087
806.362	1229
806.463	688
806.564	1745
806.664	-91
806.765	516
806.865	851
806.966	986
807.066	492
807.166	2416
807.267	2035
807.367	695
807.468	1735
807.568	-711
807.668	1810
807.769	2620
807.869	556
807.969	1371
808.069	943
808.170	691
808.270	657
808.370	952
808.470	448
808.570	242
808.670	772
808.770	855
808.870	-270
808.970	1765
809.070	420
809.170	454
809.271	704
809.370	758
809.470	927
809.570	320
809.670	-361
809.770	695
809.870	1935
809.970	788
810.070	763
810.169	774
810.269	-619
810.369	1176
810.469	870
810.568	432
810.668	701
810.768	640
810.867	994
810.967	-204
811.066	874
811.166	1222
811.265	801
811.365	687
811.464	-341
811.564	1443
811.663	1289
811.763	-867
811.862	953
811.962	733
812.061	91
812.160	374
812.260	168
812.359	468
812.458	447
812.557	912
812.657	-634
812.756	1222
812.855	1095
812.954	71
813.053	656
813.153	1056
813.252	-500
813.351	837
813.450	337
813.549	520
813.648	333
813.747	651
813.846	1198
813.945	847
814.044	1372
814.143	1639
814.242	1358
814.341	1078
814.439	1673
814.538	1962
814.637	1877
814.736	1455
814.835	1404
814.933	998
815.032	2967
815.131	3030
815.229	5720
815.328	9376
815.427	5489
815.525	6614
815.624	5001
815.722	4475
815.821	5396
815.919	5711
816.018	4186
816.116	6599
816.215	5167
816.313	6836
816.412	7611
816.510	7563
816.609	8718
816.707	8627
816.805	7221
816.904	6423
817.002	6776
817.100	7060
817.198	7996
817.296	5987
817.395	7104
817.493	7518
817.591	5589
817.689	6725
817.787	6261
817.885	6181
817.983	5712
818.081	7001
818.179	5987
818.277	9290
818.375	8150
818.473	6023
818.571	5370
818.669	6507
818.767	7230
818.865	5623
818.963	4702
819.061	6326
819.158	5049
819.256	8400
819.354	6819
819.452	12704
819.549	6466
819.647	7409
819.745	4728
819.842	5502
819.940	5147
820.038	5403
820.135	4021
820.233	7109
820.330	4714
820.428	4421
820.525	5999
820.623	5053
820.720	4118
820.818	5604
820.915	5615
821.012	4576
821.110	3449
821.207	6749
821.304	4546
821.402	5185
821.499	4713
821.596	4574
821.693	4446
821.791	5213
821.888	3652
821.985	5817
822.082	3276
822.179	5236
822.276	4569
822.373	4655
822.470	4609
822.567	5011
822.664	3306
822.761	4946
822.858	4199
822.955	4798
823.052	2954
823.149	4909
823.246	4887
823.343	2777
823.440	3694
823.536	5171
823.633	4350
823.730	3625
823.827	5193
823.923	4157
824.020	3606
824.117	3920
824.213	2779
824.310	3079
824.407	3370
824.503	3806
824.600	3163
824.696	2891
824.793	4831
824.889	4474
824.986	2940
825.082	2545
825.179	3310
825.275	4773
825.371	4377
825.468	3974
825.564	451
825.660	4609
825.757	4453
825.853	4322
825.949	1944
826.045	2972
826.142	2277
826.238	4068
826.334	3466
826.430	2872
826.526	2000
826.622	1802
826.718	4080
826.814	3808
826.910	3325
827.006	1540
827.102	1687
827.198	4301
827.294	3960
827.390	3548
827.486	2250
827.582	1499
827.678	2290
827.774	4449
827.869	1763
827.965	3156
828.061	1353
828.157	3708
828.252	3705
828.348	1669
828.444	2416
828.539	1684
828.635	2978
828.731	3151
828.826	1836
828.922	3279
829.017	2969
829.113	3555
829.208	2465
829.304	1891
829.399	4622
829.495	2638
829.590	3511
829.685	2382
829.781	3008
829.876	2624
829.971	966
830.066	699
830.162	1986
830.257	3540
830.352	2597
830.447	2279
830.543	1844
830.638	1528
830.733	4035
830.828	2026
830.923	3156
831.018	3042
831.113	3536
831.208	1640
831.303	306
831.398	1493
831.493	2453
831.588	3942
831.683	1524
831.778	1105
831.873	1648
831.967	2768
832.062	2152
832.157	1466
832.252	2068
832.346	1565
832.441	2704
832.536	2338
832.631	3278
832.725	1644
832.820	1754
832.914	2537
833.009	968
833.104	812
833.198	962
833.293	2183
833.387	2724
833.482	2590
833.576	733
833.670	2295
833.765	1491
833.859	1557
833.954	2838
834.048	1911
834.142	1233
834.237	1327
834.331	2790
834.425	2550
834.519	904
834.613	1525
834.708	375
834.802	1165
834.896	1374
834.990	1872
835.084	830
835.178	931
835.272	1279
835.366	2268
835.460	3046
835.554	1391
835.648	1034
835.742	542
835.836	1509
835.930	811
836.024	2121
836.117	2891
836.211	1020
836.305	1208
836.399	1461
836.493	76
836.586	2109
836.680	1556
836.774	987
836.867	1832
836.961	221
837.055	666
837.148	817
837.242	1538
837.335	1467
837.429	633
837.522	897
837.616	695
837.709	1272
837.803	1045
837.896	1508
837.989	1372
838.083	1107
838.176	145
838.269	255
838.363	2044
838.456	498
838.549	1837
838.642	1355
838.735	1468
838.829	1687
838.922	1344
839.015	153
839.108	508
839.201	1551
839.294	2408
839.387	515
839.480	219
839.573	237
839.666	579
839.759	809
839.852	499
839.945	1671
840.038	1355
840.131	368
840.223	892
840.316	1295
840.409	1182
840.502	639
840.594	1761
840.687	-363
840.780	945
840.873	50
840.965	288
841.058	1655
841.150	1694
841.243	-461
841.336	1078
841.428	625
841.521	669
841.613	1107
841.706	923
841.798	102
841.890	903
841.983	418
842.075	715
842.167	303
842.260	944
842.352	1566
842.444	921
842.537	-9
842.629	417
842.721	259
842.813	385
842.905	-95
842.997	1808
843.090	602
843.182	307
843.274	-621
843.366	1060
843.458	-145
843.550	969
843.642	977
843.734	1065
843.826	-471
843.918	789
844.009	81
844.101	406
844.193	566
844.285	1171
844.377	693
844.469	1165
844.560	-737
844.652	298
844.744	420
844.835	719
844.927	1242
845.019	1294
845.110	883
845.202	1239
845.293	51
845.385	333
845.476	-236
845.568	1129
845.659	381
845.751	1075
845.842	-464
845.934	663
846.025	-600
846.116	764
846.208	-271
846.299	255
846.390	331
846.482	118
846.573	932
846.664	926
846.755	-187
846.846	533
846.937	-552
847.029	-17
847.120	-300
847.211	66
847.302	1215
847.393	-309
847.484	891
847.575	285
847.666	-368
847.757	-766
847.847	1279
847.938	925
848.029	201
848.120	395
848.211	760
848.302	-144
848.392	-163
848.483	852
848.574	-141
848.664	754
848.755	-1115
848.846	272
848.936	80
849.027	419
849.118	831
849.208	195
849.299	1918
849.389	4216
849.480	7093
849.570	14711
849.661	29535
849.751	44414
849.841	12616
849.932	1920
850.022	-345
850.112	1265
850.203	661
850.293	774
850.383	322
850.474	227
850.564	-157
850.654	-248
850.744	-289
850.834	922
850.924	346
851.014	1203
851.104	447
851.194	-498
851.284	-585
851.374	552
851.464	196
851.554	-426
851.644	-493
851.734	1274
851.824	115
851.914	308
852.004	-47
852.094	242
852.183	15
852.273	294
852.363	-515
852.452	369
852.542	339
852.632	-421
852.721	430
852.811	94
852.901	758
852.990	899
853.080	565
853.169	1077
853.259	752
853.348	488
853.438	1714
853.527	2722
853.617	2837
853.706	8285
853.795	13623
853.885	31688
853.974	55681
854.063	104180
854.152	130035
854.242	49068
854.331	11871
854.420	5173
854.509	3541
854.598	3519
854.687	2351
854.777	2010
854.866	1373
854.955	922
855.044	379
855.133	974
855.222	705
855.311	536
855.400	259
855.488	731
855.577	-109
855.666	556
855.755	-135
855.844	636
855.933	-722
856.021	1000
856.110	647
856.199	-382
856.288	235
856.376	137
856.465	-141
856.554	719
856.642	268
856.731	810
856.819	746
856.908	196
856.996	-595
857.085	34
857.173	-313
857.262	-364
857.350	723
857.438	-191
857.527	-21
857.615	168
857.703	1328
857.792	-682
857.880	-450
857.968	74
858.056	-19
858.145	45
858.233	207
858.321	85
858.409	183
858.497	139
858.585	-475
858.673	526
858.761	-687
858.849	-155
858.937	-587
859.025	-181
859.113	571
859.201	-16
859.289	627
859.377	127
859.465	521
859.552	254
859.640	-413
859.728	-86
859.816	-162
859.903	337
859.991	-573
860.079	558
860.166	-41
860.254	541
860.342	406
860.429	203
860.517	-652
860.604	910
860.692	-750
860.779	-1151
860.867	49
860.954	291
861.042	-248
861.129	468
861.216	408
861.304	195
861.391	615
861.478	510
861.565	-266
861.653	830
861.740	-632
861.827	-277
861.914	629
862.001	9
862.089	916
862.176	673
862.263	-76
862.350	137
862.437	-471
862.524	143
862.611	-417
862.698	944
862.785	605
862.871	1020
862.958	671
863.045	616
863.132	669
863.219	1382
863.306	-469
863.392	523
863.479	-177
863.566	632
863.652	900
863.739	1128
863.826	455
863.912	664
863.999	-471
864.086	437
864.172	207
864.259	1266
864.345	228
864.432	1480
864.518	780
864.604	1358
864.691	564
864.777	1544
864.863	2015
864.950	2842
865.036	5151
865.122	8736
865.209	9355
865.295	7327
865.381	7077
865.467	6772
865.553	7989
865.639	9532
865.726	13157
865.812	21483
865.898	35877
865.984	50503
866.070	89269
866.156	80016
866.242	24863
866.328	11068
866.414	8034
866.499	8107
866.585	7054
866.671	5669
866.757	6539
866.843	6509
866.928	6381
867.014	6388
867.100	6623
867.186	5823
867.271	5465
867.357	6218
867.442	5284
867.528	5564
867.614	5297
867.699	5927
867.785	5691
867.870	5609
867.956	5030
868.041	5718
868.127	4970
868.212	5882
868.297	4384
868.383	5785
868.468	4532
868.553	5744
868.639	4106
868.724	5092
868.809	5836
868.894	4234
868.979	4468
869.065	5301
869.150	3893
869.235	4908
869.320	4473
869.405	4078
869.490	4917
869.575	5218
869.660	3345
869.745	4801
869.830	4507
869.915	3596
870.000	4785
870.085	4657
870.169	5436
870.254	5476
870.339	2906
870.424	3163
870.509	4611
870.593	6299
870.678	4572
870.763	4129
870.847	3500
870.932	4622
871.016	4145
871.101	3211
871.186	4238
871.270	5774
871.355	2501
871.439	4104
871.523	3885
871.608	3081
871.692	2791
871.777	4562
871.861	4074
871.945	3925
872.030	4102
872.114	3870
872.198	2847
872.282	3580
872.367	3037
872.451	4530
872.535	2977
872.619	3655
872.703	2713
872.787	3805
872.871	3828
872.955	2520
873.039	2834
873.123	4078
873.207	3440
873.291	3067
873.375	2187
873.459	4035
873.543	3017
873.627	3292
873.711	2769
873.794	2957
873.878	2440
873.962	2931
874.045	2510
874.129	3153
874.137	3168
874.213	3316
874.245	3245
874.296	3127
874.352	2817
874.380	2667
874.460	3231
874.464	3254
874.547	2291
874.568	2569
874.631	3400
874.676	2917
874.714	2498
874.784	3297
874.798	3461
874.881	2454
874.892	2380
874.965	1924
874.999	2608
875.048	3505
875.107	3311
875.131	3226
875.215	1639
875.215	1639
875.298	1775
875.323	2143
875.381	3018
875.430	3516
875.465	3860
875.538	2782
875.548	2625
875.631	1860
875.646	1805
875.714	1682
875.753	2158
875.798	2677
875.861	3271
875.881	3421
875.964	2572
875.968	2520
876.047	1768
876.076	2278
876.130	3250
876.183	2897
876.213	2690
876.291	3198
876.296	3224
876.379	2310
876.398	2311
876.462	2406
876.506	1951
876.545	1470
876.613	2333
876.628	2562
876.711	1966
876.721	2076
876.794	2916
876.828	2861
876.877	2599
876.935	2124
876.960	2035
877.043	1924
877.043	1928
877.125	2737
877.150	2858
877.208	2969
877.258	2239
877.291	1868
877.365	1758
877.374	1745
877.456	2150
877.472	2020
877.539	1500
877.579	2190
877.622	2810
877.687	2616
877.704	2602
877.787	2232
877.794	2251
877.869	2479
877.901	2330
877.952	1962
878.008	1462
878.034	1253
878.115	1849
878.117	1864
878.199	1472
878.222	1729
878.282	2549
878.329	2855
878.364	2916
878.437	2515
878.447	2420
878.529	1210
878.544	1191
878.611	1519
878.651	1621
878.694	1891
878.758	2108
878.776	2049
878.858	2436
878.865	2390
878.941	1719
878.972	1301
879.023	982
879.078	1759
879.105	2152
879.185	2551
879.187	2554
879.269	2554
879.292	2492
879.351	2204
879.399	1618
879.433	1303
879.506	1390
879.516	1423
879.598	2169
879.613	2161
879.680	2008
879.720	2253
879.762	2615
879.827	2071
879.844	1833
879.926	2638
879.933	2573
880.007	2307
880.040	2510
880.089	2667
880.147	2916
880.171	3271
880.253	5169
880.254	5175
880.335	5296
880.360	5734
880.417	7699
880.467	10760
880.499	12481
880.574	12100
880.580	11869
880.662	5212
880.680	4455
880.744	2512
880.787	2103
880.825	2094
880.893	1978
880.907	1996
880.989	2149
881.000	2205
881.070	2490
881.106	2378
881.152	1972
881.213	1693
881.233	1705
881.315	2002
881.319	2017
881.396	2418
881.426	2233
881.478	1962
881.532	2894
881.559	3201
881.639	1963
881.641	1939
881.722	1818
881.745	1899
881.803	2328
881.852	2495
881.885	2316
881.958	1119
881.966	1048
882.047	1934
882.064	1789
882.129	1375
882.171	1692
882.210	1553
882.277	881
882.291	936
882.372	1790
882.383	1908
882.454	2920
882.489	3101
882.535	2830
882.596	2666
882.616	2717
882.697	2725
882.702	2722
882.778	1754
882.808	1429
882.859	1286
882.914	1273
882.940	1387
883.020	1488
883.021	1493
883.102	1968
883.127	2209
883.183	2863
883.233	2848
883.264	2387
883.339	1702
883.345	1656
883.426	687
883.445	625
883.507	1235
883.551	1596
883.587	1916
883.657	2871
883.668	2966
883.749	2398
883.763	2389
883.830	2178
883.869	1927
883.910	1559
883.975	1769
883.991	1952
884.072	2007
884.081	2040
884.152	2320
884.187	2498
884.233	2932
884.292	2899
884.314	2532
884.394	1465
884.398	1435
884.475	1234
884.504	958
884.555	995
884.610	1248
884.636	1463
884.716	2211
884.716	2223
884.797	3419
884.821	3640
884.877	2955
884.927	2362
884.958	2175
885.033	1656
885.038	1621
885.118	1255
885.139	1168
885.199	1009
885.244	941
885.279	1315
885.350	1819
885.359	1881
885.439	2640
885.456	2699
885.520	2133
885.561	1941
885.600	1831
885.667	1531
885.680	1590
885.760	1914
885.773	1925
885.840	1677
885.878	1806
885.920	2052
885.984	2211
886.000	2225
886.080	2121
886.089	2119
886.160	2645
886.195	2800
886.240	2381
886.300	1860
886.320	1735
886.400	1623
886.406	1570
886.480	1227
886.511	1294
886.560	1747
886.616	2055
886.640	1945
886.720	1560
886.722	1549
886.800	2021
886.827	2153
886.879	2081
886.932	2047
886.959	2282
887.038	3020
887.039	3019
887.119	2161
887.143	2005
887.198	2188
887.248	2212
887.278	2298
887.354	2563
887.358	2569
887.437	2557
887.459	2562
887.517	3015
887.564	3211
887.596	2657
887.669	1466
887.676	1453
887.755	1423
887.774	1375
887.835	1573
887.880	1835
887.914	2047
887.985	2217
887.994	2283
888.073	3015
888.090	3132
888.153	3520
888.195	3723
888.232	3048
888.300	1999
888.311	1961
888.391	1416
888.405	1347
888.470	2094
888.510	2509
888.549	2385
888.615	2251
888.628	2340
888.708	2727
888.720	2788
888.787	2505
888.825	2312
888.866	1806
888.930	1058
888.945	1198
889.024	1963
889.035	2051
889.103	2419
889.140	2638
889.182	2390
889.245	2016
889.261	2079
889.340	2347
889.349	2377
889.419	2070
889.454	1904
889.498	1699
889.559	1431
889.577	1714
889.656	2951
889.664	3071
889.735	2819
889.768	2689
889.814	2323
889.873	1830
889.978	2278
890.083	1629
890.187	2268
890.292	2935
890.397	2132
890.501	1423
890.606	2520
890.710	2126
890.815	3339
890.919	2304
891.024	1922
891.128	1362
891.233	1864
891.337	2761
891.442	1691
891.546	1514
891.650	1077
891.755	888
891.859	3678
891.963	2936
892.068	2248
892.172	1510
892.276	891
892.380	1177
892.484	2668
892.589	2200
892.693	2229
892.797	1126
892.901	893
893.005	1625
893.109	2632
893.213	2453
893.317	1310
893.421	1374
893.525	1648
893.629	1034
893.733	2713
893.837	1733
893.941	1646
894.045	1236
894.148	614
894.252	1510
894.356	2614
894.460	2955
894.564	2335
894.667	1260
894.771	1792
894.875	1076
894.978	2302
895.082	1539
895.186	2823
895.289	1931
895.393	1650
895.496	2693
895.600	1753
895.703	1313
895.807	2147
895.910	2193
896.014	2023
896.117	358
896.221	2300
896.324	1360
896.427	1665
896.531	1187
896.634	1308
896.737	1560
896.840	2235
896.944	2201
897.047	3039
897.150	1428
897.253	798
897.356	1170
897.460	831
897.563	1382
897.666	2303
897.769	3029
897.872	1438
897.975	1800
898.078	2500
898.181	967
898.284	1754
898.387	2074
898.490	2445
898.593	1974
898.695	1505
898.798	1196
898.901	1678
899.004	1506
899.107	2424
899.209	2364
899.312	2259
899.415	1940
899.518	1043
899.620	976
899.723	797
899.826	1419
899.928	887
900.031	1893
900.133	2386
900.236	1440
900.338	533
900.441	1082
900.543	2562
900.646	1311
900.748	1250
900.851	1743
900.953	1183
901.055	2072
901.158	1616
901.260	1226
901.362	942
901.465	991
901.567	987
901.669	1533
901.771	1059
901.873	1422
901.976	1563
902.078	1175
902.180	1753
902.282	933
902.384	1753
902.486	1762
902.588	1690
902.690	597
902.792	642
902.894	1803
902.996	2500
903.098	1278
903.200	844
903.302	1419
903.404	1135
903.505	946
903.607	1438
903.709	2324
903.811	2223
903.913	678
904.014	552
904.116	516
904.218	906
904.319	1443
904.421	3073
904.523	1851
904.624	1584
904.726	1446
904.827	2031
904.929	981
905.030	1152
905.132	2286
905.233	1539
905.335	1337
905.436	1075
905.537	292
905.639	1049
905.740	1729
905.841	1639
905.943	1160
906.044	371
906.145	465
906.247	868
906.348	886
906.449	982
906.550	1046
906.651	1101
906.752	810
906.854	1171
906.955	1384
907.056	912
907.157	2212
907.258	1278
907.359	1330
907.460	858
907.561	1238
907.662	779
907.762	1632
907.863	1706
907.964	1745
908.065	1661
908.166	1240
908.267	1080
908.367	747
908.468	1150
908.569	1710
908.670	2289
908.770	1279
908.871	1669
908.971	1269
909.072	29
909.173	906
909.273	1918
909.374	1768
909.474	1180
909.575	1873
909.675	952
909.776	1251
909.876	397
909.977	1417
910.077	1148
910.177	1583
910.278	799
910.378	961
910.478	621
910.579	1715
910.679	492
910.779	1701
910.879	1814
910.980	2378
911.080	1695
911.180	863
911.280	814
911.380	1000
911.480	867
911.580	316
911.680	870
911.780	2248
911.880	1466
911.980	1060
912.080	1448
912.180	786
912.280	1261
912.380	441
912.480	986
912.580	726
912.679	1456
912.779	1055
912.879	1647
912.979	-3
913.078	327
913.178	651
913.278	96
913.377	1042
913.477	-448
913.577	1102
913.676	1284
913.776	1101
913.875	1404
913.975	936
914.074	1504
914.174	1631
914.273	1186
914.373	1571
914.472	473
914.572	1168
914.671	784
914.770	844
914.870	763
914.969	130
915.068	1033
915.167	1488
915.267	598
915.366	941
915.465	1323
915.564	1488
915.663	659
915.763	1575
915.862	1794
915.961	800
916.060	1036
916.159	1259
916.258	821
916.357	356
916.456	1940
916.555	636
916.654	834
916.752	969
916.851	1169
916.950	982
917.049	1419
917.148	609
917.247	1189
917.345	1018
917.444	156
917.543	805
917.642	1483
917.740	1611
917.839	1476
917.937	2395
918.036	1630
918.135	1200
918.233	749
918.332	916
918.430	1171
918.529	1035
918.627	1021
918.726	1068
918.824	1588
918.923	864
919.021	1639
919.119	-31
919.218	268
919.316	1171
919.414	1373
919.512	1182
919.611	2235
919.709	2051
919.807	2001
919.905	2834
920.003	2429
920.102	1831
920.200	1291
920.298	2589
920.396	2150
920.494	1341
920.592	1043
920.690	1993
920.788	2189
920.886	1174
920.984	2537
921.082	1542
921.180	3513
921.277	1898
921.375	2796
921.473	4389
921.571	4084
921.669	3183
921.766	3268
921.864	3867
921.962	4569
922.060	3078
922.157	4042
922.255	4007
922.352	3509
922.450	4311
922.548	3961
922.645	4313
922.743	6590
922.840	9034
922.938	12348
923.035	9762
923.133	9728
923.230	10778
923.327	13409
923.425	12472
923.522	12558
923.619	12001
923.717	9976
923.814	10126
923.911	9993
924.008	9636
924.106	9710
924.203	9627
924.300	10497
924.397	9499
924.494	10407
924.591	10032
924.688	9020
924.786	9309
924.883	9489
924.979	9774
925.077	10083
925.173	9311
925.270	9550
925.367	10233
925.464	10289
925.561	10273
925.658	10856
925.755	8407
925.852	9384
925.948	8513
926.045	8726
926.142	9419
926.239	10038
926.335	6979
926.432	9479
926.529	9614
926.625	10156
926.722	9450
926.818	8751
926.915	9537
927.011	8345
927.108	8399
927.204	8786
927.301	7435
927.397	9784
927.494	10151
927.590	6630
927.687	8114
927.783	10251
927.879	8697
927.976	7823
928.072	6286
928.168	8493
928.264	8714
928.361	8077
928.457	10366
928.553	7392
928.649	7943
928.745	7927
928.841	7966
928.937	8039
929.033	7360
929.129	7985
929.225	8871
929.321	7653
929.417	6643
929.513	8251
929.609	7166
929.705	6653
929.801	8791
929.897	6514
929.993	7146
930.089	8759
930.184	6704
930.280	7326
930.376	9544
930.471	7011
930.567	6040
930.663	7764
930.758	6177
930.854	7299
930.950	6643
931.045	6166
931.141	7122
931.236	8175
931.332	6465
931.427	6111
931.523	8695
931.618	7572
931.714	4634
931.809	5978
931.905	7395
932.000	5788
932.095	5100
932.191	8546
932.286	8593
932.381	6728
932.476	5156
932.572	7105
932.667	4827
932.762	6282
932.857	6573
932.952	8517
933.047	6720
933.142	4309
933.237	6380
933.332	6886
933.427	6928
933.522	7257
933.617	5445
933.712	5875
933.807	7138
933.902	8187
933.997	7836
934.092	5430
934.187	5817
934.282	6101
934.376	6670
934.471	7662
934.566	5265
934.661	5752
934.755	6142
934.850	7368
934.945	5521
935.039	5470
935.134	3617
935.228	6068
935.323	8348
935.417	5390
935.512	4326
935.606	4795
935.701	6320
935.795	6883
935.890	6062
935.984	4574
936.079	3854
936.173	6686
936.267	4907
936.362	4919
936.456	5729
936.550	7603
936.644	6095
936.738	4148
936.833	4295
936.927	2833
937.021	5322
937.115	6228
937.209	5914
937.303	5719
937.397	3939
937.491	5383
937.585	5941
937.679	5305
937.773	4289
937.867	3725
937.961	4200
938.055	6752
938.149	5214
938.243	3430
938.337	3632
938.430	3849
938.524	6576
938.618	4412
938.712	3755
938.805	5273
938.899	5687
938.993	6882
939.086	3675
939.180	2727
939.274	3654
939.367	4743
939.461	4996
939.554	3753
939.648	2613
939.741	4348
939.835	4753
939.928	6174
940.022	5560
940.115	5159
940.208	5628
940.302	6288
940.395	5985
940.488	4009
940.582	4407
940.675	1708
940.768	3963
940.861	5509
940.954	6754
941.048	3819
941.141	2549
941.234	3610
941.327	4701
941.420	4846
941.513	4318
941.606	3113
941.699	4007
941.792	4844
941.885	3359
941.978	4535
942.071	4685
942.164	2994
942.257	3037
942.349	4178
942.442	3785
942.535	2849
942.628	4036
942.721	3997
942.813	3695
942.906	4366
942.999	3471
943.091	3400
943.184	3973
943.277	3102
943.369	3227
943.462	2469
943.554	3647
943.647	3308
943.739	5190
943.832	4756
943.924	1893
944.017	2716
944.109	1612
944.201	3773
944.294	3397
944.386	3135
944.478	3732
944.571	2860
944.663	3259
944.755	3094
944.847	3999
944.940	3858
945.032	1519
945.124	2973
945.216	4560
945.308	4245
945.400	4294
945.492	3886
945.584	4174
945.676	4275
945.768	2786
945.860	4775
945.952	4984
946.044	4110
946.136	2723
946.228	3674
946.320	3018
946.412	4197
946.503	4152
946.595	4149
946.687	3101
946.779	1902
946.870	2554
946.962	2871
947.054	3000
947.145	2932
947.237	2993
947.329	2550
947.420	3926
947.512	2992
947.603	1656
947.695	2101
947.786	2265
947.878	2017
947.969	3298
948.061	3326
948.152	2741
948.243	1432
948.335	1857
948.426	1984
948.517	2563
948.609	3955
948.700	3221
948.791	2972
948.882	1490
948.973	1784
949.065	3639
949.156	3274
949.247	2373
949.338	2904
949.429	1309
949.520	2399
949.611	2649
949.702	3447
949.793	3190
949.884	2791
949.975	1782
950.066	1899
950.157	2089
950.247	3176
950.338	1090
950.429	2317
950.520	2844
950.611	2208
950.701	2758
950.792	3525
950.883	3400
950.973	2127
951.064	3224
951.155	2952
951.245	3138
951.336	3743
951.427	2724
951.517	4302
951.608	2894
951.698	2246
951.788	1574
951.879	1860
951.969	1292
952.060	1811
952.150	1339
952.240	4070
952.331	1742
952.421	2914
952.511	1385
952.602	774
952.692	1194
952.782	1659
952.872	2001
952.962	2159
953.052	1774
953.143	1374
953.233	1572
953.323	2515
953.413	2613
953.503	2728
953.593	2348
953.683	2352
953.773	1035
953.863	1364
953.953	1101
954.042	1499
954.132	2358
954.222	2146
954.312	1070
954.402	1455
954.492	934
954.581	2626
954.671	2119
954.761	1490
954.850	2532
954.940	811
955.030	1308
955.119	1053
955.209	1882
955.298	1865
955.388	2474
955.477	2848
955.567	1010
955.656	2281
955.746	1930
955.835	1838
955.925	1018
956.014	2080
956.103	2677
956.193	3609
956.282	3254
956.371	2237
956.461	1589
956.550	2356
956.639	1865
956.728	1532
956.817	1647
956.906	1798
956.995	2119
957.085	1855
957.174	1936
957.263	1377
957.352	1020
957.441	1790
957.530	1666
957.619	1335
957.708	1237
957.796	1136
957.885	1632
957.974	1484
958.063	1958
958.152	827
958.241	1333
958.329	1680
958.418	1561
958.507	1084
958.596	2105
958.684	1373
958.773	2564
958.861	1447
958.950	1186
959.039	1330
959.127	1223
959.216	1878
959.304	822
959.393	1210
959.481	2198
959.570	1165
959.658	726
959.746	1118
959.835	1748
959.923	251
960.011	1483
960.100	1923
960.188	2118
960.276	702
960.365	1105
960.453	781
960.541	774
960.629	886
960.717	1161
960.805	136
960.893	1146
960.981	1308
961.069	2431
961.158	2694
961.245	3121
961.333	2319
961.421	1237
961.509	1811
961.597	827
961.685	1788
961.773	1020
961.861	1071
961.949	2718
962.036	39
962.124	1174
962.212	1293
962.299	581
962.387	97
962.475	1325
962.562	31
962.650	2573
962.738	838
962.825	463
962.913	1013
963.000	1064
963.088	1770
963.175	1586
963.263	1186
963.350	1200
963.438	1300
963.525	445
963.612	2147
963.700	1524
963.787	2020
963.874	991
963.962	1305
964.049	410
964.136	1193
964.223	765
964.310	1101
964.398	669
964.485	970
964.572	1169
964.659	691
964.746	1009
964.833	1108
964.920	585
965.007	885
965.094	1316
965.181	1180
965.268	2029
965.355	1182
965.441	840
965.528	1399
965.615	1747
965.702	1609
965.789	1565
965.875	1293
965.962	1453
966.049	870
966.136	1623
966.222	1517
966.309	1453
966.395	1389
966.482	1641
966.569	1106
966.655	1650
966.742	1493
966.828	1375
966.915	640
967.001	1211
967.087	-43
967.174	171
967.260	1720
967.347	603
967.433	596
967.519	1100
967.605	359
967.692	1575
967.778	1328
967.864	531
967.950	1337
968.036	731
968.123	1192
968.209	770
968.295	248
968.381	1421
968.467	1035
968.553	-682
968.639	1424
968.725	736
968.811	1666
968.897	2217
968.983	1304
969.069	-146
969.154	1709
969.240	1341
969.326	523
969.412	465
969.497	764
969.583	-98
969.669	1994
969.755	1837
969.840	1066
969.926	2112
970.012	2801
970.097	2396
970.183	1529
970.268	1030
970.354	1985
970.439	327
970.525	2435
970.610	-18
970.696	1942
970.781	1578
970.866	-68
970.952	801
971.037	970
971.122	1868
971.208	751
971.293	1429
971.378	239
971.463	836
971.549	1073
971.634	242
971.719	662
971.804	489
971.889	1714
971.974	1215
972.059	1325
972.144	1406
972.229	1129
972.314	743
972.399	1187
972.484	-220
972.569	1471
972.654	312
972.739	1460
972.824	656
972.908	1112
972.993	233
973.078	1180
973.163	952
973.247	1081
973.332	-238
973.417	2248
973.501	274
973.586	604
973.671	-147
973.755	940
973.840	1928
973.924	2132
974.009	1107
974.093	1318
974.178	3333
974.262	1773
974.346	1266
974.431	1040
974.515	958
974.600	1820
974.684	1284
974.768	664
974.852	1712
974.937	128
975.021	1297
975.105	1064
975.189	1317
975.273	1462
975.358	432
975.442	-534
975.526	1618
975.610	326
975.694	173
975.778	1021
975.862	-16
975.946	126
976.030	1992
976.114	78
976.198	1495
976.281	595
976.365	1742
976.449	1020
976.533	1037
976.617	638
976.700	275
976.784	582
976.868	-100
976.951	1204
977.035	264
977.119	763
977.202	449
977.286	731
977.369	1799
977.453	3504
977.536	2596
977.620	2253
977.703	1835
977.787	527
977.870	2206
977.953	1690
978.037	430
978.120	1225
978.203	1155
978.287	1755
978.370	1555
978.453	1276
978.536	374
978.620	1307
978.703	1321
978.786	513
978.869	1237
978.952	-65
979.035	1508
979.118	1189
979.201	1005
979.284	1661
979.367	476
979.450	612
979.533	1002
979.616	579
979.699	1314
979.782	1219
979.865	1474
979.948	1059
980.030	674
980.113	635
980.196	609
980.279	1919
980.361	564
980.444	1750
980.526	1818
980.609	1781
980.692	2765
980.774	2040
980.857	1132
980.939	2836
981.022	1257
981.104	683
981.187	1074
981.269	2409
981.352	1634
981.434	427
981.516	1029
981.599	2957
981.681	238
981.763	965
981.846	1458
981.928	1723
982.010	557
982.092	487
982.174	1872
982.256	1005
982.339	1214
982.421	1095
982.503	1028
982.585	184
982.667	1168
982.749	1301
982.831	882
982.913	381
982.995	2109
983.077	1188
983.158	2440
983.240	749
983.322	2847
983.404	2925
983.486	2452
983.568	2742
983.649	1550
983.731	2677
983.813	1865
983.894	2131
983.976	1382
984.058	1444
984.139	2030
984.221	643
984.302	2122
984.384	1346
984.465	1406
984.547	1239
984.628	1053
984.710	2817
984.791	1029
984.872	914
984.954	1280
985.035	1932
985.116	1772
985.198	1489
985.279	2510
985.360	1705
985.441	1782
985.522	3343
985.604	1842
985.685	339
985.766	1646
985.847	2825
985.928	1182
986.009	1635
986.090	2079
986.171	2786
986.252	608
986.333	2627
986.414	1782
986.495	3325
986.576	2781
986.656	2965
986.737	3280
986.818	1639
986.899	1497
986.980	2101
987.060	2485
987.141	1839
987.222	2156
987.302	3213
987.383	3496
987.464	2357
987.544	3138
987.625	2827
987.705	3930
987.786	3195
987.866	1771
987.947	2688
988.027	3852
988.108	3020
988.188	2911
988.268	2217
988.349	2655
988.429	3407
988.509	3138
988.589	2686
988.670	607
988.750	3663
988.830	2089
988.910	2728
988.990	2152
989.070	1904
989.151	2142
989.231	1715
989.311	2318
989.391	1859
989.471	3204
989.551	1973
989.631	1749
989.711	3638
989.791	1588
989.870	1233
989.950	3138
990.030	1677
990.110	1784
990.190	1926
990.269	2062
990.349	1419
990.429	1529
990.509	2019
990.588	1900
990.668	2455
990.747	2590
990.827	1297
990.907	2307
990.986	1219
991.066	2193
991.145	1371
991.225	2448
991.304	1935
991.383	1797
991.463	1406
991.542	2404
991.622	1774
991.701	1539
991.780	1165
991.859	650
991.939	1256
992.018	2398
992.097	1205
992.176	940
992.256	2119
992.335	1346
992.414	1738
992.493	860
992.572	533
992.651	2247
992.730	1137
992.809	1449
992.888	1126
992.967	1424
993.046	1648
993.125	361
993.203	1490
993.282	1712
993.361	1769
993.440	1050
993.519	723
993.597	1293
993.676	513
993.755	2360
993.834	1159
993.912	75
993.991	1557
994.069	520
994.148	2048
994.226	966
994.305	591
994.384	818
994.462	2475
994.540	-93
994.619	403
994.697	1646
994.776	1075
994.854	1572
994.932	1396
995.011	653
995.089	470
995.167	363
995.245	1183
995.324	291
995.402	1787
995.480	740
995.558	736
995.636	-15
995.714	809
995.792	1644
995.870	517
995.948	352
996.026	495
996.104	-1191
996.182	1121
996.260	161
996.338	667
996.416	-152
996.494	314
996.572	1652
996.649	370
996.727	-199
996.805	1142
996.883	140
996.960	416
997.038	1462
997.116	982
997.193	-626
997.271	741
997.348	-631
997.426	1141
997.504	-527
997.581	944
997.658	1512
997.736	-351
997.813	-251
997.891	915
997.968	507
998.046	-162
998.123	-250
998.200	1063
998.277	-152
998.355	1138
998.432	-1132
998.509	262
998.586	441
998.663	811
998.741	603
998.818	222
998.895	-817
998.972	647
999.049	922
999.126	-219
999.203	-241
999.280	-353
999.357	-396
999.434	360
999.511	46
999.587	1455
999.664	-461
999.741	-609
999.818	-124
999.895	-158
999.971	-347
1000.048	12
1000.125	468
1000.202	20
1000.278	76
1000.355	109
1000.431	-440
1000.508	-379
1000.584	-399
1000.661	42
1000.738	17
1000.814	618
1000.890	117
1000.967	-141
1001.043	88
1001.120	-1099
1001.196	-28
1001.272	-931
1001.349	-708
1001.425	-11
1001.501	-560
1001.577	-937
1001.654	877
1001.730	-896
1001.806	-413
1001.882	-1127
1001.958	403
1002.034	153
1002.110	-3
1002.186	-853
1002.262	-347
1002.338	-982
1002.414	119
1002.490	709
1002.566	-770
1002.642	-676
1002.718	-541
1002.794	-492
1002.870	-352
1002.945	-235
1003.021	-1168
1003.097	-931
1003.173	-30
1003.248	-241
1003.324	-1173
1003.400	88
1003.475	-795
1003.551	174
1003.626	-1416
1003.702	-808
1003.777	-435
1003.853	-930
1003.928	-1125
1004.004	-603
1004.079	-431
1004.155	304
1004.230	-1559
1004.305	-359
1004.381	-1103
1004.456	-642
1004.531	-893
1004.607	-640
1004.682	-893
1004.757	-217
1004.832	-882
1004.907	-371
1004.982	-403
1005.057	-506
1005.133	-815
1005.208	-227
1005.283	-1615
1005.358	353
1005.433	-1394
1005.508	-290
1005.583	-1204
1005.657	-1554
1005.732	-12
1005.807	-1979
1005.882	-377
1005.957	-952
1006.032	-298
1006.106	-559
1006.181	-475
1006.256	-63
1006.331	-1918
1006.405	-1600
1006.480	-779
1006.554	-1176
1006.629	-193
1006.704	-1054
1006.778	-1497
1006.853	-646
1006.927	-1068
1007.002	-1356
1007.076	-1726
1007.150	-1095
1007.225	-624
1007.299	-1244
1007.373	-1465
1007.448	-1161
1007.522	-1122
1007.596	-1432
1007.671	-1376
1007.745	-798
1007.819	-2098
1007.893	-1469
1007.967	312
1008.041	-1593
1008.115	-529
1008.190	-1322
1008.264	-908
1008.338	-1935
1008.412	-1038
1008.486	-1029
1008.560	-575
1008.633	-1201
1008.707	-789
1008.781	69
1008.855	-1203
1008.929	-2050
1009.003	-1049
1009.076	-1285
1009.150	-1377
1009.224	-1795
1009.298	386
1009.371	-1150
1009.445	-373
1009.519	-1543
1009.592	-1595
1009.666	-355
1009.739	-427
1009.813	-2716
1009.886	-1102
1009.960	-1694
1010.033	-1069
1010.107	-913
1010.180	-2029
1010.253	-2131
1010.327	-1653
1010.400	-1300
1010.473	-1345
1010.547	-857
1010.620	-1713
1010.693	-488
1010.766	-1414
1010.840	-1602
1010.913	-920
1010.986	-1913
1011.059	-1365
1011.132	-2121
1011.205	-706
1011.278	-1652
1011.351	-1545
1011.424	-1143
1011.497	-2498
1011.570	-1179
1011.643	-682
1011.716	-1407
1011.789	-1226
1011.862	-1082
1011.934	-651
1012.007	-3055
1012.080	-523
1012.153	-1416
1012.225	-964
1012.298	-1139
1012.371	-2288
1012.443	-1621
1012.516	-1865
1012.588	-953
1012.661	-1390
1012.733	-2373
1012.806	-896
1012.879	-1877
1012.951	-1973
1013.023	-1687
1013.096	-1769
1013.168	-1916
1013.241	-784
1013.313	-1169
1013.385	-1456
1013.458	-1858
1013.530	-1273
1013.602	-1513
1013.674	-1144
1013.746	-2751
1013.819	-1296
1013.891	-1138
1013.963	-1877
1014.035	-1431
1014.107	-1363
1014.179	-953
1014.251	-2432
1014.323	-1830
1014.395	-1816
1014.467	-1513
1014.539	-1767
1014.611	-2001
1014.683	-1041
1014.754	-1653
1014.826	-2284
1014.898	-1058
1014.970	-2391
1015.042	-1008
1015.113	-1177
1015.185	-1383
1015.257	-2657
1015.328	-580
1015.400	-2216
1015.471	-1798
1015.543	-2321
1015.615	-1947
1015.686	-2960
1015.757	-1004
1015.829	-1494
1015.901	-2241
1015.972	-1724
1016.043	-1521
1016.115	-1866
1016.186	-2075
1016.257	-1625
1016.328	-1574
1016.400	-1568
1016.471	-2577
1016.542	-1427
1016.613	-1664
1016.685	-1702
1016.756	-1734
1016.827	-1864
1016.898	-1569
1016.969	-1196
1017.040	-2401
1017.111	-1580
1017.182	-1541
1017.253	-1547
1017.324	-1499
1017.395	-1238
1017.466	-1569
1017.537	-2077
1017.608	-2325
1017.678	-2328
1017.749	-1893
1017.820	-2139
1017.891	-2708
1017.961	-1806
1018.032	-2224
1018.103	-1146
1018.173	-1962
1018.244	-2638
1018.315	-2235
1018.385	-1289
1018.456	-2429
1018.526	-1859
1018.597	-1219
1018.667	-1698
1018.738	-1909
1018.808	-1187
1018.878	-2337
1018.949	-1474
1019.019	-1880
1019.089	-1847
1019.160	-2103
1019.230	-2272
1019.300	-1756
1019.371	-2277
1019.441	-882
1019.511	-1496
1019.581	-1703
1019.651	-2335
1019.721	-2010
1019.791	-2603
1019.861	-1981
1019.931	-1294
1020.001	-2179
1020.071	-1419
1020.141	-2274
1020.211	-1528
1020.281	-1498
1020.351	-2673
1020.421	-2187
1020.491	-2058
1020.560	-2633
1020.630	-2349
1020.700	-2649
1020.770	-2657
1020.839	-2593
1020.909	-1851
1020.979	-2360
1021.048	-1951
1021.118	-1800
1021.187	-2538
1021.257	-1618
1021.326	-1131
1021.396	-1716
1021.465	-1203
1021.535	-2646
1021.604	-2443
1021.674	-1628
1021.743	-1648
1021.812	-2197
1021.882	-1940
1021.951	-1343
1022.020	-965
1022.089	-1744
1022.159	-2747
1022.228	-2199
1022.297	-1575
1022.366	-2424
1022.435	-1939
1022.504	-1915
1022.573	-2823
1022.642	-2087
1022.711	-1999
1022.781	-2309
1022.849	-1946
1022.918	-1966
1022.987	-2170
1023.056	-2357
1023.125	-1274
1023.194	-2647
1023.263	-2129
1023.331	-1568
1023.400	-2387
1023.469	-1827
1023.538	-1293
1023.606	-2320
1023.675	-1527
1023.744	-2544
1023.812	-2972
1023.881	-2307
1023.949	-2303
1024.018	-1860
1024.086	-1822
1024.155	-2364
1024.223	-2957
1024.292	-2174
1024.360	-1636
1024.429	-1751
1024.497	-2856
1024.565	-2051
1024.634	-2659
1024.702	-2039
1024.770	-1953
1024.838	-1978
1024.907	-1409
1024.975	-1866
1025.043	-1562
1025.111	-2293
1025.179	-2311
1025.247	-2853
1025.315	-1199
1025.383	-1400
1025.451	-2324
1025.519	-1652
1025.587	-2608
1025.655	-2341
1025.723	-2168
1025.791	-2066
1025.859	-1991
1025.927	-1472
1025.995	-3185
1026.062	-1629
1026.130	-2157
1026.198	-2529
1026.266	-2409
1026.333	-1199
1026.401	-2611
1026.469	-2057
1026.536	-2237
1026.604	-2062
1026.671	-2244
1026.739	-2127
1026.806	-2329
1026.874	-2139
1026.941	-1852
1027.009	-1695
1027.076	-2133
1027.144	-1389
1027.211	-2645
1027.278	-1600
1027.345	-2063
1027.413	-2412
1027.480	-1926
1027.547	-2480
1027.614	-2544
1027.682	-1528
1027.749	-1943
1027.816	-2682
1027.883	-1975
1027.950	-1662
1028.017	-2831
1028.084	-1493
1028.151	-2978
1028.218	-2152
1028.285	-1988
1028.352	-2491
1028.419	-2722
1028.486	-2416
1028.553	-2373
1028.619	-2677
1028.686	-909
1028.753	-2391
1028.820	-1809
1028.886	-2305
1028.953	-1569
1029.020	-1619
1029.086	-2357
1029.153	-1914
1029.220	-2054
1029.286	-2552
1029.353	-1744
1029.419	-2001
1029.486	-2674
1029.552	-2384
1029.619	-1469
1029.685	-2965
1029.751	-2110
1029.818	-1405
1029.884	-1299
1029.951	-1628
1030.017	-1765
1030.083	-2855
1030.149	-1790
1030.216	-2162
1030.282	-1513
1030.348	-2392
1030.414	-2131
1030.480	-1874
1030.546	-1209
1030.612	-1433
1030.678	-2448
1030.744	-2057
1030.810	-2337
1030.876	-1851
1030.942	-2025
1031.008	-2690
1031.074	-2717
1031.140	-2047
1031.206	-1891
1031.272	-2610
1031.337	-2047
1031.403	-1854
1031.469	-2047
1031.534	-1704
1031.600	-1743
1031.666	-1609
1031.731	-2471
1031.797	-1458
1031.863	-1688
1031.928	-2813
1031.994	-1906
1032.059	-2658
1032.125	-2821
1032.190	-2260
1032.256	-2165
1032.321	-3269
1032.386	-2565
1032.452	-1999
1032.517	-2389
1032.582	-1960
1032.647	-2310
1032.713	-2147
1032.778	-2377
1032.843	-1991
1032.908	-2400
1032.974	-2027
1033.039	-2468
1033.104	-2400
1033.169	-2394
1033.234	-2369
1033.299	-1636
1033.364	-1840
1033.429	-2175
1033.494	-1982
1033.559	-2867
1033.624	-1950
1033.688	-2170
1033.753	-2354
1033.818	-2182
1033.883	-2092
1033.948	-1691
1034.013	-1441
1034.077	-1300
1034.142	-926
1034.207	-1006
1034.271	-259
1034.336	-78
1034.400	-254
1034.465	-1392
1034.530	-2362
1034.594	-2556
1034.658	-1835
1034.723	-2361
1034.787	-1750
1034.852	-1829
1034.916	-2570
1034.981	-2454
1035.045	-2201
1035.109	-2273
1035.173	-2493
1035.238	-2303
1035.302	-2058
1035.366	-2078
1035.430	-2533
1035.495	-2087
1035.559	-1875
1035.623	-2014
1035.687	-2159
1035.751	-2629
1035.815	-1612
1035.879	-2192
1035.943	-2108
1036.007	-2011
1036.071	-2041
1036.135	-2498
1036.198	-2118
1036.262	-2377
1036.326	-1969
1036.390	-1885
1036.454	-2210
1036.517	-2218
1036.581	-2291
1036.645	-1819
1036.709	-2037
1036.772	-1730
1036.836	-2186
1036.900	-1936
1036.963	-2333
1037.026	-1750
1037.090	-3082
1037.154	-2217
1037.217	-1704
1037.280	-1676
1037.344	-2259
1037.407	-2102
1037.471	-2283
1037.534	-2147
1037.597	-2377
1037.661	-2417
1037.724	-2145
1037.787	-2548
1037.850	-2587
1037.913	-2632
1037.977	-1684
1038.040	-2106
1038.103	-1927
1038.166	-2978
1038.229	-2213
1038.292	-1766
1038.355	-2887
1038.418	-2403
1038.481	-1568
1038.544	-2017
1038.607	-2522
1038.670	-2439
1038.732	-1934
1038.795	-2887
1038.858	-2607
1038.921	-1453
1038.984	-1675
1039.046	-2287
1039.109	-2972
1039.172	-2558
1039.234	-2570
1039.297	-2926
1039.360	-1528
1039.422	-2168
1039.485	-1801
1039.547	-3459
1039.610	-2293
1039.672	-2368
1039.734	-1863
1039.797	-1833
1039.859	-2020
1039.922	-2767
1039.984	-2199
1040.046	-3152
1040.109	-1875
1040.171	-2538
1040.233	-1936
1040.295	-2500
1040.358	-1844
1040.420	-2811
1040.482	-1995
1040.544	-2500
1040.606	-2111
1040.668	-2637
1040.730	-2148
1040.792	-1705
1040.854	-2291
1040.916	-2182
1040.978	-2975
1041.040	-518
1041.102	-2404
1041.164	-2331
1041.225	-2680
1041.287	-2547
1041.349	-1920
1041.411	-2121
1041.472	-2632
1041.534	-2408
1041.596	-2658
1041.657	-2510
1041.719	-1916
1041.781	-3148
1041.842	-2205
1041.904	-2249
1041.965	-2170
1042.027	-2369
1042.088	-2046
1042.150	-2445
1042.211	-2982
1042.272	-1989
1042.334	-2698
1042.395	-1642
1042.456	-3232
1042.518	-2227
1042.579	-2016
1042.640	-1830
1042.701	-1783
1042.763	-2374
1042.824	-2229
1042.885	-2101
1042.946	-1997
1043.007	-2665
1043.068	-1858
1043.129	-2813
1043.190	-2645
1043.251	-1850
1043.312	-2630
1043.373	-2001
1043.434	-1987
1043.495	-3080
1043.556	-1667
1043.616	-2204
1043.677	-2589
1043.738	-1829
1043.799	-2903
1043.859	-2534
1043.920	-1590
1043.981	-2091
1044.041	-2400
1044.102	-2857
1044.162	-2371
1044.223	-1851
1044.284	-2129
1044.344	-2063
1044.405	-2673
1044.465	-2241
1044.525	-2802
1044.586	-2081
1044.646	-2121
1044.707	-1569
1044.767	-1439
1044.827	-2305
1044.887	-2610
1044.948	-1488
1045.008	-1741
1045.068	-1971
1045.128	-1789
1045.188	-2012
1045.249	-1595
1045.309	-2559
1045.369	-1516
1045.429	-1962
1045.489	-2710
1045.549	-2722
1045.609	-2268
1045.669	-2187
1045.729	-2098
1045.789	-2187
1045.848	-1973
1045.908	-1515
1045.968	-1644
1046.028	-1764
1046.088	-1948
1046.147	-1469
1046.207	-1823
1046.267	-1190
1046.326	-1854
1046.386	-1670
1046.446	-1091
1046.505	-1874
1046.565	-1178
1046.624	-395
1046.684	-586
1046.743	-114
1046.803	-843
1046.862	-899
1046.922	0
