'Start Wavelength	183.907
'End Wavelength	1046.922
'Gate Delay	5.000
'Gate Width (ms)	1.050
'Laser Output Level	0.000
'X Position	0.000
'Y Position	0.000
'Z Position	0.000
'Grid Point Number	1.000
'Shot Number	100.000
183.907	546.000
183.977	-555.000
184.047	604
184.116	692
184.186	-29
184.256	-22
184.325	-118
184.395	-1030
184.465	615
184.534	273
184.604	-141
184.674	312
184.743	-781
184.813	624
184.883	216
184.952	98
185.022	67
185.092	111
185.161	-489
185.231	94
185.301	36
185.370	658
185.440	-745
185.509	435
185.579	289
185.649	-37
185.718	816
185.788	193
185.857	-822
185.927	-2
185.996	125
186.066	-12
186.136	123
186.205	274
186.275	-242
186.344	116
186.414	400
186.483	-24
186.553	367
186.622	236
186.692	-45
186.761	-84
186.831	375
186.900	-488
186.970	715
187.039	748
187.109	25
187.178	485
187.248	559
187.317	181
187.387	383
187.456	-249
187.526	-188
187.595	369
187.664	-341
187.734	546
187.803	312
187.873	522
187.942	-224
188.012	-405
188.081	91
188.150	977
188.220	45
188.289	140
188.358	277
188.428	456
188.497	27
188.567	220
188.636	187
188.705	-105
188.775	-393
188.844	-503
188.913	1070
188.983	-117
189.052	-767
189.121	-883
189.191	54
189.260	223
189.329	-623
189.399	-64
189.468	14
189.537	-908
189.606	91
189.676	-120
189.745	-412
189.814	262
189.883	-700
189.953	-286
190.022	107
190.091	208
190.161	329
190.230	673
190.299	581
190.368	179
190.437	67
190.507	399
190.576	294
190.645	-314
190.714	71
190.783	-435
190.853	122
190.922	287
190.991	-113
191.060	-6
191.129	-233
191.198	443
191.268	-72
191.337	6
191.406	1198
191.475	19
191.544	119
191.613	325
191.682	-311
191.752	341
191.821	-625
191.890	407
191.959	42
192.028	-145
192.097	-151
192.166	-256
192.235	-390
192.304	656
192.373	118
192.442	-603
192.511	78
192.580	437
192.650	-220
192.719	-113
192.788	234
192.857	-12
192.926	447
192.995	354
193.064	437
193.133	-216
193.202	8
193.271	347
193.340	82
193.409	697
193.478	-283
193.547	-235
193.615	408
193.684	-215
193.753	-21
193.822	-196
193.891	-396
193.960	320
194.029	-688
194.098	-244
194.167	-519
194.236	-82
194.305	-355
194.374	-19
194.443	-678
194.512	-251
194.580	331
194.649	-330
194.718	-278
194.787	-235
194.856	-396
194.925	466
194.994	-986
195.062	-214
195.131	87
195.200	-881
195.269	124
195.338	-97
195.407	-155
195.475	310
195.544	318
195.613	-143
195.682	539
195.751	-281
195.819	-565
195.888	-259
195.957	-190
196.026	-79
196.094	-20
196.163	133
196.232	-477
196.301	-779
196.369	-380
196.438	-361
196.507	-353
196.576	-625
196.644	-229
196.713	-142
196.782	-298
196.850	-181
196.919	454
196.988	-65
197.056	-1009
197.125	1
197.194	-109
197.262	-164
197.331	-776
197.400	-707
197.468	-169
197.537	223
197.606	-43
197.674	-136
197.743	-288
197.812	-8
197.880	-569
197.949	-893
198.017	-966
198.086	4
198.155	-288
198.223	334
198.292	-1217
198.360	101
198.429	-178
198.497	-728
198.566	-188
198.635	-556
198.703	1072
198.772	320
198.840	-267
198.909	-365
198.977	-721
199.046	-182
199.114	140
199.183	-176
199.251	563
199.320	518
199.388	-521
199.457	-444
199.525	80
199.594	-264
199.662	-45
199.731	19
199.799	-129
199.867	230
199.936	-1328
200.004	-244
200.073	205
200.141	-113
200.210	-1132
200.278	-545
200.346	-461
200.415	102
200.483	-455
200.552	-406
200.620	-203
200.688	-588
200.757	-725
200.825	-265
200.893	-37
200.962	-104
201.030	-508
201.098	188
201.167	405
201.235	-84
201.303	-723
201.372	262
201.440	551
201.508	542
201.577	347
201.645	210
201.713	-248
201.781	27
201.850	324
201.918	-119
201.986	-200
202.055	-80
202.123	15
202.191	-18
202.259	-499
202.327	-659
202.396	-599
202.464	-186
202.532	-293
202.600	48
202.669	-535
202.737	-819
202.805	-281
202.873	660
202.941	-669
203.009	22
203.078	-395
203.146	48
203.214	-444
203.282	-643
203.350	-10
203.418	-968
203.487	-189
203.555	-359
203.623	-844
203.691	99
203.759	-1239
203.827	-333
203.895	-475
203.963	-58
204.031	-590
204.099	-474
204.168	-703
204.236	207
204.304	-247
204.372	-360
204.440	160
204.508	-444
204.576	-809
204.644	-312
204.712	-1116
204.780	-151
204.848	-402
204.916	-503
204.984	236
205.052	52
205.120	-206
205.188	-837
205.256	-544
205.324	-782
205.392	-984
205.460	54
205.528	-691
205.596	934
205.664	-399
205.732	-562
205.799	-293
205.867	-410
205.935	-411
206.003	578
206.071	-659
206.139	-745
206.207	-214
206.275	-687
206.343	-718
206.411	-620
206.478	249
206.546	-849
206.614	-445
206.682	-36
206.750	-484
206.818	-55
206.885	273
206.953	-825
207.021	211
207.089	213
207.157	-549
207.225	-558
207.292	-203
207.360	-536
207.428	-73
207.496	-446
207.563	-259
207.631	369
207.699	-10
207.767	-563
207.834	-871
207.902	-55
207.970	-1292
208.038	-502
208.105	-683
208.173	-382
208.241	83
208.309	-277
208.376	-483
208.444	26
208.512	-736
208.579	-1355
208.647	-196
208.715	666
208.782	-856
208.850	198
208.918	-559
208.985	-608
209.053	-323
209.120	-317
209.188	-708
209.256	-599
209.323	-1134
209.391	-740
209.459	453
209.526	-472
209.594	-8
209.661	-847
209.729	-29
209.796	-197
209.864	-111
209.932	-1304
209.999	513
210.067	-17
210.134	-234
210.202	-493
210.269	53
210.337	-15
210.404	-1051
210.472	-281
210.539	-893
210.607	-677
210.674	48
210.742	-201
210.809	-547
210.877	-379
210.944	554
211.012	-1663
211.079	206
211.146	139
211.214	109
211.281	-242
211.349	286
211.416	0
211.484	-204
211.551	-739
211.618	2
211.686	-425
211.753	-898
211.821	-336
211.888	-914
211.955	279
212.023	-84
212.090	-681
212.157	3
212.225	-1101
212.292	6
212.359	-262
212.427	447
212.494	173
212.561	841
212.629	-160
212.696	-586
212.763	-243
212.831	-1217
212.898	-388
212.965	-736
213.032	-350
213.100	-26
213.167	-1166
213.234	47
213.301	-309
213.369	-335
213.436	-596
213.503	-878
213.570	-494
213.638	-438
213.705	-612
213.772	-993
213.839	-540
213.906	360
213.973	-222
214.041	-693
214.108	-332
214.175	-97
214.242	-561
214.309	-759
214.376	27
214.444	-411
214.511	-1432
214.578	-784
214.645	147
214.712	-587
214.779	-272
214.846	-1165
214.913	-440
214.980	189
215.048	-356
215.115	-386
215.182	-403
215.249	-445
215.316	-635
215.383	-22
215.450	-304
215.517	-825
215.584	-511
215.651	-937
215.718	-623
215.785	-575
215.852	-979
215.919	-64
215.986	318
216.053	-1205
216.120	-863
216.187	-829
216.254	-797
216.321	-662
216.388	-424
216.455	271
216.522	-682
216.589	-820
216.656	55
216.722	-1105
216.789	180
216.856	-321
216.923	6
216.990	-488
217.057	-558
217.124	-83
217.191	-999
217.258	-6
217.324	-573
217.391	435
217.458	484
217.525	-810
217.592	-28
217.659	-1561
217.725	-107
217.792	-683
217.859	584
217.926	-796
217.993	-657
218.059	322
218.126	-243
218.193	-741
218.260	-629
218.327	-1250
218.393	-962
218.460	-976
218.527	-54
218.594	-207
218.660	-122
218.727	-14
218.794	-1037
218.860	78
218.927	-779
218.994	-281
219.061	-640
219.127	-817
219.194	-208
219.261	193
219.327	-1308
219.394	275
219.461	-891
219.527	-242
219.594	-432
219.661	-788
219.727	-978
219.794	-225
219.860	-522
219.927	141
219.994	-159
220.060	-181
220.127	545
220.193	520
220.260	231
220.326	-626
220.393	-268
220.460	-90
220.526	-173
220.593	-1186
220.659	1056
220.726	-929
220.792	280
220.859	-225
220.925	511
220.992	1184
221.058	392
221.125	273
221.191	671
221.258	-711
221.324	-101
221.391	-371
221.457	-165
221.524	759
221.590	-51
221.657	353
221.723	15
221.789	87
221.856	829
221.922	-1217
221.989	-604
222.055	-636
222.121	-1493
222.188	794
222.254	-339
222.321	-155
222.387	-861
222.453	-976
222.520	-422
222.586	-714
222.652	126
222.719	-681
222.785	-435
222.851	-330
222.918	195
222.984	-516
223.050	-605
223.116	-2382
223.183	869
223.249	-238
223.315	-659
223.382	-442
223.448	-356
223.514	-1061
223.580	-881
223.647	-1270
223.713	-718
223.779	14
223.845	-716
223.911	259
223.978	-1498
224.044	-795
224.110	-219
224.176	-403
224.242	-362
224.309	-1596
224.375	-551
224.441	-567
224.507	-1068
224.573	-2619
224.639	-246
224.705	-1461
224.772	-516
224.838	-1269
224.904	-715
224.970	122
225.036	-958
225.102	-1178
225.168	190
225.234	-503
225.300	-1453
225.366	-23
225.432	-589
225.499	-713
225.565	-1047
225.631	-1409
225.697	146
225.763	-197
225.829	-1259
225.895	-669
225.961	-799
226.027	-518
226.093	-576
226.159	283
226.225	480
226.291	497
226.357	2325
226.423	292
226.489	-502
226.554	207
226.620	-623
226.686	-739
226.752	-510
226.818	137
226.884	2611
226.950	2894
227.016	615
227.082	160
227.148	-592
227.214	178
227.279	197
227.345	-1119
227.411	-565
227.477	-587
227.543	1950
227.609	1488
227.674	1069
227.740	-499
227.806	-419
227.872	236
227.938	-894
228.003	-1082
228.069	-1012
228.135	-1533
228.201	-1292
228.267	-472
228.332	-367
228.398	-1974
228.464	-463
228.530	-1245
228.595	-377
228.661	-1205
228.727	-1418
228.792	-35
228.858	-1030
228.924	-2504
228.990	1516
229.055	-1135
229.121	-247
229.187	-1007
229.252	-598
229.318	-1315
229.384	-352
229.449	-367
229.515	-2003
229.581	-1459
229.646	825
229.712	-1028
229.777	-443
229.843	-1118
229.909	-430
229.974	-214
230.040	-716
230.105	-882
230.171	-1156
230.236	398
230.302	-818
230.368	-454
230.433	-554
230.499	-419
230.564	124
230.630	-1793
230.695	-1220
230.761	58
230.826	-2042
230.892	185
230.957	-1331
231.023	-1325
231.088	-539
231.154	-305
231.219	-465
231.284	-1409
231.350	-39
231.415	-1341
231.481	373
231.546	-404
231.612	121
231.677	-814
231.742	-1397
231.808	478
231.873	-1025
231.939	-2671
232.004	153
232.069	-241
232.135	-1076
232.200	-1298
232.265	-74
232.331	-1037
232.396	-1028
232.461	-1545
232.527	-687
232.592	-1508
232.657	-637
232.723	-1422
232.788	113
232.853	-1040
232.918	-409
232.984	-1349
233.049	-1079
233.114	-1521
233.179	-178
233.245	-159
233.310	-168
233.375	-2500
233.440	-300
233.506	-662
233.571	-1542
233.636	-1355
233.701	-478
233.766	-651
233.832	-1095
233.897	-991
233.962	-2337
234.027	-460
234.092	113
234.157	-963
234.222	-1048
234.288	-719
234.353	-1332
234.418	170
234.483	282
234.548	-136
234.613	-1012
234.678	-18
234.743	-1304
234.808	120
234.873	-2480
234.938	382
235.004	67
235.069	-1477
235.134	-1243
235.199	-813
235.264	-17
235.329	-1375
235.394	-451
235.459	-623
235.524	-1587
235.589	-230
235.654	-981
235.719	-1980
235.784	-282
235.849	-1348
235.913	-572
235.978	-342
236.043	-237
236.108	-896
236.173	-1725
236.238	-496
236.303	-955
236.368	-1286
236.433	-196
236.498	-549
236.563	-308
236.627	-178
236.692	3941
236.757	3038
236.822	467
236.887	-966
236.952	883
237.017	-1863
237.081	271
237.146	-1415
237.211	1061
237.276	3445
237.341	7485
237.405	1306
237.470	424
237.535	-274
237.600	294
237.664	-421
237.729	-1296
237.794	-1439
237.859	1449
237.923	-388
237.988	-661
238.053	-80
238.118	-1445
238.182	-546
238.247	772
238.312	-2273
238.376	282
238.441	-2184
238.506	-304
238.570	-1244
238.635	711
238.700	-534
238.764	-1361
238.829	-69
238.893	-1146
238.958	-411
239.023	-1215
239.087	-503
239.152	95
239.216	-1697
239.281	-17
239.346	-646
239.410	-1659
239.475	-1023
239.539	-360
239.604	-1197
239.668	-209
239.733	-236
239.797	683
239.862	2944
239.926	2104
239.991	250
240.055	-70
240.120	-814
240.184	-1106
240.249	-1782
240.313	-319
240.378	-1092
240.442	-1025
240.507	-797
240.571	-561
240.635	-844
240.700	-495
240.764	-959
240.829	-821
240.893	-1722
240.957	-215
241.022	-416
241.086	-173
241.151	-2258
241.215	-1659
241.279	-233
241.344	-1193
241.408	237
241.472	-2349
241.537	-124
241.601	-353
241.665	-2222
241.730	-1750
241.794	112
241.858	-1628
241.922	-744
241.987	22
242.051	-1061
242.115	-2003
242.179	-280
242.244	-1628
242.308	213
242.372	-1059
242.436	-1349
242.501	-122
242.565	-1209
242.629	-1108
242.693	162
242.757	-1464
242.822	-1086
242.886	-455
242.950	-433
243.014	-1399
243.078	-1355
243.142	-739
243.206	-1627
243.271	-271
243.335	-1672
243.399	115
243.463	-557
243.527	3632
243.591	-44
243.655	-300
243.719	-1524
243.783	254
243.847	-853
243.911	-242
243.975	-1058
244.040	-1920
244.104	496
244.168	-880
244.232	-1430
244.296	-850
244.360	-239
244.424	-1384
244.488	-646
244.552	-371
244.615	-1896
244.679	-713
244.743	-637
244.807	-1355
244.871	-570
244.935	-321
244.999	-2045
245.063	-1158
245.127	6
245.191	-499
245.255	-559
245.319	-1159
245.383	-2034
245.446	-260
245.510	-1492
245.574	-953
245.638	-936
245.702	-2233
245.766	-1167
245.829	-235
245.893	-2378
245.957	-1293
246.021	-80
246.085	-400
246.149	-1410
246.212	544
246.276	-1177
246.340	-775
246.404	-1170
246.467	299
246.531	-2349
246.595	25
246.659	-99
246.722	-1520
246.786	-821
246.850	-604
246.913	-1139
246.977	-2088
247.041	-1384
247.104	-370
247.168	-358
247.232	250
247.295	211
247.359	-83
247.423	-1355
247.486	-1319
247.550	105
247.614	-1009
247.677	-1045
247.741	-758
247.804	-1252
247.868	-813
247.932	-1832
247.995	440
248.059	-986
248.122	-1126
248.186	638
248.249	-700
248.313	1119
248.376	1266
248.440	-14
248.503	-2028
248.567	630
248.630	-1417
248.694	-791
248.757	-66
248.821	1531
248.884	317
248.948	-178
249.011	839
249.075	1534
249.138	1786
249.202	-147
249.265	-789
249.328	4
249.392	-1731
249.455	-513
249.519	-1129
249.582	-882
249.645	-377
249.709	-805
249.772	-937
249.835	-752
249.899	-868
249.962	-700
250.025	-1250
250.089	-863
250.152	213
250.215	-1114
250.279	-1901
250.342	256
250.405	-893
250.468	-871
250.532	-1265
250.595	-392
250.658	3118
250.721	10324
250.785	777
250.848	838
250.911	-440
250.974	675
251.038	-103
251.101	626
251.164	-812
251.227	241
251.290	-372
251.354	-53
251.417	6193
251.480	7033
251.543	3192
251.606	13798
251.669	9951
251.732	1211
251.795	1394
251.859	2262
251.922	7400
251.985	4515
252.048	882
252.111	-259
252.174	-852
252.237	336
252.300	2843
252.363	2404
252.426	11254
252.489	2690
252.552	-2
252.615	-780
252.678	369
252.741	1129
252.804	2401
252.867	11659
252.930	5150
252.993	565
253.056	975
253.119	-401
253.182	-121
253.245	-629
253.308	196
253.371	-1549
253.434	-155
253.497	-481
253.559	748
253.622	-1208
253.685	-853
253.748	-816
253.811	-1719
253.874	95
253.937	-767
254.000	-516
254.062	-638
254.125	-75
254.188	462
254.251	-748
254.314	-558
254.376	-1204
254.439	-323
254.502	83
254.565	-55
254.628	650
254.690	-1848
254.753	-1656
254.816	-583
254.878	-559
254.941	-96
255.004	163
255.067	-725
255.129	-1210
255.192	-886
255.255	-2338
255.317	-696
255.380	-1321
255.443	-1514
255.505	-892
255.568	-1883
255.631	-1374
255.693	-172
255.756	-1526
255.819	-80
255.881	-1461
255.944	-978
256.006	-1231
256.069	-1182
256.132	-1397
256.194	-1224
256.257	-1007
256.319	-155
256.382	-1116
256.444	-351
256.507	-428
256.569	-1626
256.632	-587
256.694	-1037
256.757	1373
256.819	7459
256.882	278
256.944	-17
257.007	-6
257.069	-1575
257.132	-1095
257.194	523
257.257	-1555
257.319	-1727
257.381	-1039
257.444	1376
257.506	6163
257.569	7756
257.631	1199
257.693	-175
257.756	-804
257.818	-681
257.880	-1413
257.943	-309
258.005	-1186
258.067	-1684
258.130	-1091
258.192	-861
258.254	-1865
258.317	-955
258.379	-1037
258.441	-8
258.503	-630
258.566	-426
258.628	-238
258.690	-1687
258.753	-214
258.815	-776
258.877	-1422
258.939	-1252
259.001	-407
259.064	-1789
259.126	-784
259.188	-835
259.250	-730
259.312	-644
259.375	-1609
259.437	-842
259.499	-754
259.561	-1174
259.623	-691
259.685	-1131
259.747	-1242
259.809	-430
259.872	-595
259.934	304
259.996	1112
260.058	-124
260.120	-808
260.182	-749
260.244	-1409
260.306	-901
260.368	-527
260.430	-858
260.492	-1048
260.554	-619
260.616	-1975
260.678	-637
260.740	-256
260.802	-1273
260.864	-586
260.926	-2018
260.988	-61
261.050	-1290
261.112	-1480
261.174	924
261.236	-606
261.298	-1335
261.359	-486
261.421	192
261.483	-2144
261.545	-608
261.607	-2425
261.669	-862
261.731	-906
261.793	302
261.854	-2345
261.916	-359
261.978	-975
262.040	-1408
262.102	-439
262.164	-1247
262.225	-1319
262.287	-1687
262.349	-1260
262.411	-1169
262.472	-88
262.534	-1448
262.596	-1650
262.658	300
262.719	-978
262.781	-1127
262.843	-1569
262.904	-171
262.966	-173
263.028	-1027
263.090	112
263.151	3360
263.213	299
263.275	-562
263.336	-219
263.398	-726
263.459	-1478
263.521	-981
263.583	-813
263.644	-1029
263.706	-1873
263.767	-1781
263.829	-1409
263.891	-1073
263.952	-1385
264.014	-999
264.075	-1668
264.137	-626
264.198	-279
264.260	-1676
264.321	-1072
264.383	-603
264.444	-527
264.506	-832
264.567	-1198
264.629	-155
264.690	-987
264.752	-926
264.813	-1722
264.875	-693
264.936	-105
264.998	-1824
265.059	-964
265.120	-357
265.182	-1108
265.243	1021
265.305	1654
265.366	81
265.427	-613
265.489	168
265.550	-1978
265.611	-699
265.673	-2154
265.734	-1041
265.795	-131
265.857	-1413
265.918	-2153
265.979	-315
266.040	4449
266.102	3959
266.163	329
266.224	-821
266.286	-693
266.347	-1725
266.408	-1017
266.469	-791
266.530	-1550
266.592	-1138
266.653	-1027
266.714	-1530
266.775	-1384
266.836	-1337
266.898	-1477
266.959	-1355
267.020	-1078
267.081	242
267.142	-540
267.203	-1424
267.264	-1224
267.326	63
267.387	-1484
267.448	-1037
267.509	-1486
267.570	-1583
267.631	-1176
267.692	-1841
267.753	-856
267.814	-1905
267.875	-1109
267.936	-704
267.997	-1198
268.058	-665
268.119	-1546
268.180	-787
268.241	-1681
268.302	-770
268.363	-2675
268.424	-1124
268.485	-1455
268.546	-2305
268.607	-1590
268.668	-2172
268.729	-1352
268.790	-1992
268.851	-2037
268.912	-1272
268.972	-449
269.033	-1526
269.094	-1185
269.155	-814
269.216	-1420
269.277	-759
269.338	-923
269.398	-379
269.459	-1420
269.520	-716
269.581	-610
269.642	-1137
269.702	-2370
269.763	-1064
269.824	-1627
269.885	-1021
269.945	-1292
270.006	-1020
270.067	-1221
270.128	-793
270.188	-1367
270.249	-1439
270.310	-1193
270.370	-1660
270.431	-1295
270.492	-1790
270.553	-1240
270.613	-949
270.674	-597
270.734	-1282
270.795	-887
270.856	-472
270.916	-1325
270.977	-1360
271.038	-32
271.098	-725
271.159	-1508
271.219	-1210
271.280	-744
271.340	-1362
271.401	-1692
271.462	-956
271.522	-781
271.583	-1163
271.643	-960
271.704	-1562
271.764	-1862
271.825	-706
271.885	908
271.946	2471
272.006	-61
272.066	-267
272.127	2526
272.187	1476
272.248	-145
272.308	-716
272.369	310
272.429	235
272.489	-734
272.550	-401
272.610	-565
272.671	-1643
272.731	-408
272.791	-907
272.852	-2025
272.912	-932
272.972	-614
273.033	76
273.093	-1733
273.153	-991
273.214	-958
273.274	-502
273.334	-79
273.394	1362
273.455	-83
273.515	164
273.575	988
273.635	-115
273.696	636
273.756	2149
273.816	226
273.876	-54
273.936	-166
273.997	300
274.057	-945
274.117	-883
274.177	-684
274.237	443
274.297	1431
274.358	-1016
274.418	801
274.478	322
274.538	-872
274.598	-1842
274.658	-976
274.718	-705
274.778	-651
274.838	-894
274.898	-1284
274.958	151
275.018	502
275.078	302
275.138	-783
275.198	-619
275.258	-1941
275.318	-1259
275.378	-1515
275.438	-1404
275.498	-862
275.558	-1463
275.618	544
275.678	-507
275.738	-674
275.798	-628
275.858	-642
275.918	-1068
275.978	-1180
276.038	-676
276.098	-1077
276.157	-895
276.217	-671
276.277	-1127
276.337	-358
276.397	-861
276.457	-1180
276.517	-1224
276.576	-531
276.636	-1387
276.696	-696
276.756	-634
276.815	-983
276.875	-841
276.935	-1524
276.995	-860
277.055	-609
277.114	-445
277.174	-969
277.234	-33
277.293	-362
277.353	-1265
277.413	-463
277.472	-1058
277.532	-831
277.592	-81
277.651	3643
277.711	11111
277.771	1965
277.830	9733
277.890	8936
277.950	5416
278.009	20862
278.069	8254
278.128	6020
278.188	11812
278.248	3998
278.307	10818
278.367	7710
278.426	1158
278.486	-401
278.545	-435
278.605	-545
278.664	-805
278.724	-436
278.783	375
278.843	2650
278.902	921
278.962	-769
279.021	261
279.081	1506
279.140	1231
279.199	389
279.259	314
279.318	1281
279.378	2849
279.437	3716
279.496	11897
279.556	49224
279.615	48327
279.675	11548
279.734	6189
279.793	5539
279.853	7394
279.912	2617
279.971	2183
280.031	859
280.090	2229
280.149	4979
280.208	6952
280.268	32560
280.327	43186
280.386	7991
280.445	3983
280.505	1464
280.564	1131
280.623	1008
280.682	1097
280.742	690
280.801	-577
280.860	-405
280.919	-1000
280.978	-39
281.037	-1414
281.097	-220
281.156	275
281.215	-580
281.274	-191
281.333	633
281.392	777
281.451	-1020
281.510	192
281.569	-327
281.628	-480
281.688	-409
281.747	378
281.806	-564
281.865	-543
281.924	-1233
281.983	-924
282.042	-1327
282.101	-1502
282.160	-720
282.219	-1201
282.278	-954
282.337	-40
282.396	-1336
282.454	-639
282.513	-726
282.572	398
282.631	-1386
282.690	-110
282.749	-845
282.808	-1188
282.867	-318
282.926	-469
282.985	-1247
283.043	-768
283.102	-1314
283.161	-621
283.220	-949
283.279	905
283.338	-984
283.396	-1416
283.455	-274
283.514	-983
283.573	-298
283.631	29
283.690	157
283.749	-378
283.808	-88
283.866	-155
283.925	-105
283.984	-683
284.043	-601
284.101	861
284.160	4
284.219	457
284.277	337
284.336	159
284.395	1781
284.453	1437
284.512	1435
284.570	1026
284.629	1351
284.688	2460
284.746	3613
284.805	4734
284.863	5574
284.922	7886
284.981	8450
285.039	13971
285.098	21847
285.156	41611
285.215	56989
285.273	54282
285.332	46218
285.390	28957
285.449	17771
285.507	12391
285.566	8526
285.624	7084
285.683	4584
285.741	3347
285.799	2350
285.858	2092
285.916	1574
285.975	1320
286.033	803
286.091	536
286.150	400
286.208	186
286.267	150
286.325	-266
286.383	501
286.442	-274
286.500	120
286.558	-138
286.616	-193
286.675	783
286.733	-815
286.791	-772
286.850	-443
286.908	-572
286.966	-423
287.024	-378
287.083	-146
287.141	-111
287.199	-253
287.257	-423
287.315	-511
287.374	-495
287.432	-668
287.490	-160
287.548	-916
287.606	-997
287.664	-153
287.723	-455
287.781	-674
287.839	-420
287.897	-1071
287.955	-378
288.013	373
288.071	2586
288.129	10088
288.187	40952
288.245	17951
288.303	3306
288.361	1448
288.419	473
288.477	-547
288.535	-244
288.593	-300
288.651	-143
288.709	-721
288.767	-1794
288.825	-1211
288.883	-652
288.941	-469
288.999	-2230
289.057	-659
289.115	-202
289.173	-450
289.231	-939
289.289	-937
289.346	-732
289.404	-1174
289.462	-898
289.520	-635
289.578	-921
289.636	-752
289.694	-235
289.751	-1127
289.809	-895
289.867	-1437
289.925	-83
289.983	-985
290.040	-465
290.098	-1770
290.156	-1224
290.214	-1353
290.271	-1262
290.329	-509
290.387	-644
290.444	-1522
290.502	-1731
290.560	-847
290.617	-313
290.675	-1371
290.733	-756
290.790	-587
290.848	-82
290.906	-1222
290.963	-677
291.021	-1024
291.078	-900
291.136	-946
291.194	-969
291.251	-44
291.309	-775
291.366	-191
291.424	-368
291.481	-566
291.539	-1091
291.596	-575
291.654	-1226
291.711	-1018
291.769	-783
291.826	-1619
291.884	-690
291.941	-1090
291.999	-966
292.056	-1324
292.114	-1240
292.171	-778
292.228	-517
292.286	-724
292.343	-921
292.401	-269
292.458	-1392
292.515	-836
292.573	-724
292.630	-972
292.687	-1383
292.745	-845
292.802	-1351
292.859	-357
292.917	419
292.974	-321
293.031	-175
293.089	-1095
293.146	-1075
293.203	-1141
293.260	-1574
293.318	-1786
293.375	-211
293.432	-1432
293.489	-566
293.546	-550
293.604	-1386
293.661	508
293.718	3223
293.775	1069
293.832	224
293.889	324
293.947	658
294.004	-777
294.061	-1026
294.118	-1196
294.175	407
294.232	2578
294.289	1341
294.346	-296
294.403	-523
294.460	-824
294.517	-820
294.574	-1171
294.631	-853
294.688	-362
294.745	-659
294.802	2335
294.859	3821
294.916	358
294.973	-268
295.030	-869
295.087	-1105
295.144	-445
295.201	-920
295.258	-473
295.315	-1009
295.372	650
295.429	1383
295.486	-302
295.542	-772
295.599	539
295.656	2884
295.713	431
295.770	1181
295.827	-14
295.883	-58
295.940	-754
295.997	-653
296.054	-982
296.111	-438
296.167	-509
296.224	-1602
296.281	-1152
296.338	-870
296.394	-901
296.451	-1250
296.508	-662
296.564	-349
296.621	604
296.678	1499
296.734	3467
296.791	953
296.848	152
296.904	-387
296.961	-219
297.018	535
297.074	890
297.131	518
297.187	-187
297.244	-162
297.301	1650
297.357	4479
297.414	1274
297.470	-413
297.527	-376
297.583	-604
297.640	-495
297.696	-419
297.753	-916
297.809	-827
297.866	-2084
297.922	-102
297.979	-740
298.035	-1596
298.092	-541
298.148	679
298.204	590
298.261	-1198
298.317	291
298.374	3420
298.430	1370
298.486	-387
298.543	-500
298.599	-117
298.656	-834
298.712	494
298.768	1321
298.824	2175
298.881	-432
298.937	-514
298.993	-554
299.050	-1421
299.106	-795
299.162	-1493
299.218	81
299.275	-491
299.331	-749
299.387	-198
299.443	2856
299.500	7644
299.556	4670
299.612	1765
299.668	816
299.724	3357
299.780	5114
299.837	1346
299.893	1071
299.949	3083
300.005	5128
300.061	4232
300.117	9206
300.173	4434
300.229	695
300.285	-210
300.341	151
300.397	-334
300.453	48
300.510	-315
300.566	-198
300.622	1444
300.678	6903
300.734	12170
300.790	4854
300.845	4628
300.901	3664
300.957	6950
301.013	3139
301.069	461
301.125	-130
301.181	-348
301.237	-2
301.293	-746
301.349	-815
301.405	-507
301.461	-865
301.516	-469
301.572	-683
301.628	-1018
301.684	-420
301.740	-601
301.796	-188
301.851	-775
301.907	480
301.963	1187
302.019	1404
302.074	9182
302.130	11186
302.186	5631
302.242	599
302.297	-60
302.353	-228
302.409	606
302.464	-215
302.520	153
302.576	913
302.631	3040
302.687	357
302.743	-715
302.798	-724
302.854	-1624
302.910	-125
302.965	-1015
303.021	-580
303.076	-808
303.132	-569
303.187	-756
303.243	-1171
303.299	-925
303.354	-861
303.410	-1006
303.465	-1715
303.521	-1061
303.576	-1079
303.632	-818
303.687	-625
303.743	1920
303.798	2451
303.853	-110
303.909	-1168
303.964	-869
304.020	-292
304.075	-922
304.130	-884
304.186	522
304.241	506
304.297	-198
304.352	-1290
304.358	-1283
304.407	-1231
304.449	-835
304.463	-699
304.518	-1032
304.539	-1033
304.573	-1054
304.629	-745
304.630	-749
304.684	-928
304.720	606
304.739	1378
304.794	3306
304.811	2810
304.850	1571
304.902	-35
304.905	-136
304.960	-644
304.992	-714
305.015	-782
305.071	874
305.083	595
305.126	-367
305.173	-1096
305.181	-1224
305.236	-957
305.264	-994
305.292	-998
305.347	-365
305.354	-316
305.402	-92
305.445	-678
305.457	-820
305.512	-287
305.535	-401
305.567	-607
305.622	-761
305.626	-696
305.678	509
305.716	1300
305.733	1564
305.788	1931
305.807	1707
305.843	1528
305.897	2152
305.898	2153
305.953	3379
305.988	2047
306.008	1399
306.063	222
306.078	119
306.118	-222
306.168	-292
306.173	-290
306.228	-603
306.259	-639
306.283	-645
306.338	-656
306.349	-565
306.393	-255
306.440	-216
306.448	-177
306.503	-248
306.530	-98
306.558	-2
306.613	468
306.620	500
306.668	895
306.711	1503
306.723	1537
306.778	1614
306.801	1117
306.833	635
306.888	-135
306.892	-133
306.943	11
306.982	-1
306.997	-21
307.052	-48
307.072	130
307.107	569
307.162	245
307.163	243
307.217	344
307.253	671
307.272	760
307.327	863
307.343	935
307.381	1098
307.434	465
307.436	467
307.491	1501
307.524	2103
307.546	2201
307.600	2299
307.614	2193
307.655	1726
307.704	442
307.710	366
307.765	487
307.795	726
307.819	992
307.874	2003
307.885	2176
307.929	2466
307.975	2058
307.984	2169
308.038	3519
308.065	4629
308.093	8978
308.148	19598
308.156	22114
308.202	32447
308.246	40899
308.257	40519
308.312	20875
308.336	13249
308.366	8751
308.421	4878
308.426	4606
308.475	3105
308.517	2635
308.530	2521
308.585	2275
308.607	2210
308.639	2152
308.694	2297
308.697	2299
308.748	3315
308.787	4594
308.803	4604
308.857	3654
308.877	3159
308.912	3176
308.967	3982
308.967	3990
309.021	7128
309.058	9717
309.076	11592
309.130	18992
309.148	21318
309.185	36902
309.238	63315
309.239	63490
309.293	72194
309.328	67351
309.348	58973
309.402	29505
309.418	22012
309.457	15800
309.508	10408
309.511	10388
309.566	13102
309.598	14908
309.620	19938
309.674	34311
309.688	38361
309.729	33870
309.778	23748
309.783	23036
309.837	13420
309.868	8654
309.892	7719
309.946	6126
309.959	5955
310.001	5587
310.049	5159
310.055	4992
310.109	3530
310.139	2643
310.163	2247
310.218	1728
310.229	1587
310.272	1543
310.319	1535
310.326	1444
310.381	802
310.409	583
310.435	1005
310.489	1909
310.499	2008
310.543	1480
310.589	1253
310.598	1310
310.652	1491
310.679	1422
310.706	1174
310.760	976
310.769	936
310.814	1049
310.859	1081
310.868	1080
310.923	1175
310.948	1114
310.977	1183
311.031	1492
311.038	1534
311.085	1427
311.128	1037
311.139	1022
311.193	1248
311.218	1257
311.247	1234
311.301	1244
311.308	1243
311.356	1160
311.398	1014
311.410	1004
311.464	949
311.488	897
311.518	916
311.572	1023
311.578	1029
311.626	1382
311.668	1633
311.680	1681
311.734	1868
311.758	1937
311.788	1496
311.842	710
311.847	622
311.896	1477
311.937	2216
311.950	2133
312.004	1733
312.027	1554
312.058	1208
312.112	571
312.117	510
312.165	481
312.207	461
312.297	1009
312.386	543
312.476	1325
312.566	1669
312.656	1474
312.745	1426
312.835	1279
312.925	861
313.015	1420
313.104	1165
313.194	1796
313.284	1199
313.374	1320
313.463	1938
313.553	2156
313.643	1740
313.732	1652
313.822	1482
313.912	2149
314.001	2371
314.091	2600
314.180	1941
314.270	1937
314.360	1865
314.449	2605
314.539	1532
314.628	2202
314.718	2041
314.808	1823
314.897	1977
314.987	3027
315.076	1908
315.166	3064
315.255	2455
315.345	2928
315.434	1692
315.524	2710
315.613	2528
315.703	3065
315.792	9524
315.881	32540
315.971	8649
316.060	4147
316.150	2738
316.239	2771
316.328	2651
316.418	1509
316.507	1097
316.597	2810
316.686	2380
316.775	2284
316.865	2987
316.954	2083
317.043	1803
317.133	1332
317.222	1488
317.311	927
317.400	1276
317.490	3166
317.579	1754
317.668	3156
317.757	5436
317.847	16991
317.936	50922
318.025	12994
318.114	10642
318.203	4595
318.293	2568
318.382	3878
318.471	3246
318.560	5462
318.649	7629
318.738	2162
318.828	1475
318.917	1298
319.006	2593
319.095	2962
319.184	8581
319.273	3169
319.362	1432
319.451	1611
319.540	1259
319.629	1641
319.718	2250
319.807	1774
319.896	3624
319.985	11865
320.074	3221
320.163	1182
320.252	2064
320.341	2087
320.430	1533
320.519	1211
320.608	2117
320.697	1947
320.786	2067
320.875	3484
320.964	2781
321.053	3222
321.142	3337
321.230	3971
321.319	4740
321.408	6913
321.497	5046
321.586	4580
321.675	2417
321.764	3986
321.852	3085
321.941	3594
322.030	2107
322.119	3371
322.207	5489
322.296	6433
322.385	6061
322.474	7176
322.562	8820
322.651	6225
322.740	4154
322.829	4380
322.917	3690
323.006	2444
323.095	2137
323.183	2481
323.272	2830
323.361	4001
323.449	8965
323.538	3979
323.626	5854
323.715	3945
323.804	2523
323.892	4688
323.981	2233
324.069	1713
324.158	3473
324.246	3871
324.335	1820
324.424	2506
324.512	1825
324.601	1621
324.689	2638
324.778	3687
324.866	1767
324.954	1099
325.043	887
325.131	1676
325.220	3412
325.308	2369
325.397	1770
325.485	1532
325.574	1007
325.662	1031
325.750	878
325.839	1811
325.927	1102
326.015	1405
326.104	1085
326.192	1905
326.280	1647
326.369	1174
326.457	572
326.545	1090
326.634	134
326.722	1247
326.810	1224
326.898	1708
326.987	890
327.075	400
327.163	2427
327.251	1031
327.340	2410
327.428	3479
327.516	2136
327.604	1508
327.692	1532
327.781	2169
327.869	1575
327.957	892
328.045	846
328.133	994
328.221	638
328.309	738
328.397	1923
328.485	1862
328.574	2742
328.662	4320
328.750	1822
328.838	959
328.926	1121
329.014	1001
329.102	491
329.190	2148
329.278	1208
329.366	1087
329.454	443
329.542	1119
329.630	1079
329.718	914
329.806	1445
329.893	1989
329.981	567
330.069	1302
330.157	1532
330.245	1605
330.333	1271
330.421	1001
330.509	1322
330.597	1758
330.684	1462
330.772	1708
330.860	1103
330.948	1502
331.036	796
331.123	1054
331.211	1243
331.299	1249
331.387	1751
331.475	1766
331.562	702
331.650	1194
331.738	1134
331.825	1711
331.913	1349
332.001	1136
332.089	1355
332.176	1761
332.264	3003
332.352	1876
332.439	1739
332.527	1420
332.614	1057
332.702	1309
332.790	1265
332.877	2387
332.965	6366
333.052	3416
333.140	5207
333.228	11290
333.315	3043
333.403	852
333.490	3175
333.578	5374
333.665	17880
333.753	5542
333.840	1633
333.928	2609
334.015	3374
334.103	5033
334.190	12439
334.278	5508
334.365	7360
334.452	7712
334.540	3713
334.627	3585
334.715	4361
334.802	7711
334.889	21579
334.977	27592
335.064	13654
335.151	5057
335.239	3519
335.326	2834
335.413	8311
335.501	9068
335.588	2642
335.675	2658
335.762	3851
335.850	6070
335.937	8368
336.024	15715
336.111	35864
336.199	30075
336.286	11387
336.373	5880
336.460	2651
336.547	2888
336.635	2339
336.722	1643
336.809	1830
336.896	1992
336.983	3533
337.070	8591
337.157	12513
337.245	7827
337.332	4728
337.419	2066
337.506	1074
337.593	1456
337.680	4077
337.767	6783
337.854	2192
337.941	2069
338.028	2096
338.115	1082
338.202	1744
338.289	2363
338.376	5742
338.463	3082
338.550	4575
338.637	4333
338.724	1956
338.811	2492
338.898	942
338.984	720
339.071	1301
339.158	2071
339.245	1693
339.332	2530
339.419	1829
339.506	1947
339.593	919
339.679	2354
339.766	840
339.853	1367
339.940	1305
340.027	1259
340.113	1161
340.200	586
340.287	1548
340.374	1495
340.460	1236
340.547	320
340.634	1888
340.720	2470
340.807	1839
340.894	1487
340.980	657
341.067	1122
341.154	2053
341.240	1314
341.327	902
341.414	2035
341.500	635
341.587	1488
341.674	1253
341.760	943
341.847	777
341.933	1466
342.020	168
342.106	1406
342.193	1097
342.279	1575
342.366	1166
342.452	1357
342.539	889
342.625	1031
342.712	1987
342.798	1208
342.885	217
342.971	794
343.058	1270
343.144	818
343.230	1044
343.317	1111
343.403	41
343.490	45
343.576	240
343.662	1337
343.749	1277
343.835	886
343.921	1805
344.008	8634
344.094	15739
344.180	4178
344.267	1076
344.353	3627
344.439	3114
344.525	1992
344.612	2724
344.698	1582
344.784	310
344.870	1598
344.957	1096
345.043	1350
345.129	320
345.215	926
345.301	1095
345.387	1582
345.474	353
345.560	1173
345.646	532
345.732	1477
345.818	1086
345.904	988
345.990	983
346.076	868
346.162	1050
346.249	2277
346.335	442
346.421	531
346.507	1905
346.593	5685
346.679	112
346.765	2253
346.851	2208
346.937	975
347.023	1198
347.108	999
347.194	1121
347.280	1293
347.366	2199
347.452	6571
347.538	9046
347.624	6379
347.710	3957
347.796	1571
347.882	930
347.967	1215
348.053	838
348.139	1527
348.225	868
348.311	124
348.397	1670
348.482	2170
348.568	1523
348.654	1861
348.740	7471
348.825	5036
348.911	3675
348.997	4550
349.083	6900
349.168	1412
349.254	1282
349.340	1179
349.425	943
349.511	867
349.597	1102
349.682	1174
349.768	4205
349.854	1971
349.939	943
350.025	1238
350.110	1393
350.196	1695
350.282	193
350.367	1449
350.453	1561
350.538	654
350.624	481
350.709	1250
350.795	934
350.880	1440
350.966	1862
351.051	1256
351.137	296
351.222	1210
351.308	1177
351.393	2058
351.479	997
351.564	858
351.649	820
351.735	1864
351.820	733
351.906	1088
351.991	1172
352.076	1713
352.162	2125
352.247	1793
352.332	638
352.418	1676
352.503	842
352.588	4052
352.673	1682
352.759	1314
352.844	-284
352.929	1527
353.014	1032
353.100	1437
353.185	977
353.270	1517
353.355	2035
353.441	1586
353.526	122
353.611	1384
353.696	825
353.781	1909
353.866	-180
353.952	2097
354.037	335
354.122	2252
354.207	1371
354.292	1740
354.377	587
354.462	1377
354.547	1504
354.632	1027
354.717	674
354.802	856
354.887	490
354.972	594
355.057	696
355.142	334
355.227	592
355.312	832
355.397	941
355.482	1250
355.567	865
355.652	1916
355.737	1596
355.822	3589
355.907	1714
355.991	2071
356.076	610
356.161	1444
356.246	25
356.331	1527
356.416	1358
356.501	9793
356.585	6211
356.670	1031
356.755	2407
356.840	2373
356.924	7238
357.009	18631
357.094	7114
357.179	1621
357.263	1133
357.348	1777
357.433	855
357.517	2270
357.602	1462
357.687	741
357.771	2022
357.856	4456
357.941	3309
358.025	7407
358.110	23762
358.195	9040
358.279	1946
358.364	2185
358.448	3282
358.533	6702
358.617	3986
358.702	4559
358.787	1929
358.871	1769
358.956	1533
359.040	700
359.125	1230
359.209	1678
359.294	2192
359.378	4754
359.462	2121
359.547	1943
359.631	1336
359.716	529
359.800	820
359.885	1638
359.969	282
360.053	1348
360.138	327
360.222	1082
360.306	1316
360.391	1265
360.475	2339
360.559	3238
360.644	2385
360.728	1966
360.812	6192
360.896	11378
360.981	3899
361.065	2150
361.149	1990
361.233	2089
361.318	547
361.402	1714
361.486	2026
361.570	813
361.654	1301
361.739	1969
361.823	8615
361.907	12319
361.991	2593
362.075	2747
362.159	2522
362.243	7383
362.327	18213
362.411	31985
362.495	10306
362.580	5130
362.664	3818
362.748	3514
362.832	6703
362.916	14657
363.000	51430
363.084	82845
363.168	34625
363.252	8263
363.336	5187
363.420	5115
363.503	10757
363.587	9892
363.671	2776
363.755	1671
363.839	4536
363.923	2385
364.007	3951
364.091	4797
364.175	9526
364.258	32462
364.342	57663
364.426	119596
364.510	57395
364.594	15365
364.677	8029
364.761	12526
364.845	8082
364.929	3307
365.013	1378
365.096	2376
365.180	1394
365.264	5565
365.347	16438
365.431	6146
365.515	1359
365.598	1399
365.682	2718
365.766	1312
365.849	1708
365.933	1798
366.017	2627
366.100	552
366.184	832
366.267	2375
366.351	1583
366.435	1111
366.518	561
366.602	2258
366.685	1533
366.769	1093
366.852	1440
366.936	1695
367.019	1269
367.103	186
367.186	2836
367.270	1613
367.353	512
367.436	2772
367.520	1630
367.603	2092
367.687	729
367.770	1939
367.853	2305
367.937	5369
368.020	4410
368.104	923
368.187	2303
368.270	1850
368.353	976
368.437	1478
368.520	4824
368.603	2953
368.687	2050
368.770	4519
368.853	1408
368.936	2533
369.020	1913
369.103	1233
369.186	352
369.269	1559
369.352	1773
369.436	2141
369.519	1251
369.602	-506
369.685	3261
369.768	57
369.851	1997
369.934	1199
370.018	542
370.101	605
370.184	3349
370.267	1910
370.350	1444
370.433	2132
370.516	9214
370.599	19780
370.682	6351
370.765	4428
370.848	4498
370.931	5626
371.014	4139
371.097	487
371.180	2416
371.263	2472
371.346	636
371.429	2670
371.511	1162
371.594	2015
371.677	2963
371.760	4463
371.843	3415
371.926	12277
372.009	19394
372.091	10287
372.174	5033
372.257	9278
372.340	4950
372.423	4739
372.505	5749
372.588	3137
372.671	4650
372.754	5944
372.836	5411
372.919	5796
373.002	8232
373.085	2828
373.167	4219
373.250	4155
373.332	8114
373.415	15402
373.498	24727
373.580	12508
373.663	32912
373.746	28521
373.828	4967
373.911	3669
373.993	3144
374.076	8715
374.159	6527
374.241	3363
374.324	5411
374.406	4870
374.489	8797
374.571	18032
374.654	6592
374.736	5285
374.819	12054
374.901	19734
374.983	16685
375.066	5282
375.148	4018
375.231	8940
375.313	12058
375.395	3793
375.478	2424
375.560	3217
375.643	3439
375.725	4968
375.807	14425
375.890	11673
375.972	3438
376.054	2984
376.136	3260
376.219	1884
376.301	5110
376.383	9692
376.465	3450
376.548	2523
376.630	2822
376.712	8857
376.794	3524
376.877	2329
376.959	1086
377.041	1890
377.123	1360
377.205	2430
377.287	230
377.369	2148
377.452	1516
377.534	1721
377.616	1256
377.698	1465
377.780	1002
377.862	1662
377.944	2969
378.026	541
378.108	2550
378.190	939
378.272	2248
378.354	1544
378.436	1234
378.518	552
378.600	2005
378.682	2752
378.764	3009
378.846	3281
378.928	1723
379.010	1425
379.091	2172
379.173	1683
379.255	880
379.337	1018
379.419	1756
379.501	5678
379.583	2259
379.664	1947
379.746	1060
379.828	4486
379.910	3298
379.991	4469
380.073	777
380.155	1679
380.237	1243
380.318	999
380.400	1359
380.482	2623
380.564	2141
380.645	2089
380.727	2165
380.809	3107
380.890	1611
380.972	707
381.053	1485
381.135	2227
381.217	1975
381.298	4891
381.380	2545
381.461	3222
381.543	9620
381.624	9954
381.706	3365
381.787	3404
381.869	3225
381.951	8104
382.032	20128
382.113	13633
382.195	2736
382.276	5233
382.358	4932
382.439	9279
382.521	14670
382.602	20309
382.684	12008
382.765	19817
382.846	57968
382.928	136459
383.009	67540
383.090	52087
383.172	181092
383.253	230986
383.334	61429
383.416	27008
383.497	18133
383.578	17681
383.659	40687
383.741	154060
383.822	324360
383.903	144813
383.984	32390
384.066	23744
384.147	12855
384.228	8136
384.309	5595
384.390	5926
384.471	4847
384.553	4884
384.634	4993
384.715	5160
384.796	2883
384.877	3910
384.958	6139
385.039	4779
385.120	4150
385.201	3867
385.282	3871
385.363	5007
385.444	4369
385.525	6350
385.606	9093
385.687	7577
385.768	4200
385.849	3525
385.930	11318
386.011	16791
386.092	5165
386.173	3412
386.254	3941
386.335	3410
386.416	2643
386.496	3940
386.577	5203
386.658	2814
386.739	2847
386.820	4111
386.901	1972
386.981	4531
387.062	3772
387.143	4868
387.224	7076
387.304	8614
387.385	6344
387.466	4055
387.547	6330
387.627	5265
387.708	6983
387.789	11072
387.869	10046
387.950	5433
388.031	3124
388.111	1340
388.192	5119
388.273	6262
388.353	3837
388.434	3258
388.514	3655
388.595	9257
388.676	9622
388.756	4087
388.837	4227
388.917	3079
388.998	-41
389.078	2323
389.159	2580
389.239	1034
389.320	3194
389.400	1018
389.480	3038
389.561	4519
389.641	3289
389.722	2169
389.802	1386
389.883	3163
389.963	6356
390.043	4099
390.124	1409
390.204	2926
390.284	4261
390.365	2827
390.445	5674
390.525	9687
390.605	7634
390.686	2136
390.766	2374
390.846	3137
390.927	1263
391.007	1352
391.087	3079
391.167	1943
391.247	1132
391.328	2524
391.408	3263
391.488	3320
391.568	1203
391.648	2479
391.728	3495
391.808	3470
391.888	3168
391.969	3781
392.049	4462
392.129	4847
392.209	4332
392.289	8413
392.369	5885
392.449	7045
392.529	5303
392.609	7718
392.689	8673
392.769	11181
392.849	13068
392.929	16439
393.009	24688
393.089	31574
393.169	65448
393.248	191109
393.328	486377
393.408	459949
393.488	159873
393.568	54554
393.648	26493
393.728	16387
393.807	12028
393.887	11144
393.967	8439
394.047	6998
394.127	6432
394.206	9098
394.286	25808
394.366	98704
394.446	85304
394.525	14925
394.605	5256
394.685	5881
394.764	7839
394.844	13143
394.924	12207
395.003	4830
395.083	3425
395.163	3820
395.242	2664
395.322	2874
395.402	1344
395.481	5471
395.561	6248
395.640	18592
395.720	28144
395.799	18831
395.879	10390
395.958	9158
396.038	33256
396.117	126053
396.197	111710
396.276	25822
396.356	10752
396.435	10578
396.515	13998
396.594	20778
396.673	52296
396.753	185800
396.832	429118
396.912	274640
396.991	67724
397.070	26028
397.150	13358
397.229	14144
397.308	23978
397.388	41353
397.467	16073
397.546	6636
397.625	2622
397.705	5067
397.784	3247
397.863	3062
397.942	2650
398.022	2685
398.101	4529
398.180	8907
398.259	4032
398.338	2545
398.417	1068
398.497	737
398.576	2794
398.655	1323
398.734	2488
398.813	2051
398.892	4138
398.971	9403
399.050	3560
399.129	990
399.208	1017
399.287	2283
399.366	429
399.445	1125
399.524	545
399.603	5
399.682	1379
399.761	2753
399.840	10675
399.919	7748
399.998	1533
400.077	-307
400.156	275
400.235	3148
400.313	-155
400.392	554
400.471	2203
400.550	2860
400.629	151
400.708	1426
400.786	-91
400.865	811
400.944	538
401.023	3478
401.102	187
401.180	603
401.259	412
401.338	83
401.416	738
401.495	-79
401.574	894
401.652	-388
401.731	1490
401.810	153
401.888	213
401.967	356
402.046	516
402.124	1018
402.203	-489
402.281	496
402.360	27
402.438	2142
402.517	261
402.596	675
402.674	524
402.753	932
402.831	708
402.910	2218
402.988	1276
403.066	4877
403.145	4187
403.223	3410
403.302	4279
403.380	4387
403.459	3561
403.537	1284
403.615	497
403.694	17
403.772	869
403.850	532
403.929	953
404.007	-595
404.085	1749
404.164	764
404.242	571
404.320	4077
404.398	11282
404.477	9096
404.555	12091
404.633	10031
404.711	7662
404.789	5120
404.868	495
404.946	-287
405.024	252
405.102	469
405.180	143
405.258	-286
405.336	880
405.415	-953
405.493	1325
405.571	1354
405.649	104
405.727	-149
405.805	1443
405.883	1162
405.961	1360
406.039	47
406.117	-1130
406.195	1228
406.273	742
406.351	7564
406.429	4388
406.507	326
406.585	-848
406.663	868
406.740	524
406.818	-845
406.896	-1334
406.974	1385
407.052	-841
407.130	4007
407.208	5471
407.285	1239
407.363	-713
407.441	-29
407.519	-325
407.596	-165
407.674	1671
407.752	4111
407.830	2686
407.907	1611
407.985	-445
408.063	893
408.141	170
408.218	751
408.296	-1078
408.373	-115
408.451	1244
408.529	390
408.606	-596
408.684	570
408.762	784
408.839	706
408.917	152
408.994	1181
409.072	144
409.149	1479
409.227	4744
409.304	6663
409.382	6856
409.459	8237
409.537	11899
409.614	8477
409.692	5890
409.769	6314
409.846	12495
409.924	14049
410.001	6047
410.079	4060
410.156	3119
410.233	1681
410.311	421
410.388	1283
410.465	1416
410.543	1095
410.620	1660
410.697	1816
410.775	574
410.852	1220
410.929	2575
411.006	2406
411.083	951
411.161	1574
411.238	1690
411.315	1730
411.392	109
411.469	906
411.547	268
411.624	-1030
411.701	-55
411.778	408
411.855	-54
411.932	-631
412.009	-161
412.086	393
412.163	865
412.240	-247
412.317	343
412.394	-487
412.471	523
412.548	-123
412.625	-343
412.702	-27
412.779	1127
412.856	414
412.933	-472
413.010	146
413.087	293
413.164	49
413.241	1556
413.318	-412
413.395	821
413.471	129
413.548	302
413.625	683
413.702	-665
413.779	276
413.855	88
413.932	-809
414.009	-778
414.086	47
414.162	-236
414.239	35
414.316	1706
414.393	3439
414.469	-616
414.546	-312
414.623	-37
414.699	-14
414.776	-543
414.853	-332
414.929	238
415.006	-616
415.082	-866
415.159	78
415.236	178
415.312	-97
415.389	-942
415.465	-729
415.542	-3
415.618	-307
415.695	134
415.771	-834
415.848	-205
415.924	190
416.000	-599
416.077	-312
416.153	-631
416.230	-187
416.306	-22
416.383	23
416.459	491
416.535	-616
416.612	-498
416.688	18
416.764	-814
416.841	-103
416.917	748
416.993	244
417.069	112
417.146	-566
417.222	338
417.298	176
417.374	-321
417.451	484
417.527	-320
417.603	-155
417.679	-623
417.755	-126
417.831	-761
417.908	-105
417.984	-360
418.060	-1089
418.136	418
418.212	-115
418.288	173
418.364	-10
418.440	-588
418.516	228
418.592	38
418.668	1171
418.744	463
418.820	625
418.896	258
418.972	-397
419.048	-43
419.124	1573
419.200	-1048
419.276	25
419.352	-953
419.428	901
419.504	-516
419.579	-103
419.655	-56
419.731	-231
419.807	37
419.883	236
419.959	666
420.034	421
420.110	923
420.186	956
420.262	1810
420.337	390
420.413	161
420.489	1160
420.565	1043
420.640	937
420.716	1510
420.792	-238
420.867	1303
420.943	1061
421.019	1424
421.094	1470
421.170	1447
421.245	1205
421.321	1861
421.397	2146
421.472	3442
421.548	3633
421.623	4289
421.699	4565
421.774	4833
421.850	4021
421.925	6625
422.001	7596
422.076	9803
422.152	11985
422.227	16985
422.302	24241
422.378	38064
422.453	66944
422.529	131150
422.604	215726
422.679	218854
422.755	193740
422.830	121140
422.905	65280
422.981	39231
423.056	26962
423.131	19419
423.207	14615
423.282	10855
423.357	9500
423.432	7676
423.508	6869
423.583	4642
423.658	4602
423.733	3806
423.808	3073
423.883	4209
423.959	4213
424.034	4981
424.109	5700
424.184	2409
424.259	2217
424.334	1742
424.409	1011
424.484	1948
424.559	1807
424.634	421
424.709	1023
424.784	1325
424.859	1067
424.934	399
425.009	1906
425.084	2295
425.159	1043
425.234	876
425.309	147
425.384	1305
425.459	1004
425.534	647
425.609	-494
425.683	366
425.758	-96
425.833	676
425.908	817
425.983	778
426.058	1921
426.132	665
426.207	250
426.282	818
426.357	-346
426.431	-118
426.506	1053
426.581	-218
426.655	786
426.730	8
426.805	-299
426.879	410
426.954	67
427.029	438
427.103	2811
427.178	4974
427.253	2374
427.327	-154
427.402	132
427.476	1246
427.551	358
427.625	-506
427.700	334
427.774	-520
427.849	1031
427.923	-345
427.998	-432
428.072	-54
428.147	4496
428.221	23516
428.296	70575
428.370	31933
428.444	3484
428.519	808
428.593	1366
428.667	1139
428.742	3010
428.816	8889
428.890	46059
428.965	60719
429.039	13145
429.113	2754
429.188	489
429.262	154
429.336	639
429.410	618
429.485	1176
429.559	1167
429.633	1329
429.707	1423
429.781	7958
429.855	43386
429.930	54380
430.004	14475
430.078	11675
430.152	29303
430.226	95190
430.300	79401
430.374	12779
430.448	3633
430.522	4685
430.596	9347
430.670	14867
430.744	55973
430.818	53841
430.892	7577
430.966	808
431.040	505
431.114	-803
431.188	-394
431.262	-418
431.336	-597
431.410	806
431.484	309
431.557	1050
431.631	491
431.705	2824
431.779	18731
431.853	68760
431.927	38126
432.000	4007
432.074	1179
432.148	539
432.222	-676
432.295	-459
432.369	-248
432.443	-277
432.516	2656
432.590	5500
432.664	1656
432.737	-747
432.811	-1608
432.885	-1110
432.958	-414
433.032	-745
433.106	-1415
433.179	-298
433.253	-973
433.326	-1050
433.400	-1067
433.473	-928
433.547	-948
433.620	295
433.694	-877
433.767	-796
433.841	-1523
433.914	-977
433.988	-561
434.061	-862
434.134	-1011
434.208	-1447
434.281	-1615
434.355	-944
434.428	-80
434.501	-1087
434.575	-1171
434.648	-1544
434.721	-939
434.795	-753
434.868	-894
434.941	-1260
435.014	-1167
435.088	-102
435.161	1042
435.234	2149
435.307	1325
435.381	2101
435.454	2422
435.527	6201
435.600	5983
435.673	2858
435.746	1774
435.819	1137
435.892	-49
435.966	156
436.039	-625
436.112	-133
436.185	-145
436.258	-445
436.331	-696
436.404	-901
436.477	-1006
436.550	-730
436.623	-800
436.696	-429
436.769	-370
436.842	-653
436.915	-445
436.987	-796
437.060	-333
437.133	-843
437.206	-1740
437.279	-331
437.352	-451
437.425	-1007
437.498	-1181
437.570	-937
437.643	-1842
437.716	-969
437.789	-633
437.861	-375
437.934	-129
438.007	-833
438.080	-1455
438.152	31
438.225	481
438.298	3644
438.370	11660
438.443	4090
438.516	-480
438.588	-791
438.661	-772
438.734	27
438.806	-1026
438.879	-97
438.951	-264
439.024	182
439.096	-1034
439.169	-223
439.241	-631
439.314	-447
439.386	-580
439.459	-294
439.531	-934
439.604	-613
439.676	-212
439.749	-745
439.821	-838
439.893	-398
439.966	-1023
440.038	-1188
440.110	-398
440.183	-1176
440.255	-854
440.327	-426
440.400	767
440.472	5230
440.544	2601
440.617	177
440.689	177
440.761	-30
440.833	753
440.905	68
440.978	-929
441.050	238
441.122	103
441.194	-796
441.266	-668
441.338	-762
441.411	-791
441.483	1181
441.555	1258
441.627	551
441.699	26
441.771	-312
441.843	-888
441.915	-335
441.987	-535
442.059	111
442.131	983
442.203	907
442.275	1267
442.347	4112
442.419	9174
442.491	52538
442.563	103945
442.635	35996
442.706	7261
442.778	2926
442.850	1478
442.922	434
442.994	695
443.066	1202
443.137	2108
443.209	2643
443.281	4779
443.353	14187
443.425	61057
443.496	176112
443.568	165207
443.640	59434
443.711	11790
443.783	3341
443.855	1696
443.926	1864
443.998	1131
444.070	1110
444.141	915
444.213	185
444.285	663
444.356	548
444.428	312
444.499	258
444.571	233
444.642	531
444.714	118
444.785	1257
444.857	685
444.928	1516
445.000	2444
445.071	3646
445.143	3466
445.214	4962
445.285	10968
445.357	31151
445.428	119246
445.500	210673
445.571	150242
445.642	91211
445.714	27319
445.785	9881
445.856	3009
445.928	1638
445.999	715
446.070	458
446.141	-157
446.213	918
446.284	166
446.355	63
446.426	-200
446.497	-265
446.569	-543
446.640	54
446.711	-146
446.782	-311
446.853	-2
446.924	216
446.995	-558
447.066	-20
447.138	-61
447.209	-146
447.280	-1692
447.351	-718
447.422	-754
447.493	-632
447.564	-224
447.635	-1458
447.706	-629
447.777	-368
447.847	-90
447.918	-1501
447.989	-178
448.060	-348
448.131	650
448.202	51
448.273	-915
448.344	-153
448.414	-548
448.485	-377
448.556	-167
448.627	-759
448.698	499
448.768	-1395
448.839	-874
448.910	-456
448.981	-444
449.051	-375
449.122	-290
449.193	-867
449.263	-113
449.334	-529
449.405	-382
449.475	-361
449.546	-462
449.616	427
449.687	223
449.758	474
449.828	-1045
449.899	-428
449.969	-701
450.040	-397
450.110	-918
450.181	-432
450.251	-982
450.322	-297
450.392	-1267
450.463	-774
450.533	-1083
450.604	-640
450.674	-198
450.744	-168
450.815	-22
450.885	-508
450.955	475
451.026	-349
451.096	-727
451.166	-320
451.237	332
451.307	1985
451.377	376
451.447	-660
451.518	-283
451.588	-507
451.658	-914
451.728	-698
451.799	1303
451.869	2584
451.939	189
452.009	-597
452.079	-1112
452.149	-272
452.219	-286
452.289	2192
452.360	2240
452.430	289
452.500	-117
452.570	1736
452.640	5911
452.710	15932
452.780	14713
452.850	6455
452.920	2572
452.990	1255
453.060	-86
453.129	2
453.199	598
453.269	4258
453.339	7452
453.409	10675
453.479	10213
453.549	14747
453.619	14654
453.688	6230
453.758	687
453.828	-473
453.898	-218
453.968	-936
454.037	-939
454.087	-508
454.107	-342
454.168	-766
454.177	-835
454.247	-892
454.249	-872
454.316	-666
454.330	-646
454.386	-588
454.411	-286
454.456	84
454.492	953
454.525	1748
454.574	571
454.595	52
454.655	-229
454.665	-274
454.734	203
454.736	208
454.804	-320
454.817	133
454.873	1808
454.898	1830
454.943	1827
454.979	760
455.013	-248
455.060	-201
455.082	-93
455.141	47
455.152	57
455.221	2472
455.222	2506
455.291	3453
455.303	3811
455.360	4814
455.384	6529
455.430	8478
455.465	6274
455.499	4482
455.546	3258
455.569	2729
455.627	2249
455.638	2158
455.707	-417
455.708	-409
455.777	-296
455.789	-279
455.846	-217
455.869	-138
455.916	-75
455.950	-129
455.985	-185
456.031	-380
456.054	-439
456.112	-264
456.124	-224
456.193	119
456.193	109
456.262	-13
456.274	209
456.332	1073
456.355	533
456.401	-445
456.436	-366
456.470	-337
456.516	-9
456.540	185
456.597	79
456.609	39
456.678	519
456.678	513
456.747	-387
456.759	-407
456.817	-277
456.840	-137
456.886	-46
456.920	111
456.955	240
457.001	276
457.024	400
457.082	189
457.093	112
457.162	1144
457.163	1155
457.232	507
457.243	363
457.301	-227
457.324	-281
457.370	-181
457.405	582
457.439	1207
457.485	785
457.508	676
457.566	851
457.577	921
457.646	2437
457.647	2453
457.715	5574
457.727	6669
457.784	13258
457.808	18696
457.853	25938
457.889	29279
457.922	29053
457.969	17726
457.991	16530
458.050	21305
458.060	22193
458.129	42776
458.130	43246
458.198	44131
458.211	39086
458.267	19325
458.292	12955
458.336	6919
458.372	6633
458.405	9882
458.453	15530
458.474	20015
458.533	40335
458.543	42076
458.611	72205
458.614	72210
458.680	41591
458.694	32676
458.749	13245
458.775	8988
458.818	4308
458.855	3452
458.887	3073
458.936	2143
458.955	1631
459.016	947
459.024	988
459.093	1731
459.097	1751
459.162	1139
459.177	1030
459.230	887
459.257	911
459.299	1109
459.338	1443
459.368	1561
459.418	1457
459.437	1345
459.499	1073
459.505	1105
459.574	1136
459.579	1166
459.643	763
459.659	642
459.711	655
459.740	744
459.780	777
459.820	843
459.849	977
459.900	1093
459.917	1120
459.981	1132
459.986	1091
460.054	687
460.061	657
460.123	913
460.141	1067
460.191	1322
460.222	1268
460.260	1035
460.302	744
460.328	845
460.382	1529
460.397	1544
460.462	725
460.465	707
460.534	1897
460.543	1825
460.602	3228
460.623	4271
460.671	7047
460.703	9800
460.739	9876
460.783	7674
460.808	6240
460.864	1797
460.876	1400
460.944	586
460.945	577
461.013	767
461.024	782
461.081	1203
461.104	1522
461.150	1557
461.184	1124
461.218	1110
461.264	1489
461.286	1335
461.345	904
461.355	910
461.423	1097
461.425	1082
461.491	662
461.505	803
461.559	1881
461.585	2073
461.628	3262
461.665	5017
461.696	5369
461.745	5393
461.764	4732
461.825	1667
461.832	1604
461.901	1312
461.905	1328
461.969	1163
461.985	1162
462.037	1995
462.065	2314
462.105	1735
462.145	1392
462.173	2094
462.225	2975
462.241	2968
462.305	3510
462.310	3431
462.378	2034
462.385	1827
462.446	1719
462.465	1650
462.514	1043
462.545	937
462.582	1072
462.625	984
462.650	1090
462.705	1643
462.718	1537
462.785	563
462.786	574
462.854	1385
462.865	1568
462.922	2562
462.945	2855
462.990	2137
463.025	1398
463.058	1305
463.104	1442
463.126	1535
463.184	1731
463.194	1770
463.262	1686
463.264	1701
463.330	1629
463.344	1472
463.398	1684
463.424	1983
463.466	1599
463.504	1311
463.533	1419
463.583	1387
463.601	1433
463.663	1518
463.669	1488
463.737	1485
463.743	1446
463.805	3184
463.823	3813
463.873	4886
463.903	5536
463.940	5606
463.982	5584
464.008	4716
464.062	2516
464.076	2361
464.142	1724
464.144	1722
464.211	1362
464.221	1390
464.279	1055
464.301	877
464.347	1341
464.381	1678
464.414	1763
464.461	1915
464.482	1961
464.540	2088
464.550	2033
464.617	1370
464.620	1351
464.685	1322
464.699	1314
464.753	1816
464.779	2044
464.820	2551
464.859	3088
464.888	2499
464.938	1434
464.956	1790
465.018	3065
465.023	3020
465.091	2199
465.098	2125
465.158	2608
465.177	2771
465.226	2579
465.257	2407
465.293	2152
465.336	1848
465.361	1940
465.416	2250
465.428	2481
465.495	3642
465.496	3658
465.563	5119
465.575	5442
465.631	6607
465.654	7051
465.698	4699
465.734	2608
465.765	2390
465.813	1964
465.833	2032
465.893	2501
465.900	2474
465.968	2090
465.972	2060
466.035	2022
466.052	2028
466.102	1901
466.131	1831
466.170	1866
466.210	1762
466.237	1758
466.290	1897
466.304	2007
466.369	2396
466.372	2406
466.439	2655
466.449	2678
466.506	2437
466.528	2330
466.573	3554
466.607	4477
466.641	5648
466.687	7307
466.708	8041
466.766	10037
466.775	9281
466.842	3430
466.845	3147
466.909	2752
466.925	2671
466.977	2332
467.004	2170
467.044	2895
467.083	3605
467.111	3632
467.163	3658
467.178	3631
467.242	3516
467.245	3508
467.312	3283
467.321	3252
467.379	2770
467.400	2590
467.446	3276
467.480	3771
467.559	3540
467.638	3069
467.717	2823
467.796	3801
467.875	3755
467.955	3562
468.034	5179
468.113	10055
468.192	14174
468.271	6735
468.350	7435
468.429	11487
468.508	12740
468.588	7467
468.667	4636
468.746	4550
468.825	3393
468.904	3139
468.983	3448
469.062	4057
469.141	5655
469.220	3167
469.299	3066
469.378	2656
469.456	3738
469.535	3967
469.614	3546
469.693	3485
469.772	5044
469.851	5678
469.930	4692
470.009	4538
470.088	4140
470.166	6155
470.245	12145
470.324	15578
470.403	8101
470.482	4130
470.560	3842
470.639	3193
470.718	3988
470.797	3482
470.875	3412
470.954	3391
471.033	4061
471.111	2647
471.190	2957
471.269	2775
471.347	2392
471.426	2977
471.505	2715
471.583	3254
471.662	3323
471.740	3046
471.819	2608
471.898	2639
471.976	3207
472.055	2022
472.133	2250
472.212	4793
472.290	3696
472.369	2266
472.447	2952
472.526	2414
472.604	2921
472.683	3293
472.761	3339
472.839	2805
472.918	3160
472.996	2838
473.075	3441
473.153	3554
473.231	2714
473.310	3100
473.388	3010
473.466	3097
473.545	2936
473.623	3030
473.701	2335
473.780	3856
473.858	2063
473.936	4400
474.014	1834
474.093	2438
474.171	3343
474.249	4782
474.327	4513
474.405	1915
474.484	2751
474.562	2446
474.640	2195
474.718	3115
474.796	2358
474.874	3116
474.952	2796
475.030	1445
475.108	2520
475.187	2743
475.265	2706
475.343	3796
475.421	3608
475.499	2468
475.577	2505
475.655	3313
475.733	5296
475.811	8021
475.889	7185
475.966	5358
476.044	2767
476.122	3548
476.200	3621
476.278	1807
476.356	2208
476.434	3162
476.512	3438
476.590	3219
476.667	3865
476.745	2143
476.823	2808
476.901	2633
476.979	2287
477.056	2354
477.134	3155
477.212	2274
477.290	2655
477.367	2589
477.445	2084
477.523	1974
477.601	2448
477.678	2502
477.756	3524
477.834	3137
477.911	2359
477.989	2644
478.066	2178
478.144	1999
478.222	2763
478.299	3795
478.377	3205
478.454	2361
478.532	1521
478.609	2760
478.687	2762
478.764	1468
478.842	2412
478.919	2381
478.997	2605
479.074	2266
479.152	2756
479.229	3547
479.307	2227
479.384	2396
479.461	2034
479.539	2685
479.616	2057
479.694	2108
479.771	2979
479.848	2160
479.926	1885
480.003	4017
480.080	2606
480.157	1624
480.235	1820
480.312	2315
480.389	1611
480.467	3205
480.544	4070
480.621	3371
480.698	2633
480.775	2752
480.853	3013
480.930	2912
481.007	2299
481.084	1644
481.161	1821
481.238	3096
481.315	2217
481.392	1614
481.470	2056
481.547	2509
481.624	2095
481.701	2200
481.778	2290
481.855	3295
481.932	3677
482.009	5483
482.086	3683
482.163	3489
482.240	4683
482.317	5850
482.393	4568
482.470	3670
482.547	3258
482.624	2121
482.701	3545
482.778	1915
482.855	2021
482.932	1391
483.009	1971
483.085	4101
483.162	3372
483.239	3996
483.316	2725
483.393	3862
483.469	3167
483.546	3698
483.623	2965
483.699	2245
483.776	2370
483.853	2516
483.930	3336
484.006	6537
484.083	12283
484.160	7461
484.236	10610
484.313	7989
484.389	6119
484.466	6547
484.543	6672
484.619	7568
484.696	10574
484.772	6854
484.849	6615
484.925	6181
485.002	5508
485.078	5618
485.155	5669
485.231	4859
485.308	4027
485.384	4274
485.461	5564
485.537	7307
485.614	9151
485.690	4775
485.766	4477
485.843	3811
485.919	5021
485.995	5144
486.072	4062
486.148	3785
486.224	3829
486.301	4141
486.377	4277
486.453	4062
486.530	5237
486.606	6375
486.682	6978
486.758	8149
486.835	8228
486.911	6097
486.987	10047
487.063	8249
487.139	7737
487.215	8130
487.292	7641
487.368	7995
487.444	9102
487.520	12858
487.596	16810
487.672	37707
487.748	124885
487.824	191934
487.900	55047
487.976	13869
488.052	8814
488.128	7383
488.204	5908
488.280	5116
488.356	5890
488.432	9062
488.508	12723
488.584	5129
488.660	4546
488.736	4139
488.812	2506
488.888	4393
488.964	4646
489.039	5960
489.115	9068
489.191	5537
489.267	4107
489.343	3511
489.418	3577
489.494	3880
489.570	1876
489.646	4866
489.722	4116
489.797	3958
489.873	5217
489.949	9856
490.024	7689
490.100	3954
490.176	3705
490.251	2723
490.327	4164
490.403	3050
490.478	3327
490.554	3385
490.629	3635
490.705	2202
490.781	4145
490.856	2593
490.932	3847
491.007	3129
491.083	3034
491.158	3035
491.234	3887
491.309	7669
491.385	7082
491.460	1880
491.536	3513
491.611	3086
491.686	2891
491.762	2971
491.837	4385
491.913	6830
491.988	8122
492.063	7819
492.139	4748
492.214	3509
492.289	3133
492.365	2441
492.440	2730
492.515	2794
492.590	3033
492.666	2646
492.741	4349
492.816	4984
492.891	2646
492.967	3465
493.042	2983
493.117	3041
493.192	3548
493.267	6986
493.342	25165
493.418	33152
493.493	4891
493.568	2723
493.643	2299
493.718	2770
493.793	3706
493.868	4121
493.943	2142
494.018	3279
494.093	2765
494.168	2955
494.243	2058
494.318	2690
494.393	2945
494.468	2097
494.543	2942
494.618	1756
494.693	2437
494.768	1815
494.842	1651
494.917	2705
494.992	1896
495.067	2256
495.142	2577
495.217	1962
495.292	2495
495.366	2667
495.441	2795
495.516	3468
495.591	3180
495.665	6741
495.740	14014
495.815	5209
495.890	2765
495.964	853
496.039	4584
496.114	3191
496.188	3346
496.263	2589
496.338	2926
496.412	2543
496.487	2957
496.561	3794
496.636	2257
496.710	3295
496.785	2958
496.860	2698
496.934	2395
497.009	2772
497.083	2685
497.158	3589
497.232	3765
497.307	4168
497.381	3920
497.455	3947
497.530	5676
497.604	2839
497.679	3941
497.753	5284
497.827	4699
497.902	4411
497.976	7189
498.050	17407
498.125	74730
498.199	65684
498.273	6818
498.348	3742
498.422	4466
498.496	4113
498.570	4228
498.645	2832
498.719	1961
498.793	4622
498.867	6747
498.941	7371
499.016	28243
499.090	76322
499.164	22216
499.238	4327
499.312	3298
499.386	3336
499.460	3564
499.534	5066
499.609	6023
499.683	6152
499.757	5253
499.831	12121
499.905	48645
499.979	40978
500.053	5924
500.127	4929
500.201	2958
500.275	3230
500.349	3846
500.422	3806
500.496	5429
500.570	8028
500.644	26049
500.718	47111
500.792	8777
500.866	3870
500.940	3830
501.013	3642
501.087	3631
501.161	3938
501.235	4789
501.309	15130
501.382	38793
501.456	30598
501.530	7311
501.603	11713
501.677	4221
501.751	1536
501.825	4824
501.898	4952
501.972	14647
502.046	8110
502.119	1401
502.193	6576
502.266	15131
502.340	6740
502.413	7431
502.487	12809
502.561	6245
502.634	2621
502.708	2411
502.781	1870
502.855	2861
502.928	1443
503.002	2339
503.075	1429
503.149	2289
503.222	3158
503.295	1885
503.369	2975
503.442	3669
503.516	11119
503.589	27723
503.662	16272
503.736	7463
503.809	15067
503.882	13451
503.956	22439
504.029	28749
504.102	65560
504.175	99169
504.249	31840
504.322	10468
504.395	6555
504.468	4250
504.542	2712
504.615	1581
504.688	2378
504.761	76
504.834	2959
504.907	1372
504.980	2270
505.053	1185
505.127	-1140
505.200	4248
505.273	1739
505.346	2304
505.419	60
505.492	2157
505.565	832
505.638	2196
505.711	-195
505.784	498
505.857	977
505.930	1848
506.003	-112
506.076	2710
506.149	1026
506.221	1056
506.294	3764
506.367	4446
506.440	19322
506.513	9198
506.586	1530
506.659	1444
506.731	1604
506.804	520
506.877	320
506.950	950
507.022	2190
507.095	598
507.168	1722
507.241	2044
507.313	1126
507.386	-522
507.459	1923
507.531	787
507.604	800
507.677	1047
507.749	-836
507.822	2672
507.894	2154
507.967	4124
508.040	1276
508.112	2618
508.185	1904
508.257	670
508.330	4110
508.402	1452
508.475	1100
508.547	1818
508.620	950
508.692	2744
508.765	1408
508.837	2138
508.909	2284
508.982	1334
509.054	1851
509.127	497
509.199	714
509.271	174
509.344	1369
509.416	1802
509.488	1123
509.560	1752
509.633	1710
509.705	1208
509.777	850
509.849	2498
509.922	488
509.994	970
510.066	2024
510.138	444
510.210	5942
510.283	2794
510.355	3008
510.427	2792
510.499	2164
510.571	2282
510.643	1595
510.715	3275
510.787	492
510.859	2681
510.931	2046
511.003	2374
511.076	3429
511.148	857
511.219	866
511.291	3713
511.363	4090
511.435	2174
511.507	638
511.579	1868
511.651	2920
511.723	1742
511.795	496
511.867	1598
511.939	1474
512.010	3098
512.082	3572
512.154	134
512.226	1329
512.298	3291
512.369	3378
512.441	2792
512.513	2271
512.585	1158
512.656	2976
512.728	1151
512.800	1452
512.871	2888
512.943	2215
513.015	844
513.086	2223
513.158	1724
513.230	1234
513.301	1894
513.373	2412
513.444	1368
513.516	1410
513.588	1198
513.659	2658
513.731	2074
513.802	-171
513.874	3891
513.945	3524
514.016	975
514.088	2084
514.159	638
514.231	2286
514.302	1928
514.374	2916
514.445	694
514.516	6014
514.588	2356
514.659	1659
514.730	2973
514.802	3606
514.873	-153
514.944	4316
515.016	2728
515.087	1838
515.158	2592
515.229	5250
515.301	1244
515.372	2677
515.443	1307
515.514	1584
515.585	1024
515.656	1911
515.728	3164
515.799	1249
515.870	2176
515.941	2590
516.012	2336
516.083	4388
516.154	3188
516.225	5151
516.296	7153
516.367	6240
516.438	7982
516.509	11439
516.580	17084
516.651	65551
516.722	233730
516.793	80786
516.864	16126
516.935	15863
517.006	20405
517.077	26036
517.148	58481
517.219	311508
517.289	452102
517.360	67805
517.431	17489
517.502	7548
517.573	7389
517.643	6298
517.714	7028
517.785	7831
517.856	8047
517.926	13948
517.997	17661
518.068	22274
518.138	33290
518.209	47723
518.280	196559
518.350	723146
518.421	245891
518.492	30535
518.562	16919
518.633	17322
518.703	18844
518.774	43167
518.845	125682
518.915	120882
518.986	29053
519.056	12326
519.127	9932
519.197	10787
519.268	21684
519.338	13660
519.408	4539
519.479	3488
519.549	2016
519.620	4255
519.690	2620
519.760	2416
519.831	2325
519.901	2194
519.971	2736
520.042	1282
520.112	1747
520.182	3253
520.253	2821
520.323	1048
520.393	1456
520.463	5350
520.534	550
520.604	6130
520.674	3330
520.744	2528
520.814	4502
520.885	4860
520.955	6670
521.025	25860
521.095	8416
521.165	2932
521.235	1286
521.305	728
521.375	2198
521.445	2244
521.515	260
521.585	2097
521.655	421
521.725	3175
521.795	2503
521.865	-717
521.935	4273
522.005	2067
522.075	1098
522.145	2362
522.215	696
522.285	3208
522.355	2540
522.424	5536
522.494	3312
522.564	2124
522.634	2286
522.704	6800
522.774	1796
522.843	2440
522.913	1614
522.983	1490
523.053	370
523.122	2313
523.192	915
523.262	2863
523.331	2632
523.401	2222
523.471	2056
523.540	1774
523.610	407
523.680	2059
523.749	1407
523.819	2804
523.888	1052
523.958	1402
524.027	1074
524.097	1960
524.166	2072
524.236	706
524.305	3422
524.375	176
524.444	570
524.514	4040
524.583	772
524.653	635
524.722	3347
524.791	425
524.861	2605
524.930	729
524.999	811
525.069	2706
525.138	2273
525.207	2199
525.277	2037
525.346	1807
525.415	3421
525.484	3629
525.554	2496
525.623	4678
525.692	4946
525.761	7396
525.830	9280
525.900	13672
525.969	20938
526.038	37476
526.107	81446
526.176	253881
526.245	195531
526.314	53131
526.383	122266
526.452	164458
526.522	270586
526.591	243863
526.660	35372
526.729	22160
526.797	25489
526.867	33088
526.935	109576
527.004	450628
527.073	266649
527.142	26479
527.211	10067
527.280	6674
527.349	4712
527.418	2060
527.487	3600
527.555	1164
527.624	3156
527.693	829
527.762	3273
527.831	987
527.899	2627
527.968	951
528.037	419
528.106	2397
528.174	1952
528.243	2002
528.312	2402
528.380	2738
528.449	1242
528.518	2987
528.586	-61
528.655	1655
528.723	1219
528.792	1087
528.861	325
528.929	35
528.998	2424
529.066	1120
529.135	2304
529.203	1949
529.272	507
529.340	2933
529.409	3794
529.477	1048
529.545	1188
529.614	4904
529.682	3211
529.751	4339
529.819	6743
529.887	3968
529.956	3438
530.024	4311
530.092	2419
530.161	3555
530.229	3900
530.297	2754
530.365	4982
530.434	4136
530.502	3751
530.570	4027
530.638	1701
530.707	3365
530.775	4337
530.843	2329
530.911	3845
530.979	3243
531.047	3453
531.115	3428
531.183	3005
531.252	3567
531.320	2589
531.388	1993
531.456	3841
531.524	1816
531.592	3409
531.660	6073
531.728	2987
531.796	2983
531.864	2787
531.932	4148
532.000	3179
532.067	3069
532.135	4397
532.203	4952
532.271	3732
532.339	6376
532.407	6564
532.475	5932
532.542	4610
532.610	5639
532.678	3446
532.746	9578
532.814	14731
532.881	6554
532.949	5218
533.017	4893
533.084	4602
533.152	4810
533.220	3563
533.287	2798
533.355	4168
533.423	4913
533.490	4616
533.558	4018
533.625	3659
533.693	4015
533.761	4455
533.828	4223
533.896	3536
533.963	6228
534.031	6648
534.098	7391
534.166	5298
534.233	5284
534.300	6674
534.368	5810
534.435	5682
534.503	6744
534.570	8048
534.637	8028
534.705	9434
534.772	11748
534.840	20566
534.907	112226
534.974	138030
535.041	16264
535.109	6872
535.176	4343
535.243	4683
535.310	3766
535.378	3107
535.445	4375
535.512	3871
535.579	4263
535.646	2612
535.714	4518
535.781	4323
535.848	3952
535.915	4386
535.982	4344
536.049	4774
536.116	5554
536.183	3146
536.250	3882
536.317	3556
536.384	4264
536.451	3882
536.518	5172
536.585	1804
536.652	4933
536.719	5213
536.786	2394
536.853	3654
536.920	5286
536.987	3861
537.053	3038
537.120	8603
537.187	7919
537.254	3296
537.321	3940
537.388	5010
537.454	2555
537.521	3958
537.588	3078
537.654	3860
537.721	3982
537.788	4468
537.855	3268
537.921	3680
537.988	2910
538.055	3672
538.121	2635
538.188	3487
538.254	2578
538.321	4067
538.388	3803
538.454	3935
538.521	4604
538.587	3203
538.654	3580
538.720	3138
538.787	4693
538.853	3933
538.920	3593
538.986	2728
539.053	2416
539.119	3857
539.185	3248
539.252	5292
539.318	3598
539.385	5506
539.451	2398
539.517	3744
539.583	4869
539.650	4803
539.716	6400
539.782	3046
539.849	3152
539.915	3959
539.981	2929
540.047	3654
540.114	3563
540.180	4386
540.246	3172
540.312	4175
540.378	4755
540.444	5115
540.510	5137
540.576	7352
540.643	3798
540.709	2956
540.775	3627
540.841	3304
540.907	3882
540.973	5098
541.039	4975
541.105	3395
541.171	2980
541.237	3481
541.303	3295
541.369	4571
541.435	4451
541.500	5086
541.566	3212
541.632	2509
541.698	3952
541.764	4780
541.830	3471
541.896	2169
541.961	4542
542.027	2917
542.093	3723
542.159	4187
542.224	2401
542.290	4434
542.356	2892
542.421	4823
542.487	4473
542.553	2891
542.618	3892
542.684	3140
542.750	3148
542.815	3907
542.881	4434
542.947	6253
543.012	5821
543.078	4082
543.143	3182
543.209	4058
543.274	2824
543.340	3457
543.405	3982
543.471	4234
543.536	3582
543.602	3991
543.667	1762
543.732	4833
543.798	1949
543.863	3814
543.928	3569
543.994	2861
544.059	4145
544.124	3143
544.190	2973
544.255	3603
544.320	3658
544.386	3569
544.451	5694
544.516	4036
544.581	4421
544.646	5071
544.712	7212
544.777	3883
544.842	4492
544.907	4854
544.972	4087
545.037	3797
545.102	4542
545.168	4921
545.233	5866
545.298	6196
545.363	5384
545.428	4624
545.493	6413
545.558	6172
545.623	6066
545.688	5460
545.753	5653
545.818	5778
545.883	6469
545.947	5940
546.012	6480
546.077	6203
546.142	7770
546.207	6486
546.272	7579
546.337	7872
546.401	8480
546.466	9087
546.531	8278
546.596	9122
546.661	10287
546.725	10852
546.790	11031
546.855	12476
546.919	11385
546.984	14484
547.049	16246
547.113	18555
547.178	19699
547.243	24158
547.307	27169
547.372	30701
547.436	29460
547.501	31206
547.565	33732
547.630	31860
547.695	29856
547.759	30566
547.823	31990
547.888	30664
547.952	32660
548.017	33996
548.081	34662
548.146	34466
548.210	35557
548.274	37029
548.339	37677
548.403	33923
548.468	32714
548.532	30648
548.596	31927
548.660	32236
548.725	35954
548.789	38170
548.853	37538
548.917	36003
548.982	35689
549.046	33564
549.110	28842
549.174	29258
549.238	33838
549.303	37280
549.367	40192
549.431	36772
549.495	34948
549.559	34864
549.623	41073
549.687	43839
549.751	43787
549.815	51792
549.879	52963
549.943	49617
550.007	51488
550.071	52772
550.135	46866
550.199	43293
550.263	43942
550.327	41563
550.391	42491
550.455	47552
550.519	49885
550.582	52195
550.646	60602
550.710	62032
550.774	60888
550.838	61846
550.901	62778
550.965	66902
551.029	69769
551.093	75085
551.156	82511
551.220	98731
551.284	117570
551.347	86768
551.411	71794
551.475	67871
551.538	66755
551.602	61039
551.666	57450
551.729	53067
551.793	52256
551.856	51550
551.920	51698
551.983	51550
552.047	48326
552.110	50143
552.174	50473
552.237	52654
552.301	49102
552.364	46226
552.428	45923
552.491	47319
552.554	47207
552.618	48862
552.681	50161
552.745	49141
552.808	59839
552.871	70207
552.934	55169
552.998	49517
553.061	47999
553.124	45776
553.187	45109
553.251	46208
553.314	47961
553.377	47672
553.440	51862
553.503	65031
553.567	69863
553.630	52436
553.693	50857
553.756	49839
553.819	49833
553.882	46689
553.945	47319
554.008	46985
554.071	46950
554.134	48062
554.197	45343
554.260	44464
554.323	45388
554.386	45698
554.449	47354
554.512	47545
554.575	45406
554.638	45117
554.701	45095
554.764	44855
554.827	42902
554.889	41892
554.952	39593
555.015	37940
555.078	40024
555.141	38994
555.203	38793
555.266	38512
555.329	37272
555.391	36310
555.454	36745
555.517	35919
555.580	33644
555.642	32634
555.705	32214
555.768	32763
555.830	32236
555.893	29177
555.955	29402
556.018	28735
556.080	28506
556.143	29899
556.206	28109
556.268	28405
556.330	28650
556.393	26736
556.455	26770
556.518	25229
556.580	26377
556.643	24852
556.705	24486
556.767	22093
556.830	22509
556.892	22937
556.955	21070
557.017	22373
557.079	21759
557.142	20945
557.204	20966
557.266	22083
557.328	19751
557.391	17821
557.453	18623
557.515	19445
557.577	19338
557.639	19299
557.701	18923
557.764	20503
557.826	21441
557.888	23185
557.950	23769
558.012	25996
558.074	33709
558.136	80354
558.198	193533
558.260	64821
558.322	25425
558.384	26770
558.446	30158
558.508	34419
558.570	40029
558.632	46976
558.694	59202
558.756	95177
558.818	292200
558.880	652100
558.942	221979
559.003	210032
559.065	97662
559.127	40425
559.189	38618
559.251	43306
559.312	59702
559.374	148193
559.436	472418
559.498	217629
559.559	47513
559.621	38374
559.683	44123
559.744	70553
559.806	238769
559.868	339430
559.929	66321
559.991	42080
560.052	65265
560.114	192264
560.176	115524
560.237	108168
560.299	171364
560.360	35312
560.422	13836
560.483	10906
560.545	10382
560.606	10346
560.667	9699
560.729	8745
560.790	9850
560.852	8175
560.913	6830
560.974	7640
561.036	7580
561.097	7878
561.158	8371
561.220	8537
561.281	7328
561.342	7429
561.403	7645
561.465	7325
561.526	7992
561.587	9305
561.648	6504
561.709	5832
561.771	6444
561.832	6080
561.893	5950
561.954	6412
562.015	6345
562.076	6559
562.137	5642
562.198	5342
562.259	6257
562.320	5560
562.381	5909
562.442	6014
562.503	6179
562.564	5517
562.625	5444
562.686	4648
562.747	4974
562.808	5541
562.869	5039
562.930	6170
562.991	5827
563.051	4938
563.112	5461
563.173	5284
563.234	5588
563.294	5602
563.355	5329
563.416	4805
563.477	5328
563.537	4501
563.598	4634
563.659	5362
563.720	4683
563.780	4825
563.841	4909
563.901	5628
563.962	4394
564.023	5009
564.083	5103
564.144	5015
564.204	4705
564.265	5072
564.325	5810
564.386	7165
564.446	5797
564.507	4915
564.567	5166
564.628	4721
564.688	4927
564.749	4157
564.809	3986
564.869	5006
564.930	3727
564.990	5876
565.050	4178
565.111	4989
565.171	4789
565.231	4439
565.292	5285
565.352	3890
565.412	4869
565.472	4695
565.532	5532
565.593	4203
565.653	4175
565.713	4120
565.773	4433
565.833	5345
565.893	5793
565.953	4584
566.013	4948
566.074	4305
566.134	5509
566.194	5271
566.254	5814
566.314	4938
566.374	3826
566.434	4554
566.494	5355
566.554	3965
566.614	4656
566.673	4893
566.733	5642
566.793	4506
566.853	4816
566.913	4758
566.973	4598
567.033	5536
567.092	4582
567.152	4658
567.212	4617
567.272	4655
567.331	5373
567.391	4706
567.451	5767
567.511	6443
567.570	6291
567.630	5613
567.690	4829
567.749	4600
567.809	5005
567.868	5297
567.928	5698
567.988	4530
568.047	5399
568.107	4908
568.166	6385
568.226	5082
568.285	6084
568.345	6062
568.404	5558
568.464	6104
568.523	5007
568.582	5387
568.642	5069
568.701	5909
568.761	5644
568.820	6540
568.879	6371
568.939	6730
568.998	5910
569.057	5159
569.116	4966
569.176	5026
569.235	4128
569.294	4843
569.353	4986
569.413	4906
569.472	4695
569.531	5125
569.590	4480
569.649	5895
569.708	4594
569.767	5780
569.827	5731
569.886	4721
569.945	3645
570.004	4786
570.063	4971
570.122	6293
570.181	5916
570.240	5002
570.299	5880
570.358	5186
570.417	5864
570.475	5674
570.534	5819
570.593	5505
570.652	5380
570.711	5156
570.770	5800
570.829	5643
570.887	5508
570.946	5564
571.005	5853
571.064	7002
571.122	7376
571.181	6357
571.240	5245
571.299	4901
571.357	6032
571.416	5292
571.475	5540
571.533	6111
571.592	5703
571.650	6346
571.709	6302
571.768	6544
571.826	7407
571.885	6513
571.943	5676
572.002	5397
572.060	4893
572.119	6269
572.177	5386
572.236	6358
572.294	6208
572.352	6368
572.411	6008
572.469	5150
572.528	5625
572.586	5525
572.644	5927
572.703	5833
572.761	5475
572.819	5005
572.877	5103
572.936	5184
572.994	5671
573.052	4233
573.110	5455
573.169	5899
573.227	5830
573.285	6392
573.343	5534
573.401	5499
573.459	5589
573.517	5821
573.576	6579
573.634	6188
573.692	6256
573.750	5962
573.808	5163
573.866	4719
573.924	5823
573.982	4802
574.040	5594
574.098	5118
574.155	5256
574.213	4669
574.271	5420
574.329	5848
574.387	5495
574.445	4534
574.503	4593
574.560	5411
574.618	4223
574.676	4969
574.734	5161
574.792	5239
574.849	4756
574.907	3567
574.965	4135
575.022	3531
575.080	3709
575.138	4821
575.195	3221
575.253	4349
575.311	4321
575.368	5155
575.426	4332
575.483	5177
575.541	4930
575.598	4132
575.656	4624
575.713	4778
575.771	4869
575.828	4726
575.886	4713
575.943	4036
576.001	4152
576.058	3946
576.115	4615
576.173	4430
576.230	4298
576.287	4377
576.345	5078
576.402	5294
576.459	4976
576.517	4426
576.574	4798
576.631	5220
576.688	4059
576.746	4194
576.803	4705
576.860	3790
576.917	4545
576.974	3262
577.031	4999
577.089	4218
577.146	3721
577.203	4649
577.260	3970
577.317	4145
577.374	4255
577.431	4428
577.488	3986
577.545	3430
577.602	4594
577.659	3908
577.716	4421
577.773	4774
577.830	4122
577.886	4926
577.943	5007
578.000	4852
578.057	4747
578.114	5603
578.171	6591
578.227	8663
578.284	8605
578.341	6849
578.398	6041
578.454	5280
578.511	4722
578.568	5224
578.625	5014
578.681	4142
578.738	3711
578.794	4587
578.851	4340
578.908	4666
578.964	4643
579.021	5766
579.077	4946
579.134	4157
579.190	4137
579.247	5492
579.303	4037
579.360	5084
579.416	4743
579.473	4860
579.529	4724
579.586	4978
579.642	5054
579.698	5613
579.755	5473
579.811	5833
579.867	5858
579.924	5886
579.980	6849
580.036	7701
580.093	9134
580.149	14295
580.205	16148
580.261	11084
580.317	9252
580.374	8458
580.430	7235
580.486	6442
580.542	5530
580.598	7015
580.619	6880
580.654	6649
580.692	6176
580.710	5946
580.765	6194
580.767	6203
580.823	6439
580.838	6364
580.879	6172
580.911	6357
580.935	6506
580.984	6969
580.991	7032
581.047	6762
581.057	6790
581.103	6989
581.130	7364
581.159	7707
581.203	8493
581.215	8723
581.270	8601
581.276	8506
581.326	7526
581.349	7460
581.382	7424
581.422	7463
581.438	7445
581.494	6960
581.494	6955
581.550	6739
581.567	6695
581.606	6519
581.640	6481
581.661	6476
581.713	7070
581.717	7115
581.773	6731
581.786	6708
581.829	6630
581.859	7124
581.885	7569
581.932	7216
581.940	7162
581.996	8274
582.004	8238
582.052	7850
582.077	7717
582.107	7658
582.150	7970
582.163	8035
582.219	8334
582.223	8339
582.274	8548
582.296	8437
582.330	8137
582.368	7392
582.386	7159
582.441	8944
582.441	8944
582.497	9016
582.514	8916
582.552	9090
582.587	8930
582.608	8639
582.659	8389
582.663	8388
582.719	9236
582.732	9373
582.774	9705
582.805	9584
582.830	9633
582.877	10951
582.885	11152
582.941	11801
582.950	11916
582.996	12605
583.023	13709
583.052	14969
583.095	15022
583.107	15025
583.162	15997
583.168	16126
583.218	16576
583.240	15302
583.273	13532
583.313	12242
583.328	11834
583.384	11114
583.385	11084
583.439	10023
583.458	10213
583.494	10717
583.531	10480
583.549	10444
583.603	10109
583.605	10090
583.660	10604
583.676	10418
583.715	9960
583.748	10475
583.770	10803
583.820	10322
583.825	10286
583.881	10206
583.893	10187
583.936	10162
583.965	10024
583.991	9977
584.038	10565
584.046	10608
584.101	9665
584.110	9799
584.156	10889
584.183	10853
584.211	10582
584.255	10601
584.266	10695
584.321	11231
584.328	11274
584.376	11633
584.400	11683
584.431	11741
584.472	11571
584.486	11442
584.541	12236
584.545	12226
584.596	12262
584.617	12285
584.651	12623
584.689	13209
584.706	13279
584.761	14092
584.762	14083
584.816	13796
584.834	13885
584.871	14292
584.906	14786
584.926	15128
584.978	15963
584.980	15988
585.035	17014
585.051	17176
585.090	17928
585.123	19166
585.145	19858
585.195	21194
585.200	21451
585.254	25339
585.267	26268
585.309	29145
585.340	31634
585.364	33938
585.412	38285
585.419	39114
585.473	47610
585.484	49683
585.528	62845
585.556	76058
585.583	107101
585.628	176271
585.637	202216
585.692	412714
585.700	447264
585.747	542069
585.772	474837
585.801	307101
585.845	106794
585.856	85238
585.910	45372
585.917	41487
585.965	32398
585.989	29045
586.019	26790
586.061	24793
586.074	24219
586.128	22128
586.133	21948
586.183	21044
586.205	20809
586.237	20531
586.277	20118
586.292	20056
586.346	19699
586.349	19667
586.401	19065
586.421	18819
586.455	19000
586.493	19307
586.509	19610
586.564	20216
586.565	20256
586.618	23936
586.637	24539
586.672	25936
586.709	27248
586.727	27687
586.781	29149
586.781	29173
586.835	23298
586.853	21397
586.889	19533
586.925	18501
586.944	18306
586.996	18673
586.998	18706
587.052	17620
587.068	17639
587.106	18017
587.140	17751
587.161	17821
587.212	18441
587.215	18495
587.269	19027
587.284	18959
587.323	18910
587.356	19344
587.377	19612
587.427	20275
587.431	20387
587.485	20868
587.499	20989
587.539	20801
587.571	20411
587.593	20816
587.643	23045
587.648	23243
587.702	23248
587.715	23435
587.755	23870
587.786	23878
587.810	23785
587.858	23626
587.864	23732
587.917	24483
587.930	24548
587.971	24704
588.001	25128
588.025	25412
588.073	25241
588.079	25327
588.133	25843
588.145	25966
588.187	26556
588.217	26837
588.241	27708
588.288	29688
588.295	29942
588.348	31420
588.360	31731
588.402	33171
588.431	34210
588.456	35150
588.503	37136
588.510	37635
588.564	41411
588.575	42226
588.617	45812
588.646	48425
588.671	51324
588.718	57448
588.725	59576
588.778	77517
588.789	82399
588.832	132679
588.861	171950
588.886	244424
588.932	401416
588.939	412777
588.993	477564
589.004	472070
589.047	273169
589.075	154333
589.100	116449
589.147	66131
589.154	64415
589.207	54910
589.218	53134
589.261	52327
589.290	52306
589.314	54551
589.361	59847
589.368	62731
589.421	89418
589.433	96126
589.475	173715
589.504	234910
589.528	298942
589.576	428508
589.582	415308
589.635	223052
589.647	183614
589.689	101394
589.718	54346
589.742	48410
589.790	38452
589.795	38177
589.849	35605
589.861	35159
589.902	34774
589.932	34014
589.955	33029
590.004	30747
590.009	30755
590.062	30535
590.075	30365
590.115	29293
590.146	28499
590.168	28664
590.218	28713
590.222	28847
590.275	29709
590.289	29960
590.328	30915
590.360	31367
590.381	31304
590.431	30514
590.435	30611
590.488	31241
590.503	31336
590.541	31759
590.574	32135
590.594	32700
590.645	33814
590.647	33926
590.700	34233
590.716	34314
590.753	34999
590.787	35437
590.806	35824
590.859	36856
590.859	36965
590.912	37577
590.930	37806
590.965	38443
591.001	38688
591.018	38607
591.071	38063
591.072	37949
591.124	37084
591.143	36691
591.177	37606
591.214	38193
591.230	38271
591.283	38460
591.285	38356
591.336	38582
591.356	38519
591.389	38739
591.427	38684
591.442	38714
591.495	38510
591.498	38393
591.547	38418
591.569	38221
591.600	38789
591.640	39371
591.653	39663
591.706	40328
591.711	40303
591.759	41574
591.782	41996
591.811	43399
591.853	45165
591.864	45249
591.917	44936
591.924	44765
591.969	44757
591.995	44529
592.022	44801
592.066	44974
592.075	45471
592.127	47684
592.137	47956
592.180	48814
592.208	49155
592.233	49537
592.279	49809
592.285	50098
592.338	51331
592.350	51464
592.390	50807
592.421	50054
592.443	50874
592.491	52199
592.495	52416
592.548	53297
592.562	53384
592.600	52798
592.633	52004
592.653	52516
592.704	53166
592.705	53517
592.775	55804
592.846	55470
592.916	56012
592.987	57529
593.058	58622
593.128	57825
593.199	58372
593.270	59606
593.341	60620
593.411	62512
593.482	65077
593.553	66711
593.623	66067
593.694	68628
593.764	70236
593.835	68627
593.906	70764
593.976	71315
594.047	71681
594.117	77779
594.188	78712
594.258	78472
594.329	76728
594.399	78901
594.470	82179
594.540	84962
594.611	87024
594.681	85086
594.751	86319
594.822	89889
594.892	94405
594.963	95979
595.033	98687
595.103	101244
595.174	103295
595.244	106710
595.314	110775
595.384	111791
595.455	113658
595.525	116344
595.595	121844
595.665	121880
595.736	119565
595.806	120574
595.876	123613
595.946	122550
596.016	129297
596.087	135049
596.157	133577
596.227	134642
596.297	142177
596.367	153522
596.437	161179
596.507	160385
596.577	160154
596.647	166428
596.717	174888
596.787	175658
596.857	176369
596.927	178423
596.997	177616
597.067	179526
597.137	184395
597.207	184103
597.277	187613
597.347	176917
597.417	174219
597.487	174370
597.557	179103
597.626	182665
597.696	187025
597.766	184810
597.836	177272
597.906	167104
597.975	163183
598.045	167503
598.115	173278
598.185	187950
598.254	211747
598.324	227347
598.394	231133
598.464	223856
598.533	220110
598.603	205124
598.672	201122
598.742	206514
598.812	206611
598.881	213533
598.951	213048
599.020	216740
599.090	224036
599.159	227981
599.229	218925
599.299	217212
599.368	222475
599.437	220006
599.507	203651
599.576	196636
599.646	196880
599.715	195784
599.785	193444
599.854	191288
599.924	187103
599.993	187430
600.062	194315
600.132	196788
600.201	212472
600.270	242421
600.340	254205
600.409	248388
600.478	246570
600.547	256758
600.617	232015
600.686	193266
600.755	180993
600.824	173765
600.894	173180
600.963	174596
601.032	173453
601.101	169458
601.170	166138
601.239	163662
601.308	165184
601.378	166781
601.447	167757
601.516	171707
601.585	174121
601.654	177194
601.723	179552
601.792	185313
601.861	190257
601.930	199805
601.999	205227
602.068	202062
602.137	203865
602.206	207117
602.275	212043
602.343	212455
602.412	214452
602.481	217146
602.550	219214
602.619	225825
602.688	226592
602.756	230184
602.825	228528
602.894	235984
602.963	236631
603.032	240888
603.100	239766
603.169	239214
603.238	245279
603.307	239027
603.375	243799
603.444	250088
603.513	243366
603.581	249360
603.650	259616
603.719	234321
603.787	236089
603.856	239765
603.924	245559
603.993	254156
604.061	265889
604.130	274096
604.198	279136
604.267	285335
604.335	287173
604.404	291243
604.472	299971
604.541	300267
604.609	304970
604.678	310936
604.746	314243
604.815	326600
604.883	322971
604.951	319526
605.020	327671
605.088	320168
605.156	318414
605.225	320646
605.293	321403
605.361	323700
605.429	325032
605.498	333554
605.566	335562
605.634	353852
605.702	361212
605.771	369971
605.839	375123
605.907	359636
605.975	357644
606.043	343423
606.111	344097
606.180	354794
606.248	335482
606.316	333437
606.384	344923
606.452	320942
606.520	312563
606.588	323412
606.656	326110
606.724	318104
606.792	301927
606.860	270909
606.928	247918
606.996	237636
607.064	232418
607.132	241565
607.200	256486
607.267	266766
607.335	272585
607.403	277049
607.471	265473
607.539	258511
607.607	258493
607.674	229307
607.742	227627
607.810	226361
607.878	227593
607.946	231345
608.013	242844
608.081	246150
608.149	251246
608.216	258222
608.284	267407
608.352	264928
608.419	262844
608.487	255234
608.555	250499
608.622	262150
608.690	276426
608.757	304207
608.825	309302
608.893	300292
608.960	280147
609.028	270317
609.095	272900
609.163	269641
609.230	238062
609.298	220627
609.365	236258
609.432	251543
609.500	275503
609.567	317850
609.635	363529
609.702	374209
609.769	357991
609.837	273153
609.904	238942
609.971	245562
610.039	263369
610.106	327643
610.173	563956
610.241	1101693
610.308	624958
610.375	302595
610.442	261100
610.509	246982
610.577	249742
610.644	252887
610.711	264123
610.778	269588
610.845	280119
610.912	300462
610.980	309532
611.047	310869
611.114	305306
611.181	294787
611.248	293771
611.315	312263
611.382	318221
611.449	330920
611.516	332428
611.583	327560
611.650	331116
611.717	335075
611.784	338505
611.851	349398
611.918	364283
611.984	408809
612.051	526527
612.118	877610
612.185	1630183
612.252	1068169
612.319	491080
612.386	429788
612.452	392372
612.519	377157
612.586	371352
612.653	376708
612.719	391588
612.786	374002
612.853	348310
612.919	339828
612.986	347703
613.053	325818
613.120	305236
613.186	296096
613.253	300177
613.319	298055
613.386	302662
613.453	305359
613.519	305781
613.586	300278
613.652	306122
613.719	301045
613.785	307992
613.852	311454
613.918	307803
613.985	314028
614.051	325546
614.118	324623
614.184	310991
614.250	309193
614.317	315016
614.383	310707
614.449	319253
614.516	312595
614.582	318248
614.648	311658
614.715	307977
614.781	301896
614.847	301898
614.914	299821
614.980	291014
615.046	292245
615.112	302023
615.179	303171
615.245	306470
615.311	300575
615.377	307228
615.443	308471
615.509	313480
615.575	321161
615.642	315553
615.708	327130
615.774	338753
615.840	350737
615.906	366782
615.972	421418
616.038	572873
616.104	1018390
616.170	1786788
616.236	1431575
616.302	635680
616.368	528191
616.434	398338
616.500	373826
616.565	416572
616.631	503280
616.697	416717
616.763	432291
616.829	621477
616.895	1027186
616.961	912569
617.026	437044
617.092	338262
617.158	322143
617.224	314688
617.289	291867
617.355	277166
617.421	277122
617.487	276304
617.552	262049
617.618	260816
617.684	262793
617.749	264498
617.815	253114
617.880	248149
617.946	247895
618.012	251815
618.077	256703
618.143	244305
618.208	250544
618.274	269415
618.339	267904
618.405	219890
618.470	220482
618.536	219918
618.601	217251
618.667	200676
618.732	191702
618.798	189561
618.863	190199
618.928	186291
618.994	189264
619.059	188118
619.124	190162
619.190	187733
619.255	186511
619.320	186802
619.386	188094
619.451	186967
619.516	179509
619.581	184140
619.647	190016
619.712	188722
619.777	181426
619.842	181878
619.907	186340
619.972	191712
620.038	188294
620.103	183024
620.168	183949
620.233	187634
620.298	186068
620.363	190947
620.428	194938
620.493	200627
620.558	202466
620.623	205711
620.688	203968
620.753	202522
620.818	207776
620.883	207404
620.948	206348
621.013	203938
621.078	200518
621.143	203011
621.207	203405
621.272	200244
621.337	192039
621.402	193946
621.467	191305
621.532	191866
621.596	190480
621.661	186028
621.726	185041
621.791	187766
621.855	186959
621.920	186835
621.985	189070
622.049	194673
622.114	192262
622.179	194408
622.243	198434
622.308	207610
622.373	213867
622.437	209050
622.502	196885
622.566	195189
622.631	193342
622.695	200654
622.760	198003
622.824	198401
622.889	197542
622.953	198305
623.018	211909
623.082	214309
623.147	208976
623.211	203658
623.276	204938
623.340	198028
623.404	192257
623.469	192680
623.533	194292
623.597	189688
623.662	187270
623.726	174382
623.790	163328
623.854	160012
623.919	163272
623.983	165102
624.047	167049
624.111	169725
624.176	171911
624.240	174059
624.304	180113
624.368	171558
624.432	172189
624.496	176881
624.560	187332
624.625	188821
624.689	186032
624.753	197878
624.817	185076
624.881	181066
624.945	161553
625.009	158427
625.073	163313
625.137	168328
625.201	174081
625.265	175152
625.329	166973
625.393	168698
625.456	170370
625.520	175621
625.584	176992
625.648	184098
625.712	189529
625.776	195011
625.839	183357
625.903	149750
625.967	137545
626.031	154780
626.095	182194
626.158	161828
626.222	127382
626.286	120166
626.349	114434
626.413	107439
626.477	105640
626.540	108085
626.604	107333
626.668	106759
626.731	103388
626.795	104463
626.858	105353
626.922	103260
626.986	101457
627.049	101738
627.113	106849
627.176	102427
627.240	98638
627.303	99583
627.366	97069
627.430	101267
627.493	97895
627.557	97265
627.620	100597
627.684	104106
627.747	103823
627.810	94231
627.874	86987
627.937	83401
628.000	87103
628.064	84289
628.127	72684
628.190	74220
628.253	72409
628.317	68730
628.380	65375
628.443	64465
628.506	62660
628.569	61828
628.632	57631
628.696	57760
628.759	57237
628.822	55643
628.885	53501
628.948	52900
629.011	53267
629.074	52101
629.137	48609
629.200	48058
629.263	49238
629.326	47488
629.389	47263
629.452	47890
629.515	45052
629.578	46723
629.641	48003
629.704	47158
629.767	45008
629.830	45134
629.892	44077
629.955	42879
630.018	46433
630.081	44726
630.144	44416
630.207	42172
630.269	45214
630.332	42173
630.395	42711
630.458	41040
630.520	38410
630.583	41945
630.646	41028
630.708	40981
630.771	41186
630.834	44292
630.896	42693
630.959	42806
631.021	40754
631.084	41712
631.146	42522
631.209	43749
631.272	41374
631.334	43897
631.397	43462
631.459	43347
631.522	45284
631.584	47183
631.646	50605
631.709	51681
631.771	51844
631.834	51040
631.896	47420
631.958	43802
632.021	43539
632.083	41377
632.145	41796
632.208	40316
632.270	41183
632.332	40428
632.395	39591
632.457	40767
632.519	38661
632.581	40735
632.643	38931
632.706	39783
632.768	36910
632.830	40521
632.892	40090
632.954	41193
633.016	41823
633.078	40685
633.141	39758
633.203	39151
633.265	39972
633.327	39168
633.389	39202
633.451	40335
633.513	40395
633.575	42105
633.637	39489
633.698	42284
633.760	43304
633.822	45564
633.884	45912
633.946	47720
634.008	46653
634.070	48712
634.132	51282
634.193	56856
634.255	61134
634.317	62159
634.379	60385
634.441	54563
634.502	48940
634.564	44730
634.626	42212
634.687	41484
634.749	39330
634.811	38769
634.873	38928
634.934	38051
634.996	39585
635.057	38063
635.119	38568
635.181	39361
635.242	40813
635.304	38418
635.365	42078
635.427	38716
635.488	39151
635.550	38775
635.611	39163
635.673	39157
635.734	41726
635.796	44615
635.857	48918
635.918	51591
635.980	58060
636.041	60644
636.102	64725
636.164	65129
636.225	61937
636.286	51795
636.348	47037
636.409	42645
636.470	40290
636.531	40426
636.593	36991
636.654	37818
636.715	35916
636.776	35773
636.838	33480
636.899	34779
636.960	32806
637.021	33800
637.082	31920
637.143	32488
637.204	30644
637.265	30637
637.326	31670
637.387	33894
637.448	32137
637.509	32971
637.570	33034
637.631	33010
637.692	30011
637.753	29448
637.814	30752
637.875	29809
637.936	31305
637.997	29866
638.058	29331
638.119	30152
638.179	29131
638.240	29607
638.301	30802
638.362	28706
638.423	28256
638.483	29456
638.544	26845
638.605	28861
638.666	27955
638.726	28398
638.787	28153
638.848	28043
638.908	26939
638.969	27839
639.030	26777
639.090	25874
639.151	25691
639.211	26994
639.272	27758
639.332	28244
639.393	27475
639.453	29329
639.514	30606
639.574	27048
639.635	24455
639.695	27065
639.756	23778
639.816	25032
639.877	24318
639.937	25749
639.997	25982
640.058	23939
640.118	23795
640.178	25244
640.239	24580
640.299	24698
640.359	25477
640.420	28241
640.480	30297
640.540	34121
640.600	32793
640.661	30033
640.721	26616
640.781	29749
640.841	24179
640.901	26715
640.961	24791
641.021	26853
641.082	27937
641.142	25357
641.202	25676
641.262	21913
641.322	23161
641.382	22499
641.442	23027
641.502	23262
641.562	24226
641.622	24827
641.682	25608
641.742	29727
641.802	26012
641.861	25044
641.921	23155
641.981	22382
642.041	21118
642.101	21584
642.161	19855
642.221	21659
642.280	21237
642.340	21560
642.400	20427
642.460	23464
642.519	22606
642.579	22274
642.639	23769
642.698	20993
642.758	26207
642.818	23063
642.877	21552
642.937	23004
642.997	22977
643.056	23049
643.116	20520
643.175	24790
643.235	23707
643.294	24734
643.354	25681
643.414	28143
643.473	30484
643.532	35643
643.592	47234
643.651	70683
643.711	119739
643.770	231769
643.830	552331
643.889	912355
643.948	242416
644.008	65371
644.067	42298
644.126	32852
644.186	27588
644.245	26679
644.304	22759
644.363	25639
644.423	22011
644.482	23605
644.541	24735
644.600	23640
644.659	31092
644.719	38576
644.778	56383
644.837	99282
644.896	209778
644.955	429609
645.014	118923
645.073	36047
645.132	27953
645.191	25584
645.250	23696
645.309	27546
645.368	29718
645.427	40438
645.486	72102
645.545	112739
645.604	32928
645.663	24237
645.722	21959
645.781	25080
645.840	27033
645.898	32689
645.957	44592
646.016	66267
646.075	115830
646.134	223622
646.192	582217
646.251	681638
646.310	126062
646.369	47647
646.427	41607
646.486	30527
646.545	24724
646.603	22125
646.662	20717
646.721	21144
646.779	20681
646.838	22379
646.896	27539
646.955	37611
647.014	60291
647.072	120406
647.131	311727
647.189	119194
647.248	24669
647.306	20688
647.365	18728
647.423	16618
647.481	18609
647.540	15310
647.598	16731
647.657	16762
647.715	17358
647.773	15391
647.832	16100
647.890	13318
647.948	13427
648.007	15144
648.065	12691
648.123	13188
648.181	13794
648.240	13738
648.298	12931
648.356	13427
648.414	13681
648.472	13507
648.531	12776
648.589	12385
648.647	12331
648.705	12409
648.763	12236
648.821	13542
648.879	13420
648.937	15391
648.995	18477
649.053	23170
649.111	33491
649.169	55094
649.227	102079
649.285	219848
649.343	557852
649.401	216373
649.459	37387
649.516	23475
649.574	17956
649.632	22871
649.690	23982
649.748	29058
649.806	43356
649.863	83008
649.921	232347
649.979	121351
650.037	20146
650.094	13315
650.152	13082
650.210	11839
650.268	11242
650.325	10330
650.383	10297
650.440	8903
650.498	10584
650.556	10357
650.613	9719
650.671	9700
650.728	9814
650.786	11235
650.843	15510
650.901	9916
650.958	8580
651.016	8508
651.073	8140
651.131	8384
651.188	6960
651.246	8389
651.303	7153
651.360	8560
651.418	7274
651.475	8431
651.532	6742
651.590	8260
651.647	7387
651.704	8129
651.762	7413
651.819	7442
651.876	6595
651.933	6994
651.990	7636
652.048	6408
652.105	7003
652.162	7378
652.219	5614
652.276	8208
652.333	7489
652.390	6812
652.448	6875
652.505	6415
652.562	6494
652.619	6368
652.676	6490
652.733	8616
652.790	6019
652.847	5528
652.904	6925
652.961	5367
653.017	5102
653.074	6821
653.131	5983
653.188	4919
653.245	5285
653.302	6369
653.359	6212
653.415	7380
653.472	5531
653.529	6985
653.586	6002
653.642	5912
653.699	7236
653.756	5820
653.813	6309
653.869	6537
653.926	5938
653.983	5852
654.039	6088
654.096	5988
654.152	6750
654.209	4906
654.266	5863
654.322	5256
654.379	5365
654.435	7055
654.492	5321
654.548	5562
654.605	5612
654.661	6387
654.717	4929
654.774	6191
654.830	5755
654.887	5361
654.943	5754
655.000	6064
655.056	5228
655.112	5793
655.168	4935
655.225	5433
655.281	6540
655.337	5726
655.394	6149
655.450	5210
655.506	5666
655.562	6270
655.618	6468
655.675	4816
655.731	5080
655.787	5101
655.843	5386
655.899	5514
655.955	5394
656.011	7335
656.067	4941
656.123	6420
656.179	5020
656.235	5523
656.291	4952
656.347	6083
656.403	4760
656.459	5225
656.515	5650
656.571	5487
656.627	5189
656.683	6028
656.739	5189
656.795	4909
656.850	4875
656.906	5774
656.962	5703
657.018	5735
657.074	8233
657.129	11250
657.185	17254
657.241	39907
657.297	16348
657.352	7110
657.408	4780
657.464	6078
657.519	4055
657.575	4607
657.630	4300
657.686	4157
657.742	4680
657.797	4795
657.853	4631
657.908	5594
657.964	4071
658.019	4620
658.075	4222
658.130	5109
658.186	4093
658.241	4630
658.297	3552
658.352	4585
658.407	5360
658.463	3718
658.518	4149
658.573	4604
658.629	3684
658.684	3680
658.739	3754
658.795	3899
658.850	4159
658.905	3966
658.960	4306
659.016	4207
659.071	3099
659.126	3970
659.181	4289
659.236	5453
659.291	4871
659.346	4604
659.401	4606
659.457	5386
659.512	3388
659.567	4246
659.622	3953
659.677	3996
659.732	2589
659.787	3854
659.842	3211
659.897	4845
659.952	4775
660.007	3187
660.061	3396
660.116	3932
660.171	2708
660.226	3660
660.281	5294
660.336	3142
660.391	4253
660.445	3138
660.500	2968
660.555	4243
660.610	2940
660.664	4567
660.719	3407
660.774	4052
660.828	3722
660.883	3590
660.938	3616
660.992	3079
661.047	3892
661.101	3728
661.156	3920
661.211	3082
661.265	3510
661.320	3787
661.374	4160
661.429	3870
661.483	3803
661.538	2802
661.592	2588
661.647	3566
661.701	4063
661.755	3760
661.810	3891
661.864	3689
661.919	3391
661.973	3232
662.027	3108
662.081	2567
662.136	2913
662.190	3441
662.244	3901
662.299	2704
662.353	4022
662.407	3292
662.461	2763
662.515	3713
662.569	2869
662.624	3888
662.678	2845
662.732	3078
662.786	2627
662.840	3023
662.894	4216
662.948	3924
663.002	2742
663.056	4016
663.110	2294
663.164	3489
663.218	3478
663.272	3912
663.326	3914
663.380	3095
663.434	3271
663.488	2815
663.542	3726
663.595	3591
663.649	3316
663.703	4901
663.757	3808
663.811	2793
663.864	2471
663.918	3941
663.972	3704
664.026	3420
664.079	3705
664.133	3493
664.187	3722
664.240	4282
664.294	3467
664.348	3419
664.401	2923
664.455	3296
664.508	3536
664.562	3169
664.615	2810
664.669	2291
664.722	3702
664.776	3038
664.829	4172
664.883	3231
664.936	3318
664.990	4057
665.043	2901
665.097	3373
665.150	3844
665.203	3197
665.257	3037
665.310	4245
665.363	3043
665.417	4357
665.470	3405
665.523	4117
665.576	4136
665.630	3423
665.683	3180
665.736	4406
665.789	3843
665.842	2651
665.895	3650
665.949	3290
666.002	3884
666.055	4153
666.108	3533
666.161	3159
666.214	3933
666.267	4395
666.320	4394
666.373	4556
666.426	3273
666.479	4375
666.532	4553
666.585	4378
666.638	4197
666.691	4176
666.744	4010
666.796	4588
666.849	3932
666.902	4426
666.955	3025
667.008	3955
667.060	2817
667.113	3127
667.166	3868
667.219	4399
667.271	2840
667.324	4275
667.377	4345
667.430	4128
667.482	3820
667.535	2899
667.587	3405
667.640	3755
667.693	3018
667.745	4671
667.798	4101
667.850	3825
667.903	3315
667.955	4419
668.008	3561
668.060	4094
668.113	3420
668.165	4247
668.218	2902
668.270	3500
668.322	3454
668.375	3608
668.427	4494
668.479	3821
668.532	4249
668.584	3952
668.636	2898
668.689	3712
668.741	3122
668.793	3929
668.845	3352
668.898	4408
668.950	3681
669.002	3263
669.054	3221
669.106	3294
669.158	3729
669.211	4133
669.263	3248
669.315	4336
669.367	3691
669.419	4282
669.471	3912
669.523	3836
669.575	4647
669.627	3187
669.679	2858
669.731	4058
669.783	3720
669.835	3819
669.886	3373
669.938	3679
669.990	4029
670.042	4076
670.094	3511
670.146	4551
670.197	3666
670.249	4367
670.301	5153
670.353	6380
670.404	7367
670.456	10305
670.508	16685
670.560	26046
670.611	45519
670.663	82267
670.715	207814
670.766	268299
670.818	58581
670.869	13395
670.921	8720
670.972	7521
671.024	5192
671.075	4935
671.127	4833
671.178	4339
671.230	4493
671.281	5182
671.333	5643
671.384	6410
671.436	8041
671.487	11942
671.538	17883
671.590	29624
671.641	49082
671.692	95331
671.744	168619
671.795	93106
671.846	28397
671.897	14172
671.949	8475
672.000	6971
672.051	5690
672.102	6278
672.153	3594
672.204	3593
672.256	4143
672.307	3957
672.358	3709
672.409	3951
672.460	3049
672.511	2669
672.562	2302
672.613	2781
672.664	2126
672.715	3535
672.766	1965
672.817	3170
672.868	2788
672.919	2204
672.970	1891
673.021	2753
673.071	1822
673.122	2326
673.173	1733
673.224	2913
673.275	2274
673.326	1713
673.376	1634
673.427	2551
673.478	2545
673.528	3156
673.579	2759
673.630	2774
673.680	3332
673.731	1982
673.782	2114
673.832	1689
673.883	2523
673.934	2432
673.984	1720
674.035	2203
674.085	1800
674.136	2783
674.186	2489
674.237	2945
674.287	2475
674.338	2963
674.388	2103
674.438	2810
674.489	2320
674.539	3595
674.589	2693
674.640	2800
674.690	2517
674.740	1897
674.791	2495
674.841	2799
674.891	1863
674.942	1991
674.992	1458
675.042	1932
675.092	2066
675.142	1826
675.193	1773
675.243	2089
675.293	1775
675.343	1565
675.393	1605
675.443	2216
675.493	1227
675.543	1555
675.593	2028
675.643	1528
675.693	2724
675.743	2022
675.793	2445
675.843	1466
675.893	1034
675.943	1334
675.993	1865
676.043	1672
676.093	930
676.142	1733
676.192	1996
676.242	1604
676.292	2222
676.341	1213
676.391	948
676.441	1838
676.491	1491
676.540	1897
676.590	999
676.640	1518
676.689	679
676.739	1999
676.789	756
676.838	1208
676.888	1492
676.937	1504
676.987	1555
677.037	1223
677.086	720
677.136	1974
677.185	969
677.235	1354
677.284	975
677.333	782
677.383	1354
677.432	317
677.482	879
677.531	1578
677.580	1331
677.630	1153
677.679	556
677.728	1925
677.778	1129
677.827	684
677.876	1191
677.925	1505
677.975	890
678.024	1822
678.073	1662
678.122	1311
678.171	451
678.220	1883
678.269	2401
678.319	2700
678.368	2262
678.417	1707
678.466	1601
678.515	1426
678.564	1122
678.613	1590
678.662	339
678.711	1138
678.760	1253
678.809	1516
678.857	1159
678.906	1638
678.955	1241
679.004	1120
679.053	1165
679.102	1299
679.151	890
679.199	265
679.248	1098
679.297	1639
679.346	917
679.394	605
679.443	674
679.492	766
679.540	708
679.589	1042
679.638	480
679.686	1629
679.735	966
679.784	1664
679.832	1294
679.881	1535
679.929	884
679.978	1217
680.026	820
680.075	1425
680.123	736
680.172	496
680.220	297
680.268	568
680.317	50
680.365	407
680.414	-439
680.462	543
680.510	1974
680.559	1089
680.607	1556
680.655	1530
680.703	987
680.752	1237
680.800	413
680.848	1024
680.896	-56
680.945	-63
680.993	-75
681.041	1241
681.089	208
681.137	431
681.185	836
681.233	1634
681.258	1177
681.281	714
681.329	786
681.377	995
681.380	1051
681.425	1478
681.473	1554
681.502	2006
681.521	2258
681.569	1867
681.617	1412
681.624	1444
681.665	1397
681.713	1939
681.745	1559
681.761	1334
681.809	1869
681.857	1441
681.867	1475
681.904	1442
681.952	1613
681.989	1377
682.000	1264
682.048	1149
682.096	2471
682.111	2226
682.143	1623
682.191	1781
682.233	2523
682.239	2596
682.286	2055
682.334	1968
682.354	2067
682.382	2126
682.430	1741
682.476	2064
682.477	2044
682.525	2069
682.572	2053
682.598	2584
682.620	2977
682.667	2702
682.715	2546
682.720	2578
682.763	2508
682.810	2511
682.841	2711
682.857	2785
682.905	2590
682.952	2888
682.963	2918
683.000	2938
683.047	3185
683.085	3720
683.095	3829
683.142	3843
683.190	3648
683.206	3731
683.237	3759
683.284	3101
683.328	3536
683.332	3550
683.379	3479
683.426	3924
683.449	3428
683.473	2917
683.521	3520
683.568	3814
683.571	3841
683.615	3800
683.662	3764
683.693	3640
683.709	3520
683.757	3678
683.804	4185
683.814	3941
683.851	3032
683.898	4659
683.936	3500
683.945	3205
683.992	4530
684.039	3974
684.057	4337
684.086	4773
684.133	4246
684.179	4491
684.180	4483
684.227	4041
684.274	4620
684.300	4530
684.321	4385
684.368	4434
684.415	4793
684.422	4775
684.462	4679
684.509	5273
684.543	5482
684.556	5532
684.603	4731
684.649	5484
684.665	5494
684.696	5409
684.743	5895
684.786	5891
684.790	5871
684.837	5842
684.883	5575
684.908	5811
684.930	6048
684.977	5290
685.023	6004
685.029	5998
685.070	5716
685.117	6779
685.150	5977
685.164	5696
685.210	6497
685.257	6616
685.272	6749
685.303	6800
685.350	5973
685.393	6175
685.396	6194
685.443	6304
685.490	6758
685.514	6478
685.536	6179
685.583	6555
685.629	6396
685.636	6455
685.675	6723
685.722	6130
685.757	6025
685.768	5996
685.815	5948
685.861	6914
685.878	6877
685.908	6821
685.954	7008
686.000	6951
686.000	6942
686.047	7291
686.093	7096
686.121	7380
686.139	7519
686.185	7576
686.232	8067
686.242	8089
686.278	8099
686.324	7981
686.363	6994
686.370	6828
686.416	8119
686.463	7791
686.484	7701
686.509	7569
686.555	7802
686.601	7737
686.606	7758
686.647	7883
686.693	7537
686.727	7645
686.739	7686
686.785	8047
686.831	7236
686.848	7471
686.877	7906
686.923	7611
686.969	8319
686.969	8322
687.015	7911
687.061	8453
687.090	8431
687.107	8370
687.153	8942
687.199	8572
687.211	8548
687.245	8367
687.291	8294
687.332	8590
687.336	8650
687.382	8035
687.428	8873
687.453	8979
687.474	8953
687.520	9237
687.565	8829
687.574	8756
687.611	8662
687.657	9503
687.695	9546
687.702	9530
687.748	9687
687.794	9714
687.816	9528
687.839	9326
687.885	9510
687.931	9396
687.937	9393
687.976	9527
688.022	9315
688.058	9837
688.067	9910
688.113	10058
688.158	9495
688.179	9416
688.204	9592
688.249	10290
688.295	10297
688.300	10323
688.340	10245
688.386	10600
688.421	10239
688.431	10183
688.477	10064
688.522	10879
688.542	10877
688.567	10963
688.613	11697
688.658	10877
688.663	10927
688.703	11016
688.749	10539
688.784	10546
688.794	10662
688.839	10992
688.884	11642
688.905	11507
688.930	11123
688.975	10741
689.020	10898
689.026	10890
689.065	11043
689.110	10725
689.146	11148
689.155	11271
689.201	10508
689.246	10334
689.267	10453
689.291	10743
689.336	11178
689.381	11713
689.388	11642
689.426	11148
689.471	11187
689.509	11368
689.516	11451
689.561	11964
689.606	12163
689.630	12024
689.651	11724
689.696	11379
689.741	11369
689.750	11391
689.785	11959
689.830	12056
689.871	12218
689.875	12203
689.920	11904
689.965	12142
689.992	11711
690.010	11609
690.054	11936
690.099	12078
690.112	12282
690.144	12667
690.189	12012
690.233	12006
690.233	12025
690.278	12031
690.323	12557
690.354	12558
690.367	12607
690.412	13104
690.457	12853
690.474	13209
690.501	13742
690.546	13539
690.590	14042
690.595	14030
690.635	14616
690.680	15207
690.716	15652
690.724	16018
690.769	18466
690.813	20226
690.836	21342
690.857	24606
690.902	31592
690.946	38836
690.957	40373
690.991	53677
691.035	73500
691.077	90422
691.080	89970
691.124	75535
691.168	62678
691.198	53867
691.213	49665
691.257	38016
691.301	25720
691.318	21066
691.346	20116
691.390	18322
691.434	16220
691.439	16015
691.478	15741
691.522	15599
691.559	15249
691.567	15306
691.611	15060
691.655	15333
691.680	15231
691.699	15054
691.743	14758
691.787	14393
691.800	14345
691.831	14567
691.875	14577
691.919	14777
691.921	14742
691.964	14152
692.008	14351
692.041	13715
692.052	13673
692.096	14156
692.139	14645
692.162	14677
692.183	14536
692.227	13831
692.271	14017
692.282	13861
692.315	13907
692.359	14500
692.402	14678
692.403	14705
692.447	14440
692.490	14507
692.523	14397
692.534	14478
692.578	14507
692.622	14930
692.643	15080
692.666	15088
692.709	14993
692.753	14803
692.763	14823
692.797	15117
692.840	15010
692.884	15013
692.884	15048
692.928	15474
692.971	15991
693.004	16208
693.015	16135
693.059	16045
693.102	16041
693.124	15860
693.146	16168
693.189	16586
693.233	17217
693.245	17330
693.276	17775
693.320	18710
693.363	19218
693.365	19198
693.407	20930
693.450	22733
693.485	24406
693.493	25443
693.537	30202
693.580	35104
693.605	37927
693.624	44293
693.667	59462
693.710	74587
693.725	79813
693.753	106691
693.797	149589
693.840	191932
693.845	196338
693.883	168720
693.926	137403
693.966	110050
693.970	107708
694.013	80906
694.056	54238
694.086	35434
694.099	33890
694.142	29144
694.185	24506
694.206	22062
694.229	21487
694.272	20736
694.315	20021
694.326	19689
694.358	19192
694.401	18628
694.444	18331
694.446	18239
694.487	17538
694.530	17378
694.566	17079
694.573	17082
694.616	16839
694.659	16624
694.686	16413
694.702	16471
694.745	16657
694.787	16781
694.806	16769
694.830	16852
694.873	16947
694.916	16907
694.926	16907
694.959	17112
695.002	17326
695.044	17518
695.046	17481
695.087	17332
695.130	17094
695.166	16866
695.172	16994
695.215	17726
695.258	18229
695.286	18630
695.301	18663
695.343	18538
695.386	18522
695.406	18429
695.428	18898
695.471	19845
695.514	20527
695.526	20763
695.556	21534
695.599	22461
695.641	23161
695.646	23206
695.684	22541
695.726	21498
695.766	20620
695.769	20658
695.811	20582
695.854	20248
695.886	20172
695.896	20302
695.938	20318
695.981	20610
696.005	20674
696.023	21221
696.065	22428
696.108	23495
696.125	23949
696.150	24167
696.192	24384
696.235	24503
696.245	24514
696.277	24880
696.319	25237
696.361	25553
696.365	25517
696.404	25715
696.446	25757
696.485	25933
696.488	25965
696.530	25364
696.572	24869
696.604	24275
696.614	24176
696.656	23734
696.698	23154
696.724	22744
696.740	23094
696.783	23838
696.825	24722
696.844	24958
696.867	24679
696.909	24208
696.951	23704
696.964	23465
696.992	23769
697.034	24109
697.076	24658
697.083	24656
697.118	25365
697.160	26179
697.202	27029
697.203	26981
697.244	26424
697.286	25850
697.323	25173
697.327	25258
697.369	25552
697.411	25803
697.442	25830
697.453	25901
697.494	26005
697.536	26167
697.562	26193
697.578	26218
697.620	25992
697.661	25809
697.682	25704
697.703	26196
697.744	26963
697.786	27741
697.801	27953
697.828	27845
697.869	27488
697.911	27221
697.921	27062
697.952	26970
697.994	26860
698.035	26656
698.040	26576
698.077	26709
698.118	26646
698.160	26627
698.160	26556
698.201	27299
698.243	27983
698.279	28506
698.284	28615
698.325	28921
698.367	29250
698.399	29408
698.408	29647
698.449	30374
698.491	31126
698.518	31509
698.532	31458
698.573	31101
698.614	30734
698.638	30428
698.656	30560
698.697	30681
698.738	30819
698.757	30798
698.779	30798
698.820	30640
698.862	30478
698.877	30346
698.903	30543
698.944	30715
698.985	30884
698.996	30852
699.026	30991
699.067	31070
699.116	31082
699.235	31172
699.354	30635
699.474	30091
699.593	29097
699.713	29135
699.832	30208
699.951	30320
700.070	30010
700.190	27501
700.309	27221
700.428	28397
700.547	26356
700.667	26814
700.786	26572
700.905	25484
701.024	26986
701.143	25827
701.262	27081
701.381	27014
701.500	27576
701.619	27634
701.738	26766
701.857	27648
701.976	24131
702.095	27030
702.214	27181
702.333	26279
702.452	26261
702.571	27048
702.690	27217
702.809	26536
702.928	25075
703.047	23862
703.165	24811
703.284	24972
703.403	24483
703.522	23643
703.640	23432
703.759	23710
703.878	23219
703.997	24029
704.115	23723
704.234	23244
704.353	24306
704.471	22539
704.590	21279
704.708	22123
704.827	21505
704.946	21025
705.064	23195
705.183	22330
705.301	22620
705.420	22742
705.538	22663
705.656	21222
705.775	20745
705.893	25138
706.012	25123
706.130	21469
706.249	21962
706.367	20120
706.485	21156
706.604	21080
706.722	20433
706.840	21576
706.958	21529
707.077	19611
707.195	19699
707.313	19896
707.431	19994
707.549	19449
707.668	18470
707.786	19970
707.904	18599
708.022	20038
708.140	19917
708.258	18215
708.376	19925
708.494	17838
708.612	19459
708.730	21493
708.848	20602
708.966	19064
709.084	19161
709.202	18985
709.320	17191
709.438	17765
709.556	19167
709.674	17475
709.791	18335
709.909	16748
710.027	17065
710.145	16825
710.263	17338
710.380	18011
710.498	18002
710.616	17349
710.733	16607
710.851	17717
710.969	17157
711.086	17314
711.204	17502
711.322	17899
711.439	17118
711.557	15370
711.674	16532
711.792	16058
711.909	16305
712.027	15801
712.144	15866
712.262	16899
712.379	16864
712.497	17412
712.614	17024
712.732	16785
712.849	16362
712.966	17831
713.084	17635
713.201	16042
713.318	17694
713.436	17094
713.553	15932
713.670	16968
713.787	17829
713.905	16609
714.022	17018
714.139	17485
714.256	21545
714.373	26377
714.490	44769
714.608	116802
714.725	442456
714.842	308771
714.959	34945
715.076	20999
715.193	18381
715.310	17934
715.427	14772
715.544	16630
715.661	16418
715.778	15759
715.895	15793
716.011	16030
716.128	15134
716.245	15669
716.362	15023
716.479	13570
716.596	14716
716.713	14503
716.829	14140
716.946	13894
717.063	13626
717.180	13772
717.296	14135
717.413	12815
717.530	13385
717.646	12116
717.763	12518
717.880	12448
717.996	12457
718.113	12380
718.229	13120
718.346	11824
718.462	12475
718.579	12645
718.695	12459
718.812	13189
718.928	12807
719.045	12263
719.161	11991
719.277	12799
719.394	13044
719.510	12527
719.626	14307
719.743	15853
719.859	22297
719.975	42388
720.092	164279
720.208	271518
720.324	30905
720.440	15110
720.557	14049
720.673	14601
720.789	14014
720.905	16616
721.021	11915
721.137	11486
721.253	11271
721.369	10943
721.486	11698
721.602	12951
721.718	11104
721.834	11567
721.950	12571
722.066	11707
722.181	10590
722.297	12222
722.413	11184
722.529	11676
722.645	10784
722.761	11072
722.877	11573
722.993	11762
723.108	12867
723.224	10965
723.340	11032
723.456	11030
723.571	9916
723.687	9205
723.803	10791
723.918	10209
724.034	10314
724.150	10577
724.265	10175
724.381	10958
724.497	10846
724.612	10128
724.728	9757
724.843	9602
724.959	10365
725.074	11501
725.190	11080
725.305	10013
725.421	9701
725.536	9513
725.651	10423
725.767	10539
725.882	9350
725.997	9658
726.113	9959
726.228	9546
726.343	8949
726.459	9646
726.574	9485
726.689	8739
726.804	9062
726.920	9813
727.035	9425
727.150	9072
727.265	8719
727.380	9357
727.495	9087
727.610	9809
727.725	8656
727.841	9605
727.956	11530
728.071	10460
728.186	9516
728.301	9181
728.416	9109
728.531	8626
728.645	9004
728.760	8985
728.875	8799
728.990	9696
729.105	9345
729.220	7959
729.335	8664
729.449	9215
729.564	8180
729.679	8149
729.794	9104
729.908	8979
730.023	9325
730.138	9013
730.253	9443
730.367	8627
730.482	9107
730.596	9219
730.711	10637
730.826	11330
730.940	10203
731.055	10679
731.169	9403
731.284	10635
731.398	10407
731.513	10677
731.627	11946
731.742	14159
731.856	14514
731.970	14719
732.085	16811
732.199	21242
732.313	35621
732.428	89362
732.542	247392
732.656	110610
732.771	26590
732.885	19591
732.999	18246
733.113	20249
733.227	18608
733.342	18876
733.456	18370
733.570	17473
733.684	16285
733.798	17067
733.912	16472
734.026	17303
734.140	16695
734.254	16081
734.368	17255
734.482	17914
734.596	16258
734.710	15749
734.824	15398
734.938	16340
735.052	15808
735.166	15230
735.280	15118
735.393	15024
735.507	14478
735.621	15656
735.735	15357
735.849	15853
735.962	15387
736.076	15788
736.190	14733
736.303	14672
736.417	14761
736.531	14189
736.644	13692
736.758	14058
736.872	13680
736.985	14300
737.099	14209
737.212	14181
737.326	14100
737.439	14617
737.553	13193
737.666	13607
737.780	12870
737.893	12921
738.007	12780
738.120	12917
738.233	11965
738.347	13824
738.460	13105
738.573	13478
738.687	12454
738.800	13488
738.913	14005
739.026	12475
739.140	12580
739.253	13654
739.366	12079
739.479	12257
739.592	11951
739.705	11466
739.818	13706
739.932	11435
740.045	12602
740.158	12774
740.271	12269
740.384	11687
740.497	12441
740.610	12340
740.723	11876
740.836	11797
740.949	11984
741.062	11588
741.174	11136
741.287	10728
741.400	11595
741.513	11320
741.626	11894
741.739	10322
741.851	11500
741.964	12226
742.077	11289
742.189	9888
742.302	12391
742.415	11687
742.527	10794
742.640	10685
742.753	9654
742.865	11074
742.978	11231
743.090	10896
743.203	10793
743.316	10231
743.428	10192
743.541	10017
743.653	9713
743.766	11151
743.878	10105
743.990	9713
744.103	10784
744.215	10088
744.327	9610
744.440	11989
744.552	10641
744.664	9649
744.777	10847
744.889	10389
745.001	10254
745.113	10755
745.226	9159
745.338	10527
745.450	11042
745.562	10017
745.674	9323
745.786	10731
745.898	10028
746.010	9641
746.122	10450
746.234	10084
746.347	10214
746.459	9421
746.570	8225
746.682	10572
746.794	11113
746.906	9314
747.018	9655
747.130	10600
747.242	8802
747.354	10403
747.466	10065
747.577	9003
747.689	10062
747.801	9832
747.913	9311
748.024	8985
748.136	9668
748.248	8734
748.359	9315
748.471	9637
748.583	8571
748.694	9411
748.806	9381
748.918	8526
749.029	8783
749.141	9685
749.252	9370
749.364	7650
749.475	9455
749.587	8700
749.698	8966
749.809	9135
749.921	9929
750.032	9644
750.144	8441
750.255	8616
750.366	9506
750.478	8708
750.589	8508
750.700	9334
750.811	9042
750.923	8790
751.034	8801
751.145	10105
751.256	7962
751.367	8902
751.479	9506
751.590	8653
751.701	8806
751.812	8332
751.923	8684
752.034	10039
752.145	8090
752.256	8479
752.367	8985
752.478	8797
752.589	8780
752.700	9194
752.811	8314
752.922	9186
753.032	9474
753.143	9589
753.254	8360
753.365	9485
753.476	9191
753.586	9476
753.697	8782
753.808	8804
753.919	8627
754.029	8318
754.140	8724
754.251	8761
754.361	8455
754.472	9902
754.582	8840
754.693	8854
754.804	9924
754.914	8920
755.025	7961
755.135	10400
755.246	9433
755.356	8969
755.466	9476
755.577	9262
755.687	10384
755.798	9208
755.908	9954
756.018	10251
756.129	9025
756.239	9240
756.349	9963
756.460	10291
756.570	10396
756.680	9553
756.790	10665
756.900	10725
757.011	9525
757.121	10346
757.231	9990
757.341	10063
757.451	9917
757.561	9047
757.671	10503
757.781	9213
757.891	10788
758.001	9634
758.111	10745
758.221	11569
758.331	10960
758.441	11108
758.551	10883
758.661	11743
758.771	11450
758.880	11793
758.990	11110
759.100	11585
759.210	11740
759.320	12664
759.429	12316
759.539	13110
759.649	12691
759.758	13297
759.868	14021
759.978	13038
760.087	14948
760.197	14297
760.307	14565
760.416	14412
760.526	14058
760.635	15418
760.745	15546
760.854	15790
760.964	18016
761.073	17002
761.182	16272
761.292	16167
761.401	16695
761.511	15960
761.620	15849
761.729	17095
761.839	17133
761.948	17623
762.057	17937
762.166	18062
762.276	18453
762.385	19724
762.494	19927
762.603	20625
762.712	21147
762.822	22443
762.931	22101
763.040	22440
763.149	24588
763.258	25091
763.367	26460
763.476	27509
763.585	29372
763.694	30658
763.803	31903
763.912	34337
764.021	35832
764.130	38017
764.238	40369
764.347	43709
764.456	46590
764.565	51084
764.674	54418
764.783	60132
764.891	67003
765.000	75131
765.109	84485
765.217	95387
765.326	111246
765.435	133076
765.543	157825
765.652	191843
765.761	241768
765.869	307078
765.978	398685
766.086	511557
766.195	630962
766.303	676220
766.412	500058
766.520	482907
766.629	622012
766.737	582108
766.846	470659
766.954	365250
767.062	285221
767.171	223541
767.279	179729
767.387	146878
767.496	123143
767.604	107971
767.712	94757
767.820	85040
767.928	77676
768.037	71508
768.145	68952
768.253	65750
768.361	63144
768.469	63866
768.577	65326
768.685	67714
768.793	73255
768.901	78842
769.009	90470
769.117	108451
769.225	137152
769.333	184975
769.441	258447
769.549	378829
769.657	544207
769.765	627680
769.873	455554
769.981	551749
770.088	500487
770.196	364172
770.304	261029
770.412	196394
770.519	153104
770.627	124197
770.735	102226
770.842	86923
770.950	76970
771.058	66649
771.165	61357
771.273	55323
771.380	49492
771.488	48891
771.595	45628
771.703	40980
771.810	38856
771.918	36872
772.025	37370
772.133	35970
772.240	33455
772.348	34033
772.455	33483
772.562	30735
772.670	29218
772.777	28948
772.884	27878
772.991	26751
773.099	26954
773.206	24602
773.313	24889
773.420	24022
773.528	22658
773.635	22412
773.742	22401
773.849	20773
773.956	21231
774.063	20385
774.170	20345
774.277	20857
774.384	18868
774.491	18893
774.598	19101
774.705	17986
774.812	18055
774.919	18641
775.026	17753
775.133	17426
775.239	17089
775.346	16646
775.453	16244
775.560	15307
775.667	17174
775.773	15605
775.880	16900
775.987	15056
776.093	15579
776.200	15856
776.307	14555
776.413	14361
776.520	15866
776.627	14301
776.733	13051
776.840	12989
776.946	16314
777.053	13567
777.159	13072
777.266	11741
777.372	13849
777.478	13698
777.585	13768
777.691	11588
777.798	13940
777.904	12651
778.010	12014
778.117	13142
778.223	11901
778.329	12627
778.435	11630
778.542	12613
778.648	11231
778.754	10873
778.860	11690
778.966	11329
779.072	11410
779.178	11228
779.284	9313
779.391	10727
779.497	11215
779.603	13414
779.708	13306
779.815	23611
779.920	68089
780.026	112744
780.132	20104
780.238	11680
780.344	10410
780.450	12679
780.556	9074
780.661	9366
780.767	10206
780.873	8181
780.979	9192
781.085	8738
781.190	8385
781.296	8807
781.402	9049
781.507	9073
781.613	7630
781.719	8900
781.824	9445
781.930	8040
782.035	8825
782.141	9385
782.246	7545
782.352	7837
782.457	7625
782.563	7956
782.668	8404
782.773	7564
782.879	6134
782.984	8213
783.090	7881
783.195	8024
783.300	8804
783.405	7789
783.511	7052
783.616	7556
783.721	7633
783.826	7593
783.932	7911
784.037	6892
784.142	6950
784.247	6813
784.352	7473
784.457	6413
784.562	7679
784.667	7725
784.772	6378
784.877	5236
784.982	8007
785.087	6346
785.192	6538
785.297	6302
785.402	6699
785.507	6503
785.611	6629
785.716	6719
785.821	6800
785.926	6305
786.031	6228
786.135	6438
786.240	6037
786.345	5076
786.450	6333
786.554	6399
786.659	5897
786.763	5594
786.868	6432
786.973	7483
787.077	5433
787.182	5734
787.286	6010
787.391	6589
787.495	5164
787.600	5644
787.704	6293
787.809	6402
787.913	5327
788.017	5539
788.122	7323
788.226	4975
788.330	4447
788.435	4843
788.539	4930
788.643	5005
788.747	4421
788.852	5303
788.956	4489
789.060	5598
789.164	5741
789.268	4339
789.372	6367
789.476	5353
789.580	4381
789.684	4917
789.788	5572
789.892	5749
789.996	4472
790.100	4191
790.204	5147
790.308	5205
790.412	3693
790.516	3859
790.620	4022
790.724	5825
790.828	4547
790.931	4293
791.035	6012
791.139	4796
791.242	4470
791.346	5136
791.450	4494
791.554	3869
791.657	2459
791.761	5387
791.864	4936
791.968	4671
792.072	5163
792.175	3833
792.279	3419
792.382	4286
792.486	3712
792.589	4038
792.693	5284
792.796	3263
792.899	4469
793.003	5645
793.106	2774
793.209	4100
793.313	5129
793.416	2500
793.519	4565
793.623	5541
793.726	3272
793.829	3700
793.932	3961
794.035	3426
794.138	5321
794.242	5925
794.345	4760
794.448	5958
794.551	10362
794.654	36618
794.757	66783
794.860	9906
794.963	5244
795.066	3452
795.169	4685
795.272	4188
795.375	4925
795.477	3234
795.580	3670
795.683	3075
795.786	4819
795.889	2721
795.991	3848
796.094	4640
796.197	1708
796.300	4655
796.402	3473
796.505	2375
796.608	2486
796.710	3498
796.813	3809
796.915	3559
797.018	3935
797.120	3773
797.223	2714
797.326	4670
797.428	3445
797.530	3417
797.633	3483
797.735	4468
797.838	3082
797.940	4871
798.042	3465
798.145	3378
798.247	4473
798.349	2312
798.452	3829
798.554	2778
798.656	3081
798.758	4300
798.860	3067
798.962	3370
799.065	2310
799.167	2068
799.269	4463
799.371	4903
799.473	4445
799.575	2484
799.677	2958
799.779	3696
799.881	1983
799.983	4494
800.085	3493
800.187	2653
800.289	2065
800.390	3225
800.492	3296
800.594	3680
800.696	2463
800.798	2754
800.899	2617
801.001	2184
801.103	3029
801.205	2476
801.306	2770
801.408	1950
801.509	2625
801.611	2894
801.713	2807
801.814	1778
801.916	2357
802.017	2186
802.119	2201
802.220	2835
802.322	1229
802.423	4121
802.525	1495
802.626	3335
802.727	3391
802.829	3332
802.930	1342
803.031	3463
803.133	2705
803.234	2578
803.335	3067
803.436	2156
803.538	2598
803.639	1522
803.740	3493
803.841	1611
803.942	2977
804.043	3076
804.144	1419
804.245	2110
804.346	1769
804.447	1955
804.548	2597
804.649	3069
804.750	1856
804.851	1831
804.952	2630
805.053	3052
805.154	851
805.255	3451
805.355	2317
805.456	2495
805.557	1740
805.658	1858
805.758	3366
805.859	2620
805.960	2683
806.061	1388
806.161	2255
806.262	2294
806.362	2014
806.463	1636
806.564	2939
806.664	2605
806.765	1147
806.865	2381
806.966	1735
807.066	1765
807.166	2985
807.267	3661
807.367	1576
807.468	2756
807.568	855
807.668	3249
807.769	3759
807.869	2074
807.969	2611
808.069	2205
808.170	2673
808.270	1487
808.370	2361
808.470	2302
808.570	1996
808.670	2368
808.770	2539
808.870	1444
808.970	2249
809.070	1827
809.170	1604
809.271	2991
809.370	1794
809.470	2669
809.570	2005
809.670	1822
809.770	1944
809.870	3116
809.970	1847
810.070	2396
810.169	2306
810.269	829
810.369	2525
810.469	1517
810.568	2232
810.668	1926
810.768	721
810.867	2846
810.967	1835
811.066	1411
811.166	2077
811.265	2557
811.365	972
811.464	1811
811.564	2053
811.663	1882
811.763	680
811.862	2705
811.962	2843
812.061	1934
812.160	1179
812.260	2947
812.359	1524
812.458	1997
812.557	3401
812.657	2994
812.756	2095
812.855	2024
812.954	1448
813.053	2325
813.153	2517
813.252	1243
813.351	2263
813.450	2889
813.549	1823
813.648	1841
813.747	920
813.846	1803
813.945	1771
814.044	1459
814.143	1907
814.242	2021
814.341	2578
814.439	1527
814.538	2034
814.637	2123
814.736	2134
814.835	3315
814.933	2590
815.032	2930
815.131	4100
815.229	6493
815.328	9493
815.427	6756
815.525	6612
815.624	6461
815.722	5490
815.821	6477
815.919	6605
816.018	6331
816.116	6946
816.215	6664
816.313	6706
816.412	7857
816.510	7177
816.609	10093
816.707	8935
816.805	8138
816.904	7127
817.002	7804
817.100	9213
817.198	9041
817.296	7245
817.395	8150
817.493	7843
817.591	6177
817.689	7569
817.787	7545
817.885	7432
817.983	7606
818.081	8392
818.179	11722
818.277	20475
818.375	14698
818.473	8395
818.571	7142
818.669	8141
818.767	8230
818.865	6870
818.963	6726
819.061	6932
819.158	7700
819.256	11921
819.354	15637
819.452	30681
819.549	17652
819.647	9330
819.745	6529
819.842	7413
819.940	6795
820.038	6017
820.135	5280
820.233	7697
820.330	6303
820.428	4955
820.525	7927
820.623	5717
820.720	5302
820.818	6519
820.915	5694
821.012	5130
821.110	4670
821.207	7140
821.304	4469
821.402	5905
821.499	5884
821.596	5289
821.693	5656
821.791	6473
821.888	6143
821.985	6089
822.082	4490
822.179	5742
822.276	5964
822.373	4594
822.470	5061
822.567	6119
822.664	4897
822.761	5692
822.858	5548
822.955	5318
823.052	4708
823.149	5384
823.246	5002
823.343	2522
823.440	4838
823.536	4957
823.633	4931
823.730	4458
823.827	5540
823.923	4659
824.020	5061
824.117	5501
824.213	5190
824.310	4997
824.407	4270
824.503	5302
824.600	4422
824.696	4259
824.793	5454
824.889	5565
824.986	3742
825.082	2777
825.179	5259
825.275	4860
825.371	5375
825.468	4986
825.564	2485
825.660	5165
825.757	6554
825.853	5372
825.949	2996
826.045	3882
826.142	4200
826.238	4387
826.334	4892
826.430	3278
826.526	3854
826.622	2514
826.718	5182
826.814	5183
826.910	4753
827.006	2259
827.102	2708
827.198	5207
827.294	4549
827.390	3794
827.486	3609
827.582	2089
827.678	3630
827.774	5242
827.869	3231
827.965	4425
828.061	2596
828.157	4712
828.252	4587
828.348	4127
828.444	3705
828.539	3126
828.635	3884
828.731	4916
828.826	2491
828.922	4529
829.017	4424
829.113	3857
829.208	2444
829.304	3206
829.399	5799
829.495	3080
829.590	3759
829.685	2908
829.781	4113
829.876	3221
829.971	1251
830.066	1941
830.162	3041
830.257	4921
830.352	3231
830.447	2517
830.543	2768
830.638	3085
830.733	4086
830.828	2777
830.923	4404
831.018	3499
831.113	4701
831.208	2292
831.303	2164
831.398	2004
831.493	2959
831.588	5148
831.683	2036
831.778	2291
831.873	2560
831.967	4520
832.062	2306
832.157	1712
832.252	2823
832.346	2690
832.441	3551
832.536	3442
832.631	4014
832.725	2668
832.820	2870
832.914	1849
833.009	1878
833.104	1931
833.198	2495
833.293	2064
833.387	3100
833.482	2659
833.576	2916
833.670	2688
833.765	2539
833.859	2572
833.954	2465
834.048	2508
834.142	3102
834.237	1674
834.331	3240
834.425	3436
834.519	2462
834.613	2619
834.708	2409
834.802	1839
834.896	2635
834.990	2721
835.084	1501
835.178	1369
835.272	2271
835.366	2816
835.460	3446
835.554	2460
835.648	2031
835.742	960
835.836	1661
835.930	2088
836.024	2426
836.117	2343
836.211	2395
836.305	2125
836.399	2569
836.493	1474
836.586	3513
836.680	2135
836.774	1870
836.867	2697
836.961	745
837.055	1312
837.148	1999
837.242	2784
837.335	2251
837.429	2091
837.522	1732
837.616	1613
837.709	3030
837.803	2332
837.896	2690
837.989	2137
838.083	1859
838.176	1726
838.269	1660
838.363	2405
838.456	1369
838.549	2309
838.642	1323
838.735	2484
838.829	2545
838.922	900
839.015	1373
839.108	1530
839.201	1593
839.294	2199
839.387	1774
839.480	1048
839.573	1443
839.666	1610
839.759	2210
839.852	590
839.945	2520
840.038	2303
840.131	1366
840.223	1722
840.316	2884
840.409	2218
840.502	2072
840.594	2811
840.687	541
840.780	1313
840.873	393
840.965	1361
841.058	1830
841.150	2425
841.243	736
841.336	1298
841.428	1073
841.521	1223
841.613	1029
841.706	2004
841.798	1057
841.890	1147
841.983	1059
842.075	1859
842.167	2155
842.260	2158
842.352	2006
842.444	1590
842.537	1459
842.629	1455
842.721	1044
842.813	1275
842.905	283
842.997	2292
843.090	1902
843.182	1108
843.274	14
843.366	2336
843.458	3285
843.550	2915
843.642	1420
843.734	1589
843.826	875
843.918	1240
844.009	2310
844.101	998
844.193	1081
844.285	1049
844.377	1818
844.469	1339
844.560	-218
844.652	811
844.744	1803
844.835	1756
844.927	1601
845.019	1556
845.110	1726
845.202	1487
845.293	1277
845.385	450
845.476	1072
845.568	2771
845.659	1527
845.751	1532
845.842	401
845.934	1198
846.025	658
846.116	1617
846.208	936
846.299	1051
846.390	1165
846.482	1680
846.573	1222
846.664	863
846.755	1197
846.846	2390
846.937	-241
847.029	1059
847.120	629
847.211	956
847.302	2402
847.393	596
847.484	2412
847.575	-142
847.666	746
847.757	1838
847.847	1691
847.938	1951
848.029	1299
848.120	492
848.211	1375
848.302	1109
848.392	15
848.483	1068
848.574	1102
848.664	944
848.755	1438
848.846	1622
848.936	1407
849.027	2134
849.118	1440
849.208	1135
849.299	2002
849.389	3419
849.480	7037
849.570	13094
849.661	25589
849.751	34064
849.841	9118
849.932	2773
850.022	1452
850.112	1877
850.203	1485
850.293	1410
850.383	1036
850.474	685
850.564	800
850.654	767
850.744	1367
850.834	1074
850.924	1278
851.014	2220
851.104	693
851.194	528
851.284	1021
851.374	1815
851.464	1089
851.554	224
851.644	983
851.734	2037
851.824	2279
851.914	1404
852.004	2033
852.094	977
852.183	425
852.273	1674
852.363	1224
852.452	806
852.542	1361
852.632	425
852.721	1023
852.811	708
852.901	1786
852.990	723
853.080	1920
853.169	1518
853.259	1506
853.348	2122
853.438	2588
853.527	3387
853.617	3729
853.706	7848
853.795	14108
853.885	29783
853.974	52461
854.063	101236
854.152	121410
854.242	38535
854.331	9518
854.420	3671
854.509	2750
854.598	3933
854.687	2450
854.777	1961
854.866	1384
854.955	1198
855.044	1091
855.133	398
855.222	2386
855.311	1214
855.400	1519
855.488	735
855.577	482
855.666	992
855.755	1102
855.844	664
855.933	1010
856.021	440
856.110	1054
856.199	182
856.288	767
856.376	641
856.465	452
856.554	665
856.642	1010
856.731	1939
856.819	1596
856.908	638
856.996	739
857.085	230
857.173	1553
857.262	863
857.350	828
857.438	389
857.527	1517
857.615	571
857.703	1350
857.792	874
857.880	489
857.968	822
858.056	1391
858.145	392
858.233	492
858.321	363
858.409	1383
858.497	754
858.585	206
858.673	405
858.761	684
858.849	506
858.937	377
859.025	1148
859.113	892
859.201	1290
859.289	1101
859.377	952
859.465	1441
859.552	925
859.640	796
859.728	1277
859.816	-49
859.903	964
859.991	168
860.079	917
860.166	1357
860.254	612
860.342	1184
860.429	568
860.517	1162
860.604	718
860.692	1191
860.779	276
860.867	757
860.954	386
861.042	1113
861.129	1325
861.216	546
861.304	1080
861.391	80
861.478	958
861.565	1193
861.653	778
861.740	301
861.827	442
861.914	258
862.001	676
862.089	1206
862.176	1572
862.263	476
862.350	611
862.437	551
862.524	880
862.611	706
862.698	636
862.785	676
862.871	1651
862.958	1656
863.045	1522
863.132	523
863.219	1335
863.306	-16
863.392	1322
863.479	646
863.566	458
863.652	460
863.739	1341
863.826	1257
863.912	1465
863.999	943
864.086	1372
864.172	1325
864.259	2101
864.345	1342
864.432	1432
864.518	886
864.604	1617
864.691	1423
864.777	1307
864.863	3159
864.950	3682
865.036	4243
865.122	8645
865.209	8375
865.295	7593
865.381	7298
865.467	7278
865.553	6955
865.639	8945
865.726	11914
865.812	20335
865.898	32459
865.984	45999
866.070	83059
866.156	69728
866.242	21469
866.328	9627
866.414	6144
866.499	7695
866.585	6688
866.671	6309
866.757	6599
866.843	6699
866.928	5783
867.014	5610
867.100	6206
867.186	5018
867.271	6144
867.357	5865
867.442	5691
867.528	5547
867.614	4853
867.699	5732
867.785	5047
867.870	4945
867.956	4907
868.041	5161
868.127	5603
868.212	5282
868.297	4775
868.383	6252
868.468	5220
868.553	6255
868.639	5415
868.724	4919
868.809	5469
868.894	6201
868.979	5568
869.065	4917
869.150	3741
869.235	4997
869.320	5142
869.405	3285
869.490	4835
869.575	4621
869.660	3925
869.745	4622
869.830	4690
869.915	3850
870.000	4271
870.085	4369
870.169	6737
870.254	5755
870.339	3381
870.424	3302
870.509	4918
870.593	4785
870.678	4787
870.763	3728
870.847	3570
870.932	4122
871.016	4537
871.101	2715
871.186	4738
871.270	5018
871.355	3147
871.439	3601
871.523	4591
871.608	3805
871.692	3992
871.777	5145
871.861	5066
871.945	3395
872.030	4084
872.114	4058
872.198	3637
872.282	3313
872.367	4254
872.451	3194
872.535	3424
872.619	4796
872.703	3298
872.787	4259
872.871	3050
872.955	3279
873.039	3015
873.123	3413
873.207	4471
873.291	2545
873.375	3152
873.459	4456
873.543	2894
873.627	3510
873.711	2718
873.794	4125
873.878	3270
873.962	2680
874.045	2721
874.129	2887
874.137	2931
874.213	3374
874.245	3298
874.296	3173
874.352	2994
874.380	2911
874.460	3176
874.464	3188
874.547	3288
874.568	3395
874.631	3687
874.676	3675
874.714	3673
874.784	3838
874.798	3874
874.881	3515
874.892	3393
874.965	2565
874.999	2634
875.048	2726
875.107	2430
875.131	2293
875.215	2437
875.215	2436
875.298	2039
875.323	2451
875.381	3401
875.430	3783
875.465	4048
875.538	3541
875.548	3466
875.631	2782
875.646	2619
875.714	1894
875.753	1932
875.798	1982
875.861	3135
875.881	3490
875.964	2688
875.968	2651
876.047	1972
876.076	2084
876.130	2267
876.183	2607
876.213	2867
876.291	3470
876.296	3499
876.379	2344
876.398	2145
876.462	1558
876.506	1608
876.545	1616
876.613	2099
876.628	2222
876.711	2858
876.721	2892
876.794	3085
876.828	3047
876.877	2930
876.935	2226
876.960	1973
877.043	1919
877.043	1920
877.125	2141
877.150	2292
877.208	2716
877.258	2066
877.291	1591
877.365	1808
877.374	1853
877.456	2249
877.472	2203
877.539	1887
877.579	2147
877.622	2347
877.687	2004
877.704	1971
877.787	2634
877.794	2642
877.869	2483
877.901	2281
877.952	1922
878.008	1035
878.034	720
878.115	1145
878.117	1145
878.199	1317
878.222	1316
878.282	1799
878.329	2295
878.364	2381
878.437	2165
878.447	2158
878.529	735
878.544	805
878.611	1288
878.651	1564
878.694	1834
878.758	2402
878.776	2494
878.858	2281
878.865	2228
878.941	1658
878.972	1368
879.023	1066
879.078	1284
879.105	1388
879.185	1818
879.187	1822
879.269	1773
879.292	1865
879.351	2160
879.399	1618
879.433	1366
879.506	2459
879.516	2530
879.598	1911
879.613	1756
879.680	1251
879.720	1489
879.762	1825
879.827	1504
879.844	1364
879.926	1566
879.933	1579
880.007	2025
880.040	1771
880.089	1366
880.147	2558
880.171	3097
880.253	4037
880.254	4042
880.335	4083
880.360	4319
880.417	5991
880.467	8348
880.499	9687
880.574	10158
880.580	9932
880.662	4459
880.680	3556
880.744	1750
880.787	1170
880.825	855
880.893	1552
880.907	1664
880.989	1037
881.000	1066
881.070	1749
881.106	1788
881.152	1514
881.213	1246
881.233	1255
881.315	1224
881.319	1245
881.396	1312
881.426	1236
881.478	1261
881.532	1566
881.559	1686
881.639	1331
881.641	1315
881.722	1334
881.745	1193
881.803	1194
881.852	1452
881.885	1459
881.958	759
881.966	687
882.047	1308
882.064	1165
882.129	880
882.171	850
882.210	767
882.277	1246
882.291	1347
882.372	1411
882.383	1460
882.454	1590
882.489	1215
882.535	834
882.596	1409
882.616	1547
882.697	856
882.702	826
882.778	590
882.808	697
882.859	728
882.914	1048
882.940	1394
883.020	1388
883.021	1383
883.102	1510
883.127	1475
883.183	1573
883.233	1557
883.264	1182
883.339	422
883.345	469
883.426	646
883.445	986
883.507	1473
883.551	1212
883.587	1168
883.657	1794
883.668	1847
883.749	1235
883.763	1212
883.830	917
883.869	692
883.910	488
883.975	687
883.991	830
884.072	896
884.081	992
884.152	1621
884.187	1423
884.233	1230
884.292	1257
884.314	1064
884.394	317
884.398	299
884.475	209
884.504	145
884.555	571
884.610	822
884.636	709
884.716	815
884.716	816
884.797	1023
884.821	1040
884.877	1106
884.927	1020
884.958	865
885.033	809
885.038	801
885.118	615
885.139	571
885.199	501
885.244	507
885.279	831
885.350	1363
885.359	1336
885.439	1347
885.456	1218
885.520	791
885.561	707
885.600	573
885.667	574
885.680	660
885.760	628
885.773	679
885.840	575
885.878	680
885.920	766
885.984	424
886.000	518
886.080	1267
886.089	1359
886.160	1420
886.195	1298
886.240	1016
886.300	1003
886.320	1163
886.400	1331
886.406	1362
886.480	992
886.511	780
886.560	872
886.616	795
886.640	702
886.720	897
886.722	893
886.800	628
886.827	666
886.879	751
886.932	704
886.959	728
887.038	654
887.039	651
887.119	633
887.143	592
887.198	823
887.248	1165
887.278	1243
887.354	1393
887.358	1374
887.437	860
887.459	728
887.517	919
887.564	1089
887.596	901
887.669	567
887.676	542
887.755	193
887.774	109
887.835	491
887.880	820
887.914	790
887.985	539
887.994	584
888.073	1343
888.090	1430
888.153	1201
888.195	1103
888.232	788
888.300	162
888.311	149
888.391	254
888.405	254
888.470	829
888.510	1164
888.549	673
888.615	-65
888.628	127
888.708	1254
888.720	1431
888.787	243
888.825	-453
888.866	-68
888.930	588
888.945	509
889.024	159
889.035	104
889.103	211
889.140	279
889.182	591
889.245	1101
889.261	1044
889.340	732
889.349	704
889.419	392
889.454	222
889.498	383
889.559	646
889.577	699
889.656	943
889.664	973
889.735	750
889.768	649
889.814	493
889.873	293
889.978	1263
890.083	1014
890.187	618
890.292	986
890.397	416
890.501	745
890.606	830
890.710	768
890.815	1138
890.919	596
891.024	822
891.128	1027
891.233	1151
891.337	-84
891.442	1087
891.546	990
891.650	183
891.755	1130
891.859	2577
891.963	492
892.068	1148
892.172	847
892.276	466
892.380	538
892.484	742
892.589	1233
892.693	1499
892.797	465
892.901	137
893.005	346
893.109	682
893.213	868
893.317	1033
893.421	381
893.525	112
893.629	498
893.733	427
893.837	933
893.941	472
894.045	585
894.148	-392
894.252	871
894.356	763
894.460	348
894.564	655
894.667	-224
894.771	672
894.875	-487
894.978	1034
895.082	209
895.186	1239
895.289	1009
895.393	708
895.496	751
895.600	434
895.703	395
895.807	439
895.910	347
896.014	369
896.117	467
896.221	959
896.324	546
896.427	1112
896.531	155
896.634	595
896.737	38
896.840	559
896.944	-29
897.047	627
897.150	728
897.253	665
897.356	513
897.460	139
897.563	403
897.666	494
897.769	360
897.872	506
897.975	131
898.078	417
898.181	31
898.284	951
898.387	204
898.490	1097
898.593	663
898.695	-362
898.798	588
898.901	728
899.004	740
899.107	433
899.209	746
899.312	86
899.415	1105
899.518	325
899.620	-718
899.723	222
899.826	682
899.928	178
900.031	409
900.133	230
900.236	211
900.338	-86
900.441	-333
900.543	221
900.646	-331
900.748	739
900.851	426
900.953	99
901.055	407
901.158	336
901.260	84
901.362	94
901.465	60
901.567	-21
901.669	286
901.771	1528
901.873	558
901.976	-460
902.078	397
902.180	173
902.282	-431
902.384	1305
902.486	1123
902.588	222
902.690	-549
902.792	679
902.894	893
902.996	245
903.098	39
903.200	965
903.302	-6
903.404	325
903.505	251
903.607	146
903.709	1196
903.811	908
903.913	536
904.014	171
904.116	87
904.218	773
904.319	-55
904.421	972
904.523	653
904.624	57
904.726	260
904.827	206
904.929	-502
905.030	-329
905.132	287
905.233	305
905.335	60
905.436	-405
905.537	173
905.639	497
905.740	344
905.841	827
905.943	61
906.044	-106
906.145	-232
906.247	-116
906.348	-135
906.449	286
906.550	322
906.651	294
906.752	860
906.854	327
906.955	-432
907.056	102
907.157	-91
907.258	770
907.359	177
907.460	-208
907.561	-751
907.662	-309
907.762	470
907.863	30
907.964	-261
908.065	183
908.166	-98
908.267	-75
908.367	293
908.468	192
908.569	249
908.670	323
908.770	194
908.871	118
908.971	364
909.072	580
909.173	150
909.273	49
909.374	222
909.474	-207
909.575	-141
909.675	210
909.776	475
909.876	705
909.977	636
910.077	162
910.177	-30
910.278	626
910.378	-384
910.478	-451
910.579	-18
910.679	857
910.779	1090
910.879	161
910.980	364
911.080	334
911.180	-335
911.280	119
911.380	-202
911.480	106
911.580	96
911.680	-402
911.780	406
911.880	803
911.980	54
912.080	497
912.180	364
912.280	-684
912.380	139
912.480	-121
912.580	520
912.679	700
912.779	284
912.879	324
912.979	-353
913.078	348
913.178	-1021
913.278	-559
913.377	-84
913.477	-330
913.577	-876
913.676	842
913.776	-603
913.875	-143
913.975	-416
914.074	-132
914.174	-846
914.273	-6
914.373	499
914.472	235
914.572	-516
914.671	152
914.770	-824
914.870	-410
914.969	-819
915.068	-83
915.167	219
915.267	-405
915.366	-831
915.465	-301
915.564	-96
915.663	-78
915.763	25
915.862	331
915.961	151
916.060	526
916.159	254
916.258	-30
916.357	357
916.456	473
916.555	-469
916.654	-396
916.752	158
916.851	292
916.950	71
917.049	-345
917.148	-267
917.247	334
917.345	-41
917.444	441
917.543	-22
917.642	-81
917.740	-1045
917.839	46
917.937	1036
918.036	160
918.135	19
918.233	680
918.332	-19
918.430	-66
918.529	-347
918.627	-148
918.726	-75
918.824	-170
918.923	-677
919.021	-390
919.119	-173
919.218	-10
919.316	-543
919.414	654
919.512	-798
919.611	571
919.709	316
919.807	667
919.905	630
920.003	719
920.102	111
920.200	-148
920.298	227
920.396	31
920.494	265
920.592	92
920.690	539
920.788	260
920.886	497
920.984	828
921.082	97
921.180	966
921.277	-415
921.375	710
921.473	247
921.571	828
921.669	282
921.766	699
921.864	768
921.962	460
922.060	635
922.157	952
922.255	14
922.352	747
922.450	910
922.548	101
922.645	-13
922.743	508
922.840	2212
922.938	3306
923.035	2691
923.133	3034
923.230	2455
923.327	3748
923.425	3015
923.522	3174
923.619	2299
923.717	2230
923.814	1826
923.911	1909
924.008	3064
924.106	1891
924.203	2228
924.300	2249
924.397	1442
924.494	2839
924.591	2094
924.688	1306
924.786	2040
924.883	2379
924.979	1905
925.077	2416
925.173	2347
925.270	1743
925.367	2079
925.464	2408
925.561	2807
925.658	2536
925.755	2739
925.852	2126
925.948	1742
926.045	2181
926.142	1474
926.239	2186
926.335	1509
926.432	2678
926.529	761
926.625	2692
926.722	1627
926.818	1747
926.915	2321
927.011	2078
927.108	1861
927.204	2357
927.301	1080
927.397	1441
927.494	1569
927.590	774
927.687	1542
927.783	1626
927.879	2205
927.976	1728
928.072	1648
928.168	1909
928.264	2010
928.361	1395
928.457	1772
928.553	1633
928.649	1545
928.745	2032
928.841	1479
928.937	1791
929.033	1833
929.129	1490
929.225	1352
929.321	959
929.417	178
929.513	1945
929.609	1206
929.705	601
929.801	1937
929.897	1072
929.993	1503
930.089	1135
930.184	1326
930.280	1427
930.376	1978
930.471	1298
930.567	977
930.663	1604
930.758	850
930.854	1169
930.950	662
931.045	393
931.141	1321
931.236	1868
931.332	775
931.427	523
931.523	2124
931.618	1780
931.714	943
931.809	1024
931.905	482
932.000	1253
932.095	14
932.191	1691
932.286	1344
932.381	583
932.476	1045
932.572	1919
932.667	446
932.762	341
932.857	1316
932.952	1255
933.047	854
933.142	162
933.237	776
933.332	507
933.427	1000
933.522	881
933.617	302
933.712	588
933.807	1456
933.902	1091
933.997	942
934.092	307
934.187	748
934.282	232
934.376	803
934.471	1350
934.566	388
934.661	822
934.755	583
934.850	1707
934.945	1487
935.039	592
935.134	435
935.228	677
935.323	2481
935.417	706
935.512	522
935.606	780
935.701	1103
935.795	1467
935.890	995
935.984	836
936.079	964
936.173	580
936.267	977
936.362	569
936.456	14
936.550	1077
936.644	136
936.738	1218
936.833	553
936.927	738
937.021	559
937.115	698
937.209	-512
937.303	1263
937.397	315
937.491	602
937.585	385
937.679	1464
937.773	647
937.867	6
937.961	-181
938.055	1644
938.149	1179
938.243	-72
938.337	85
938.430	-596
938.524	696
938.618	531
938.712	-37
938.805	159
938.899	904
938.993	1675
939.086	-789
939.180	-266
939.274	362
939.367	663
939.461	247
939.554	341
939.648	-590
939.741	248
939.835	-169
939.928	1828
940.022	317
940.115	-188
940.208	-137
940.302	618
940.395	1169
940.488	-112
940.582	1144
940.675	-429
940.768	-171
940.861	416
940.954	781
941.048	485
941.141	64
941.234	473
941.327	-215
941.420	887
941.513	299
941.606	262
941.699	1109
941.792	252
941.885	246
941.978	63
942.071	217
942.164	-746
942.257	-147
942.349	340
942.442	-351
942.535	-478
942.628	166
942.721	-11
942.813	-1451
942.906	877
942.999	-698
943.091	-283
943.184	300
943.277	123
943.369	-336
943.462	564
943.554	886
943.647	352
943.739	1112
943.832	1112
943.924	-1444
944.017	257
944.109	-1079
944.201	265
944.294	160
944.386	200
944.478	-181
944.571	-528
944.663	16
944.755	279
944.847	-3
944.940	722
945.032	-1111
945.124	63
945.216	487
945.308	-356
945.400	-61
945.492	207
945.584	-371
945.676	821
945.768	-248
945.860	443
945.952	120
946.044	158
946.136	-505
946.228	-396
946.320	-307
946.412	312
946.503	-122
946.595	583
946.687	-68
946.779	-503
946.870	-465
946.962	-55
947.054	678
947.145	539
947.237	-473
947.329	352
947.420	306
947.512	-363
947.603	-1027
947.695	-269
947.786	-627
947.878	-249
947.969	-171
948.061	341
948.152	-836
948.243	219
948.335	-405
948.426	-716
948.517	-154
948.609	275
948.700	-950
948.791	-706
948.882	-638
948.973	-98
949.065	419
949.156	641
949.247	-604
949.338	387
949.429	-491
949.520	-141
949.611	-507
949.702	208
949.793	-112
949.884	-567
949.975	-92
950.066	-821
950.157	-1067
950.247	-123
950.338	-320
950.429	-803
950.520	-727
950.611	-1053
950.701	-1044
950.792	-5
950.883	-231
950.973	707
951.064	-533
951.155	-716
951.245	602
951.336	53
951.427	-866
951.517	86
951.608	-140
951.698	-82
951.788	55
951.879	-71
951.969	-558
952.060	-476
952.150	-772
952.240	-32
952.331	-1213
952.421	567
952.511	-832
952.602	-628
952.692	-733
952.782	-621
952.872	-36
952.962	-362
953.052	-592
953.143	-1292
953.233	-415
953.323	451
953.413	-958
953.503	441
953.593	-9
953.683	-559
953.773	-1193
953.863	284
953.953	-886
954.042	-874
954.132	-817
954.222	973
954.312	-657
954.402	328
954.492	-698
954.581	-632
954.671	-650
954.761	-344
954.850	938
954.940	-1364
955.030	-201
955.119	-137
955.209	-449
955.298	22
955.388	-264
955.477	-267
955.567	-1032
955.656	302
955.746	-940
955.835	-492
955.925	-829
956.014	-1138
956.103	-1205
956.193	-68
956.282	-1257
956.371	-566
956.461	-497
956.550	-374
956.639	98
956.728	-713
956.817	4
956.906	139
956.995	-357
957.085	-450
957.174	-373
957.263	-250
957.352	-1045
957.441	-639
957.530	-528
957.619	-617
957.708	39
957.796	-771
957.885	-1267
957.974	-959
958.063	-449
958.152	-1140
958.241	-1179
958.329	-630
958.418	-1321
958.507	-572
958.596	454
958.684	-759
958.773	-718
958.861	-1450
958.950	-1008
959.039	-753
959.127	-896
959.216	140
959.304	-657
959.393	-473
959.481	-972
959.570	235
959.658	-922
959.746	-224
959.835	-966
959.923	-837
960.011	-1424
960.100	498
960.188	-620
960.276	-718
960.365	-1723
960.453	-376
960.541	-552
960.629	-177
960.717	-828
960.805	-977
960.893	-425
960.981	-434
961.069	678
961.158	-75
961.245	60
961.333	-96
961.421	-1240
961.509	159
961.597	71
961.685	-395
961.773	-1013
961.861	-46
961.949	-62
962.036	-663
962.124	59
962.212	-1319
962.299	-1349
962.387	-567
962.475	-752
962.562	-841
962.650	-550
962.738	-570
962.825	-616
962.913	-373
963.000	-437
963.088	-371
963.175	-1028
963.263	-779
963.350	-1459
963.438	-770
963.525	-1899
963.612	-198
963.700	-1564
963.787	940
963.874	-1305
963.962	-725
964.049	-1197
964.136	54
964.223	-1662
964.310	-1431
964.398	-281
964.485	-533
964.572	-243
964.659	-581
964.746	-1563
964.833	-726
964.920	-1845
965.007	-56
965.094	-1129
965.181	-813
965.268	-1064
965.355	-1047
965.441	-1062
965.528	-1714
965.615	-466
965.702	-362
965.789	-1771
965.875	-134
965.962	-1257
966.049	-1234
966.136	-1691
966.222	-819
966.309	903
966.395	-594
966.482	-1286
966.569	-1027
966.655	-1134
966.742	-754
966.828	-684
966.915	-1282
967.001	-1633
967.087	-625
967.174	-1254
967.260	-1129
967.347	-861
967.433	-1483
967.519	-1001
967.605	-1061
967.692	-701
967.778	-1599
967.864	-949
967.950	-696
968.036	-1369
968.123	-689
968.209	-887
968.295	-1312
968.381	-157
968.467	-247
968.553	-2464
968.639	537
968.725	-1907
968.811	-423
968.897	-555
968.983	-756
969.069	-1430
969.154	-1347
969.240	-538
969.326	-1492
969.412	-1500
969.497	-1283
969.583	-1482
969.669	191
969.755	-984
969.840	-1040
969.926	76
970.012	-579
970.097	373
970.183	-882
970.268	-462
970.354	-237
970.439	-1710
970.525	81
970.610	-2036
970.696	778
970.781	-1364
970.866	-2044
970.952	-299
971.037	-1617
971.122	-1488
971.208	-599
971.293	-385
971.378	-1952
971.463	-1074
971.549	-386
971.634	-1173
971.719	-275
971.804	-1515
971.889	-1202
971.974	-1679
972.059	-1015
972.144	-1353
972.229	-1305
972.314	-1762
972.399	-522
972.484	-1477
972.569	-249
972.654	-2831
972.739	-83
972.824	-659
972.908	-1336
972.993	-1154
973.078	-1389
973.163	-524
973.247	-1489
973.332	-2487
973.417	-82
973.501	-2193
973.586	-956
973.671	-1597
973.755	-1256
973.840	162
973.924	235
974.009	-1153
974.093	-593
974.178	345
974.262	-910
974.346	-1792
974.431	-1706
974.515	-547
974.600	-939
974.684	-980
974.768	-1080
974.852	-683
974.937	-1503
975.021	-546
975.105	-1044
975.189	-506
975.273	-121
975.358	-1894
975.442	-1050
975.526	-681
975.610	-1932
975.694	-1894
975.778	25
975.862	-1391
975.946	-2356
976.030	556
976.114	-1286
976.198	-319
976.281	-832
976.365	-1097
976.449	-868
976.533	-236
976.617	-1752
976.700	-1126
976.784	-1296
976.868	-1896
976.951	-550
977.035	-1643
977.119	-1020
977.202	-1736
977.286	-719
977.369	-938
977.453	-23
977.536	-908
977.620	-1451
977.703	-627
977.787	-1085
977.870	-357
977.953	424
978.037	-2431
978.120	633
978.203	-293
978.287	-364
978.370	-1572
978.453	-1316
978.536	-1372
978.620	-595
978.703	-1462
978.786	-1599
978.869	-2043
978.952	-1563
979.035	-928
979.118	-511
979.201	-1566
979.284	-168
979.367	-1713
979.450	-190
979.533	-1608
979.616	-1444
979.699	-1708
979.782	-1048
979.865	-1076
979.948	-1251
980.030	-1711
980.113	-1562
980.196	-1545
980.279	-238
980.361	-476
980.444	-1440
980.526	-1248
980.609	-1006
980.692	-1700
980.774	-128
980.857	-1697
980.939	41
981.022	-1895
981.104	-375
981.187	-1426
981.269	29
981.352	-780
981.434	-1402
981.516	-1144
981.599	813
981.681	-1150
981.763	-752
981.846	-1189
981.928	-649
982.010	-942
982.092	-1006
982.174	-928
982.256	-1358
982.339	-578
982.421	-557
982.503	-1304
982.585	-2021
982.667	-1605
982.749	-1032
982.831	-985
982.913	-1667
982.995	163
983.077	-1051
983.158	-727
983.240	-2437
983.322	-601
983.404	-44
983.486	-1426
983.568	-513
983.649	-1544
983.731	-314
983.813	-1054
983.894	-104
983.976	-1991
984.058	-713
984.139	832
984.221	-1698
984.302	-822
984.384	-170
984.465	-950
984.547	25
984.628	-1422
984.710	245
984.791	-407
984.872	-1131
984.954	-850
985.035	-829
985.116	-2350
985.198	-1650
985.279	-531
985.360	-809
985.441	-1052
985.522	591
985.604	-1421
985.685	-1621
985.766	-913
985.847	274
985.928	-1376
986.009	-744
986.090	-1503
986.171	-987
986.252	-1852
986.333	-336
986.414	-1322
986.495	-464
986.576	-296
986.656	102
986.737	-315
986.818	-535
986.899	-1811
986.980	-1049
987.060	-1258
987.141	-1276
987.222	-834
987.302	-545
987.383	-704
987.464	-602
987.544	-728
987.625	-1398
987.705	-319
987.786	-20
987.866	-199
987.947	-344
988.027	-906
988.108	-882
988.188	-745
988.268	-95
988.349	-518
988.429	-1007
988.509	-255
988.589	-770
988.670	-2535
988.750	1219
988.830	-473
988.910	-820
988.990	-365
989.070	-472
989.151	-1652
989.231	-1887
989.311	-1149
989.391	-1369
989.471	-735
989.551	-779
989.631	-1087
989.711	-284
989.791	-1536
989.870	-506
989.950	-447
990.030	-934
990.110	-632
990.190	-695
990.269	-1088
990.349	-319
990.429	-1002
990.509	-195
990.588	-1277
990.668	-856
990.747	-1498
990.827	-1084
990.907	-728
990.986	-1213
991.066	-1251
991.145	-1472
991.225	-770
991.304	-1709
991.383	-718
991.463	-1676
991.542	-1341
991.622	-1102
991.701	-1513
991.780	-1035
991.859	-1308
991.939	-1137
992.018	-1070
992.097	-616
992.176	-1031
992.256	-1410
992.335	-968
992.414	-567
992.493	-2163
992.572	-1406
992.651	-1196
992.730	-930
992.809	-1093
992.888	-2171
992.967	-1071
993.046	-119
993.125	-1512
993.203	-761
993.282	-774
993.361	-799
993.440	-1047
993.519	-1191
993.597	-852
993.676	-1079
993.755	-361
993.834	-957
993.912	-1770
993.991	145
994.069	-1854
994.148	-1639
994.226	-1243
994.305	-727
994.384	-1413
994.462	-1036
994.540	-2057
994.619	-2024
994.697	-575
994.776	-1267
994.854	-323
994.932	-1391
995.011	-1069
995.089	-1424
995.167	-1558
995.245	-1674
995.324	-2493
995.402	-717
995.480	-1512
995.558	-870
995.636	-1667
995.714	-2391
995.792	-199
995.870	-1096
995.948	-1184
996.026	-1164
996.104	-2774
996.182	-60
996.260	-1932
996.338	-768
996.416	-2419
996.494	-1617
996.572	-173
996.649	-2107
996.727	-2634
996.805	-680
996.883	-1405
996.960	-872
997.038	-1457
997.116	-824
997.193	-1910
997.271	-682
997.348	-1216
997.426	-636
997.504	-1485
997.581	-1538
997.658	-1019
997.736	-2374
997.813	-1720
997.891	-1195
997.968	-1156
998.046	-941
998.123	-1161
998.200	-1414
998.277	-1929
998.355	-555
998.432	-3211
998.509	-786
998.586	-1452
998.663	-743
998.741	-1877
998.818	-1660
998.895	-1692
998.972	-1850
999.049	-726
999.126	-1177
999.203	-1203
999.280	-1585
999.357	-2731
999.434	-1270
999.511	-1630
999.587	-2047
999.664	-1964
999.741	-642
999.818	-1020
999.895	-2079
999.971	-1380
1000.048	-1517
1000.125	-1113
1000.202	-2092
1000.278	-1409
1000.355	-345
1000.431	-1503
1000.508	-2623
1000.584	-1859
1000.661	-1198
1000.738	-1542
1000.814	-1102
1000.890	-953
1000.967	-1456
1001.043	-1542
1001.120	-2102
1001.196	-457
1001.272	-1899
1001.349	-1708
1001.425	-569
1001.501	-2381
1001.577	-2316
1001.654	-1650
1001.730	-1532
1001.806	-1380
1001.882	-2325
1001.958	-2010
1002.034	-1585
1002.110	-1775
1002.186	-1399
1002.262	-1490
1002.338	-2178
1002.414	-1945
1002.490	-1066
1002.566	-2191
1002.642	-1519
1002.718	-1332
1002.794	-1358
1002.870	-2283
1002.945	-1716
1003.021	-1260
1003.097	-797
1003.173	-1528
1003.248	-2419
1003.324	-2105
1003.400	-1916
1003.475	-2096
1003.551	-1510
1003.626	-2118
1003.702	-1644
1003.777	-2384
1003.853	-1726
1003.928	-2669
1004.004	-1778
1004.079	-1888
1004.155	-1683
1004.230	-2913
1004.305	-647
1004.381	-2532
1004.456	-2134
1004.531	-1982
1004.607	-1789
1004.682	-1520
1004.757	-1413
1004.832	-2030
1004.907	-1472
1004.982	-1294
1005.057	-2035
1005.133	-2799
1005.208	-1782
1005.283	-1860
1005.358	-1057
1005.433	-2228
1005.508	-949
1005.583	-3219
1005.657	-2157
1005.732	-1788
1005.807	-1579
1005.882	-1871
1005.957	-1574
1006.032	-1271
1006.106	-2064
1006.181	-1941
1006.256	-440
1006.331	-1360
1006.405	-1924
1006.480	-1817
1006.554	-2109
1006.629	-1739
1006.704	-2358
1006.778	-2091
1006.853	-1019
1006.927	-1571
1007.002	-2359
1007.076	-1978
1007.150	-2070
1007.225	-2190
1007.299	-1634
1007.373	-2663
1007.448	-1819
1007.522	-2236
1007.596	-1311
1007.671	-2078
1007.745	-978
1007.819	-3147
1007.893	-2000
1007.967	-1932
1008.041	-1950
1008.115	-1473
1008.190	-2612
1008.264	-1799
1008.338	-1982
1008.412	-2364
1008.486	-2175
1008.560	-1843
1008.633	-2377
1008.707	-2783
1008.781	-1240
1008.855	-1905
1008.929	-1893
1009.003	-2601
1009.076	-2510
1009.150	-1864
1009.224	-2115
1009.298	-1661
1009.371	-1813
1009.445	-1346
1009.519	-1285
1009.592	-2936
1009.666	-1444
1009.739	-1993
1009.813	-2285
1009.886	-479
1009.960	-2236
1010.033	-1546
1010.107	-1453
1010.180	-2565
1010.253	-1866
1010.327	-2408
1010.400	-2618
1010.473	-2638
1010.547	-1095
1010.620	-1945
1010.693	-1466
1010.766	-1839
1010.840	-1813
1010.913	-1963
1010.986	-2892
1011.059	-2345
1011.132	-2381
1011.205	-1085
1011.278	-1639
1011.351	-2756
1011.424	-992
1011.497	-1793
1011.570	-1968
1011.643	-1673
1011.716	-2101
1011.789	-2127
1011.862	-1197
1011.934	-1599
1012.007	-2494
1012.080	-2128
1012.153	-1906
1012.225	-375
1012.298	-2165
1012.371	-2090
1012.443	-1683
1012.516	-3177
1012.588	-1178
1012.661	-1564
1012.733	-2523
1012.806	-1561
1012.879	-1925
1012.951	-2255
1013.023	-1988
1013.096	-1580
1013.168	-2357
1013.241	-1243
1013.313	-1971
1013.385	-2253
1013.458	-2095
1013.530	-1796
1013.602	-3150
1013.674	-2403
1013.746	-1810
1013.819	-2733
1013.891	-1460
1013.963	-3212
1014.035	-2251
1014.107	-2300
1014.179	-647
1014.251	-2231
1014.323	-1599
1014.395	-2609
1014.467	-1792
1014.539	-2050
1014.611	-2198
1014.683	-2223
1014.754	-1381
1014.826	-1447
1014.898	-1412
1014.970	-2950
1015.042	-1515
1015.113	-1377
1015.185	-2266
1015.257	-2744
1015.328	-1001
1015.400	-1235
1015.471	-1052
1015.543	-2258
1015.615	-1533
1015.686	-2322
1015.757	-2062
1015.829	-2452
1015.901	-1680
1015.972	-1962
1016.043	-2012
1016.115	-1923
1016.186	-2004
1016.257	-2309
1016.328	-1180
1016.400	-1175
1016.471	-2848
1016.542	-2073
1016.613	-2099
1016.685	-2251
1016.756	-2399
1016.827	-2457
1016.898	-2727
1016.969	-1521
1017.040	-1929
1017.111	-2777
1017.182	-2239
1017.253	-2070
1017.324	-2227
1017.395	-2455
1017.466	-2141
1017.537	-1564
1017.608	-1347
1017.678	-1527
1017.749	-1883
1017.820	-1495
1017.891	-1902
1017.961	-3309
1018.032	-1690
1018.103	-1621
1018.173	-2301
1018.244	-1285
1018.315	-1807
1018.385	-1890
1018.456	-2761
1018.526	-2738
1018.597	-2083
1018.667	-2316
1018.738	-2061
1018.808	-2307
1018.878	-1379
1018.949	-1726
1019.019	-2102
1019.089	-1665
1019.160	-1683
1019.230	-3030
1019.300	-1280
1019.371	-3080
1019.441	-2030
1019.511	-2022
1019.581	-1958
1019.651	-1463
1019.721	-1575
1019.791	-2355
1019.861	-1427
1019.931	-1843
1020.001	-2149
1020.071	-1651
1020.141	-2198
1020.211	-2003
1020.281	-2030
1020.351	-2918
1020.421	-1254
1020.491	-1183
1020.560	-2220
1020.630	-2444
1020.700	-1834
1020.770	-1824
1020.839	-1784
1020.909	-2127
1020.979	-2685
1021.048	-2438
1021.118	-2351
1021.187	-1597
1021.257	-1474
1021.326	-2339
1021.396	-1625
1021.465	-1380
1021.535	-1879
1021.604	-2784
1021.674	-1044
1021.743	-2412
1021.812	-2156
1021.882	-1738
1021.951	-1456
1022.020	-1875
1022.089	-1345
1022.159	-2696
1022.228	-1076
1022.297	-1762
1022.366	-2373
1022.435	-1635
1022.504	-2792
1022.573	-1808
1022.642	-1423
1022.711	-2474
1022.781	-1709
1022.849	-1574
1022.918	-2361
1022.987	-2502
1023.056	-2275
1023.125	-2317
1023.194	-1599
1023.263	-2033
1023.331	-1633
1023.400	-2048
1023.469	-2175
1023.538	-1603
1023.606	-2122
1023.675	-1676
1023.744	-2356
1023.812	-2137
1023.881	-1270
1023.949	-2275
1024.018	-795
1024.086	-2003
1024.155	-1633
1024.223	-2500
1024.292	-1718
1024.360	-1673
1024.429	-2204
1024.497	-2007
1024.565	-1996
1024.634	-2206
1024.702	-1426
1024.770	-1640
1024.838	-2019
1024.907	-1133
1024.975	-2413
1025.043	-1808
1025.111	-2495
1025.179	-2161
1025.247	-2452
1025.315	-2069
1025.383	-1399
1025.451	-2945
1025.519	-2193
1025.587	-1733
1025.655	-2055
1025.723	-2079
1025.791	-2616
1025.859	-1486
1025.927	-1265
1025.995	-1893
1026.062	-2212
1026.130	-2718
1026.198	-1884
1026.266	-2172
1026.333	-1098
1026.401	-1811
1026.469	-2242
1026.536	-1133
1026.604	-1783
1026.671	-2532
1026.739	-1767
1026.806	-2308
1026.874	-1973
1026.941	-1597
1027.009	-1619
1027.076	-3112
1027.144	-1371
1027.211	-1966
1027.278	-1826
1027.345	-1871
1027.413	-2145
1027.480	-2239
1027.547	-1495
1027.614	-1939
1027.682	-1518
1027.749	-1980
1027.816	-2089
1027.883	-1203
1027.950	-1643
1028.017	-1715
1028.084	-1081
1028.151	-1612
1028.218	-1741
1028.285	-2391
1028.352	-2222
1028.419	-2610
1028.486	-1644
1028.553	-1751
1028.619	-1999
1028.686	-1947
1028.753	-1773
1028.820	-2306
1028.886	-1848
1028.953	-1693
1029.020	-2085
1029.086	-2784
1029.153	-1824
1029.220	-2441
1029.286	-1981
1029.353	-1425
1029.419	-1682
1029.486	-2378
1029.552	-2721
1029.619	-2439
1029.685	-2621
1029.751	-1690
1029.818	-79
1029.884	-2675
1029.951	-952
1030.017	-1985
1030.083	-1118
1030.149	-1849
1030.216	-1725
1030.282	-2681
1030.348	-1514
1030.414	-2214
1030.480	-1750
1030.546	-2152
1030.612	-1862
1030.678	-1626
1030.744	-1714
1030.810	-1481
1030.876	-1486
1030.942	-1279
1031.008	-2159
1031.074	-1797
1031.140	-1514
1031.206	-1895
1031.272	-1531
1031.337	-1314
1031.403	-1257
1031.469	-1994
1031.534	-1862
1031.600	-1265
1031.666	-561
1031.731	-2179
1031.797	-1298
1031.863	-2585
1031.928	-2440
1031.994	-2968
1032.059	-2037
1032.125	-1158
1032.190	-1791
1032.256	-2205
1032.321	-2707
1032.386	-2387
1032.452	-2425
1032.517	-1997
1032.582	-1876
1032.647	-2310
1032.713	-1683
1032.778	-2064
1032.843	-1755
1032.908	-2269
1032.974	-1537
1033.039	-2008
1033.104	-2280
1033.169	-2383
1033.234	-1850
1033.299	-1278
1033.364	-1530
1033.429	-2128
1033.494	-1285
1033.559	-2088
1033.624	-1936
1033.688	-2070
1033.753	-1752
1033.818	-1746
1033.883	-1685
1033.948	-2398
1034.013	-1270
1034.077	-1551
1034.142	-1907
1034.207	-860
1034.271	44
1034.336	-198
1034.400	-920
1034.465	-1167
1034.530	-788
1034.594	-1824
1034.658	-1957
1034.723	-2606
1034.787	-1476
1034.852	-2242
1034.916	-1938
1034.981	-2514
1035.045	-1777
1035.109	-2039
1035.173	-1347
1035.238	-2462
1035.302	-966
1035.366	-2406
1035.430	-2385
1035.495	-2716
1035.559	-1914
1035.623	-2112
1035.687	-2614
1035.751	-2567
1035.815	-1795
1035.879	-2179
1035.943	-1981
1036.007	-2390
1036.071	-2107
1036.135	-1806
1036.198	-1277
1036.262	-2689
1036.326	-2013
1036.390	-2510
1036.454	-2052
1036.517	-2033
1036.581	-1808
1036.645	-1451
1036.709	-1178
1036.772	-1339
1036.836	-1184
1036.900	-1866
1036.963	-1589
1037.026	-2337
1037.090	-2225
1037.154	-2565
1037.217	-2518
1037.280	-2227
1037.344	-2023
1037.407	-2821
1037.471	-2495
1037.534	-2219
1037.597	-1790
1037.661	-2420
1037.724	-2074
1037.787	-2515
1037.850	-1208
1037.913	-2736
1037.977	-1035
1038.040	-2853
1038.103	-1676
1038.166	-2171
1038.229	-2126
1038.292	-1802
1038.355	-2341
1038.418	-1985
1038.481	-1802
1038.544	-2456
1038.607	-2002
1038.670	-2140
1038.732	-1899
1038.795	-2187
1038.858	-1595
1038.921	-2556
1038.984	-1428
1039.046	-2671
1039.109	-1818
1039.172	-2419
1039.234	-1621
1039.297	-2216
1039.360	-2347
1039.422	-2019
1039.485	-3039
1039.547	-2764
1039.610	-1474
1039.672	-1810
1039.734	-1549
1039.797	-1887
1039.859	-2299
1039.922	-2327
1039.984	-1610
1040.046	-1694
1040.109	-928
1040.171	-2549
1040.233	-1918
1040.295	-2737
1040.358	-2314
1040.420	-1692
1040.482	-2175
1040.544	-2315
1040.606	-2199
1040.668	-2348
1040.730	-1543
1040.792	-2078
1040.854	-1690
1040.916	-2679
1040.978	-2010
1041.040	-1719
1041.102	-2210
1041.164	-1753
1041.225	-2088
1041.287	-2472
1041.349	-2108
1041.411	-2135
1041.472	-2378
1041.534	-2557
1041.596	-2013
1041.657	-2375
1041.719	-1808
1041.781	-2336
1041.842	-2297
1041.904	-2411
1041.965	-2116
1042.027	-1989
1042.088	-2121
1042.150	-2007
1042.211	-1377
1042.272	-2238
1042.334	-2279
1042.395	-1339
1042.456	-1670
1042.518	-2261
1042.579	-2208
1042.640	-2312
1042.701	-2458
1042.763	-2619
1042.824	-2233
1042.885	-2513
1042.946	-2293
1043.007	-1983
1043.068	-1036
1043.129	-2531
1043.190	-2175
1043.251	-2181
1043.312	-1341
1043.373	-1844
1043.434	-1589
1043.495	-3263
1043.556	-2185
1043.616	-1433
1043.677	-2487
1043.738	-2320
1043.799	-2957
1043.859	-2412
1043.920	-1686
1043.981	-1810
1044.041	-2614
1044.102	-1931
1044.162	-2036
1044.223	-1667
1044.284	-2173
1044.344	-1640
1044.405	-2130
1044.465	-1520
1044.525	-1645
1044.586	-2091
1044.646	-2869
1044.707	-2175
1044.767	-1571
1044.827	-2800
1044.887	-1710
1044.948	-2394
1045.008	-2223
1045.068	-2381
1045.128	-1711
1045.188	-1685
1045.249	-1131
1045.309	-2519
1045.369	-1351
1045.429	-2249
1045.489	-1701
1045.549	-1541
1045.609	-1277
1045.669	-1622
1045.729	-1752
1045.789	-1789
1045.848	-1630
1045.908	-1613
1045.968	-1688
1046.028	-1992
1046.088	-1487
1046.147	-1779
1046.207	-1572
1046.267	-1425
1046.326	-1762
1046.386	-1107
1046.446	-1142
1046.505	-2112
1046.565	-889
1046.624	-1912
1046.684	-507
1046.743	-1578
1046.803	49
1046.862	-926
1046.922	0
