'Start Wavelength	183.907
'End Wavelength	1046.922
'Gate Delay	5.000
'Gate Width (ms)	1.050
'Laser Output Level	0.000
'X Position	0.000
'Y Position	0.000
'Z Position	0.000
'Grid Point Number	1.000
'Shot Number	100.000
183.907	-120.000
183.977	-143.000
184.047	-86
184.116	244
184.186	-7
184.256	-157
184.325	209
184.395	-564
184.465	367
184.534	-435
184.604	-236
184.674	755
184.743	-326
184.813	384
184.883	-59
184.952	160
185.022	128
185.092	-97
185.161	-188
185.231	-243
185.301	55
185.370	674
185.440	-306
185.509	-117
185.579	373
185.649	301
185.718	517
185.788	154
185.857	-454
185.927	-856
185.996	-279
186.066	971
186.136	-325
186.205	103
186.275	-2
186.344	533
186.414	395
186.483	-685
186.553	553
186.622	-45
186.692	221
186.761	356
186.831	173
186.900	179
186.970	-464
187.039	463
187.109	644
187.178	-112
187.248	511
187.317	284
187.387	-762
187.456	632
187.526	250
187.595	-238
187.664	116
187.734	221
187.803	-810
187.873	527
187.942	53
188.012	54
188.081	-181
188.150	33
188.220	-85
188.289	310
188.358	-315
188.428	-211
188.497	49
188.567	649
188.636	-764
188.705	-19
188.775	169
188.844	-737
188.913	731
188.983	256
189.052	261
189.121	-475
189.191	-237
189.260	212
189.329	619
189.399	374
189.468	389
189.537	639
189.606	231
189.676	261
189.745	160
189.814	168
189.883	57
189.953	433
190.022	-618
190.091	-819
190.161	174
190.230	145
190.299	-395
190.368	-78
190.437	383
190.507	-242
190.576	473
190.645	-163
190.714	500
190.783	-98
190.853	67
190.922	-142
190.991	8
191.060	453
191.129	-882
191.198	397
191.268	-18
191.337	518
191.406	-417
191.475	302
191.544	-505
191.613	-225
191.682	-332
191.752	272
191.821	-97
191.890	107
191.959	-481
192.028	244
192.097	-632
192.166	487
192.235	-451
192.304	352
192.373	-43
192.442	535
192.511	281
192.580	-161
192.650	-547
192.719	474
192.788	-146
192.857	637
192.926	-149
192.995	-9
193.064	678
193.133	547
193.202	-325
193.271	-642
193.340	-79
193.409	654
193.478	162
193.547	26
193.615	-316
193.684	893
193.753	94
193.822	613
193.891	329
193.960	407
194.029	-268
194.098	-185
194.167	-481
194.236	428
194.305	150
194.374	-255
194.443	-316
194.512	378
194.580	-34
194.649	-35
194.718	-187
194.787	265
194.856	-645
194.925	158
194.994	55
195.062	940
195.131	-445
195.200	-242
195.269	-165
195.338	234
195.407	-159
195.475	44
195.544	548
195.613	-405
195.682	-359
195.751	385
195.819	-130
195.888	139
195.957	217
196.026	221
196.094	718
196.163	230
196.232	576
196.301	160
196.369	-363
196.438	180
196.507	-503
196.576	756
196.644	-120
196.713	-274
196.782	-330
196.850	714
196.919	1144
196.988	616
197.056	-407
197.125	-27
197.194	444
197.262	746
197.331	-518
197.400	-599
197.468	169
197.537	-332
197.606	-542
197.674	832
197.743	76
197.812	127
197.880	960
197.949	-313
198.017	86
198.086	-854
198.155	-479
198.223	172
198.292	449
198.360	-393
198.429	-275
198.497	109
198.566	200
198.635	882
198.703	33
198.772	-208
198.840	592
198.909	6
198.977	482
199.046	-395
199.114	-170
199.183	364
199.251	23
199.320	-292
199.388	-87
199.457	-380
199.525	216
199.594	-127
199.662	13
199.731	265
199.799	-150
199.867	485
199.936	-792
200.004	747
200.073	-566
200.141	-296
200.210	-419
200.278	-185
200.346	279
200.415	234
200.483	-435
200.552	614
200.620	-191
200.688	411
200.757	-107
200.825	-3
200.893	-84
200.962	404
201.030	-385
201.098	301
201.167	500
201.235	-408
201.303	-568
201.372	65
201.440	440
201.508	-150
201.577	234
201.645	279
201.713	539
201.781	318
201.850	-160
201.918	86
201.986	-347
202.055	230
202.123	-446
202.191	45
202.259	328
202.327	87
202.396	298
202.464	-288
202.532	-597
202.600	274
202.669	-363
202.737	170
202.805	-792
202.873	468
202.941	-215
203.009	85
203.078	-608
203.146	460
203.214	-792
203.282	215
203.350	360
203.418	188
203.487	-36
203.555	-129
203.623	-659
203.691	503
203.759	137
203.827	-332
203.895	0
203.963	-447
204.031	-167
204.099	251
204.168	-526
204.236	792
204.304	-889
204.372	294
204.440	236
204.508	-52
204.576	-887
204.644	254
204.712	-504
204.780	274
204.848	53
204.916	77
204.984	-308
205.052	-236
205.120	-228
205.188	-58
205.256	-719
205.324	-646
205.392	-276
205.460	231
205.528	-608
205.596	56
205.664	-242
205.732	272
205.799	-81
205.867	1035
205.935	-373
206.003	620
206.071	-726
206.139	-1305
206.207	-29
206.275	46
206.343	-220
206.411	132
206.478	-489
206.546	596
206.614	-128
206.682	445
206.750	-482
206.818	375
206.885	-249
206.953	-939
207.021	995
207.089	273
207.157	-384
207.225	115
207.292	32
207.360	-440
207.428	-80
207.496	198
207.563	-84
207.631	11
207.699	-480
207.767	311
207.834	-868
207.902	-772
207.970	-496
208.038	-601
208.105	-427
208.173	149
208.241	-519
208.309	-30
208.376	-1147
208.444	410
208.512	-271
208.579	-893
208.647	88
208.715	1057
208.782	-218
208.850	643
208.918	-828
208.985	47
209.053	73
209.120	-466
209.188	-83
209.256	286
209.323	-1228
209.391	-153
209.459	942
209.526	312
209.594	-728
209.661	-500
209.729	-83
209.796	290
209.864	-459
209.932	-726
209.999	1252
210.067	217
210.134	-117
210.202	201
210.269	142
210.337	1186
210.404	600
210.472	318
210.539	497
210.607	-1143
210.674	397
210.742	420
210.809	-31
210.877	123
210.944	535
211.012	-1187
211.079	802
211.146	-117
211.214	304
211.281	563
211.349	1030
211.416	372
211.484	-313
211.551	-237
211.618	-446
211.686	12
211.753	-670
211.821	868
211.888	-350
211.955	-187
212.023	76
212.090	-464
212.157	-34
212.225	158
212.292	231
212.359	923
212.427	1448
212.494	925
212.561	202
212.629	-253
212.696	-120
212.763	134
212.831	-164
212.898	-29
212.965	-361
213.032	588
213.100	-581
213.167	-36
213.234	-76
213.301	607
213.369	-845
213.436	-220
213.503	-255
213.570	221
213.638	-514
213.705	-561
213.772	-512
213.839	-226
213.906	1003
213.973	197
214.041	-480
214.108	784
214.175	-16
214.242	141
214.309	290
214.376	-222
214.444	-364
214.511	29
214.578	-529
214.645	724
214.712	265
214.779	-91
214.846	-640
214.913	129
214.980	-257
215.048	-115
215.115	1049
215.182	931
215.249	442
215.316	457
215.383	383
215.450	590
215.517	-375
215.584	-72
215.651	-522
215.718	-338
215.785	-207
215.852	-979
215.919	148
215.986	654
216.053	-534
216.120	-345
216.187	-431
216.254	771
216.321	-91
216.388	471
216.455	383
216.522	1182
216.589	561
216.656	713
216.722	-206
216.789	709
216.856	719
216.923	11
216.990	-115
217.057	-312
217.124	293
217.191	-60
217.258	222
217.324	8
217.391	813
217.458	450
217.525	234
217.592	248
217.659	-1532
217.725	184
217.792	-261
217.859	1307
217.926	-1209
217.993	214
218.059	-285
218.126	27
218.193	-513
218.260	-243
218.327	-697
218.393	-556
218.460	-175
218.527	-468
218.594	-151
218.660	-676
218.727	301
218.794	-242
218.860	494
218.927	-37
218.994	-29
219.061	-518
219.127	179
219.194	-351
219.261	-660
219.327	292
219.394	466
219.461	-498
219.527	-333
219.594	483
219.661	-752
219.727	-739
219.794	715
219.860	-318
219.927	95
219.994	1226
220.060	1596
220.127	2314
220.193	1414
220.260	92
220.326	733
220.393	473
220.460	248
220.526	443
220.593	-503
220.659	723
220.726	261
220.792	1406
220.859	408
220.925	1229
220.992	682
221.058	1198
221.125	1605
221.191	561
221.258	-37
221.324	535
221.391	69
221.457	192
221.524	-481
221.590	1486
221.657	1199
221.723	333
221.789	4
221.856	1472
221.922	31
221.989	1173
222.055	481
222.121	-912
222.188	1325
222.254	-10
222.321	632
222.387	-493
222.453	-91
222.520	25
222.586	-571
222.652	170
222.719	-252
222.785	589
222.851	-711
222.918	384
222.984	523
223.050	-676
223.116	-1302
223.183	-53
223.249	-219
223.315	-130
223.382	-251
223.448	-258
223.514	-358
223.580	170
223.647	-855
223.713	-372
223.779	-743
223.845	-219
223.911	-638
223.978	-26
224.044	-149
224.110	-616
224.176	-146
224.242	-97
224.309	-560
224.375	-107
224.441	381
224.507	-212
224.573	-991
224.639	413
224.705	-568
224.772	305
224.838	-637
224.904	178
224.970	-177
225.036	-274
225.102	-208
225.168	911
225.234	610
225.300	331
225.366	773
225.432	-350
225.499	-135
225.565	-437
225.631	-1119
225.697	-553
225.763	163
225.829	-200
225.895	-709
225.961	751
226.027	-15
226.093	27
226.159	531
226.225	327
226.291	1363
226.357	2281
226.423	403
226.489	144
226.554	-367
226.620	-21
226.686	-205
226.752	788
226.818	865
226.884	4039
226.950	2871
227.016	1431
227.082	916
227.148	299
227.214	333
227.279	1610
227.345	-115
227.411	857
227.477	1240
227.543	3587
227.609	3119
227.674	2753
227.740	445
227.806	1611
227.872	-391
227.938	578
228.003	361
228.069	63
228.135	-506
228.201	164
228.267	-491
228.332	171
228.398	-1746
228.464	703
228.530	-254
228.595	-355
228.661	-955
228.727	-653
228.792	241
228.858	-833
228.924	-2683
228.990	1733
229.055	-1357
229.121	-228
229.187	-483
229.252	-1119
229.318	-1301
229.384	538
229.449	-977
229.515	-1879
229.581	-699
229.646	1324
229.712	-125
229.777	-558
229.843	-145
229.909	-151
229.974	24
230.040	-336
230.105	127
230.171	-692
230.236	477
230.302	111
230.368	21
230.433	-461
230.499	79
230.564	-234
230.630	65
230.695	-143
230.761	790
230.826	-1340
230.892	55
230.957	-809
231.023	48
231.088	664
231.154	-423
231.219	-242
231.284	-808
231.350	577
231.415	-1129
231.481	192
231.546	-455
231.612	99
231.677	-638
231.742	-711
231.808	758
231.873	-785
231.939	-2107
232.004	1198
232.069	419
232.135	-333
232.200	-227
232.265	-24
232.331	-175
232.396	-322
232.461	-571
232.527	-1078
232.592	-1051
232.657	-305
232.723	-1179
232.788	-347
232.853	-718
232.918	111
232.984	-695
233.049	-223
233.114	-755
233.179	-79
233.245	218
233.310	810
233.375	-1479
233.440	-45
233.506	-1035
233.571	-547
233.636	-710
233.701	492
233.766	-427
233.832	50
233.897	-1050
233.962	-1272
234.027	620
234.092	335
234.157	-706
234.222	-289
234.288	72
234.353	939
234.418	121
234.483	742
234.548	-441
234.613	329
234.678	-250
234.743	-218
234.808	699
234.873	-1260
234.938	588
235.004	321
235.069	12
235.134	-148
235.199	-275
235.264	-311
235.329	-1177
235.394	1032
235.459	467
235.524	-1072
235.589	-91
235.654	-142
235.719	-1176
235.784	416
235.849	-541
235.913	97
235.978	451
236.043	-697
236.108	-355
236.173	-576
236.238	731
236.303	-113
236.368	-931
236.433	207
236.498	-695
236.563	505
236.627	941
236.692	4438
236.757	3922
236.822	996
236.887	13
236.952	936
237.017	-1632
237.081	1580
237.146	-493
237.211	1982
237.276	4686
237.341	9134
237.405	2282
237.470	1609
237.535	-9
237.600	1124
237.664	245
237.729	-1019
237.794	-852
237.859	277
237.923	899
237.988	-111
238.053	103
238.118	-104
238.182	1214
238.247	2018
238.312	-536
238.376	475
238.441	-1543
238.506	594
238.570	-1564
238.635	1131
238.700	-39
238.764	-870
238.829	145
238.893	2
238.958	324
239.023	-175
239.087	121
239.152	403
239.216	-353
239.281	777
239.346	83
239.410	-210
239.475	-877
239.539	1806
239.604	270
239.668	1694
239.733	1131
239.797	4022
239.862	7184
239.926	5629
239.991	2876
240.055	1341
240.120	214
240.184	605
240.249	387
240.313	-16
240.378	-63
240.442	-125
240.507	-186
240.571	-82
240.635	-15
240.700	37
240.764	-661
240.829	-544
240.893	-1267
240.957	676
241.022	71
241.086	842
241.151	-218
241.215	-1275
241.279	657
241.344	-563
241.408	77
241.472	-828
241.537	554
241.601	242
241.665	-1169
241.730	-533
241.794	149
241.858	-95
241.922	-19
241.987	482
242.051	-263
242.115	-942
242.179	-384
242.244	-676
242.308	381
242.372	-376
242.436	-660
242.501	1046
242.565	-1169
242.629	-161
242.693	-66
242.757	-660
242.822	-197
242.886	110
242.950	470
243.014	-790
243.078	-186
243.142	238
243.206	-704
243.271	445
243.335	-787
243.399	1054
243.463	2027
243.527	7370
243.591	847
243.655	766
243.719	-1046
243.783	963
243.847	177
243.911	1266
243.975	46
244.040	-690
244.104	583
244.168	-18
244.232	-567
244.296	317
244.360	225
244.424	-910
244.488	-123
244.552	555
244.615	-2027
244.679	-146
244.743	-208
244.807	-1397
244.871	23
244.935	546
244.999	-612
245.063	-184
245.127	575
245.191	649
245.255	-146
245.319	61
245.383	-1500
245.446	1322
245.510	-618
245.574	7
245.638	458
245.702	-877
245.766	282
245.829	500
245.893	-1211
245.957	-783
246.021	242
246.085	-860
246.149	-70
246.212	1507
246.276	604
246.340	-611
246.404	822
246.467	1090
246.531	-1764
246.595	410
246.659	905
246.722	-579
246.786	-826
246.850	447
246.913	-18
246.977	-1576
247.041	-187
247.104	-118
247.168	-58
247.232	413
247.295	1389
247.359	544
247.423	-1245
247.486	278
247.550	540
247.614	-286
247.677	-27
247.741	-86
247.804	396
247.868	2175
247.932	406
247.995	2183
248.059	472
248.122	-574
248.186	683
248.249	911
248.313	3436
248.376	3459
248.440	245
248.503	-811
248.567	1595
248.630	-1201
248.694	24
248.757	1033
248.821	3405
248.884	3704
248.948	1487
249.011	2606
249.075	3958
249.138	3475
249.202	961
249.265	-699
249.328	599
249.392	116
249.455	150
249.519	1025
249.582	-505
249.645	-90
249.709	3
249.772	-311
249.835	-211
249.899	-94
249.962	539
250.025	-855
250.089	890
250.152	2163
250.215	821
250.279	-491
250.342	195
250.405	1160
250.468	-683
250.532	-75
250.595	2062
250.658	6058
250.721	11931
250.785	2362
250.848	1912
250.911	-147
250.974	1006
251.038	1151
251.101	1977
251.164	443
251.227	372
251.290	1392
251.354	1983
251.417	9929
251.480	8813
251.543	6397
251.606	19279
251.669	13238
251.732	4381
251.795	3890
251.859	3609
251.922	11749
251.985	6021
252.048	2318
252.111	721
252.174	651
252.237	1993
252.300	5105
252.363	3869
252.426	15448
252.489	3947
252.552	2246
252.615	-200
252.678	2100
252.741	3295
252.804	5252
252.867	14604
252.930	7253
252.993	2103
253.056	1864
253.119	465
253.182	156
253.245	654
253.308	1461
253.371	188
253.434	290
253.497	999
253.559	2863
253.622	226
253.685	-7
253.748	43
253.811	340
253.874	987
253.937	354
254.000	597
254.062	724
254.125	642
254.188	2485
254.251	167
254.314	291
254.376	-386
254.439	199
254.502	893
254.565	874
254.628	1997
254.690	261
254.753	-247
254.816	-99
254.878	77
254.941	1408
255.004	813
255.067	133
255.129	-1257
255.192	-89
255.255	-1369
255.317	428
255.380	22
255.443	74
255.505	-823
255.568	-139
255.631	-58
255.693	484
255.756	-440
255.819	1515
255.881	-825
255.944	637
256.006	-457
256.069	-497
256.132	-832
256.194	-523
256.257	371
256.319	510
256.382	781
256.444	1339
256.507	692
256.569	211
256.632	-291
256.694	-260
256.757	1130
256.819	8226
256.882	1492
256.944	826
257.007	473
257.069	-414
257.132	-590
257.194	836
257.257	-194
257.319	-326
257.381	-331
257.444	2857
257.506	9308
257.569	9393
257.631	3261
257.693	1071
257.756	523
257.818	549
257.880	-631
257.943	741
258.005	-215
258.067	373
258.130	236
258.192	-34
258.254	-537
258.317	-523
258.379	366
258.441	95
258.503	987
258.566	990
258.628	1355
258.690	-555
258.753	196
258.815	-284
258.877	-203
258.939	219
259.001	53
259.064	-690
259.126	-929
259.188	-219
259.250	-147
259.312	-99
259.375	-459
259.437	-235
259.499	-100
259.561	-184
259.623	61
259.685	-548
259.747	-599
259.809	877
259.872	1593
259.934	2909
259.996	2731
260.058	1267
260.120	-493
260.182	-396
260.244	-159
260.306	90
260.368	12
260.430	-1392
260.492	-191
260.554	967
260.616	-752
260.678	705
260.740	1075
260.802	47
260.864	-244
260.926	-554
260.988	1157
261.050	71
261.112	-276
261.174	1921
261.236	1016
261.298	-499
261.359	-167
261.421	1141
261.483	-871
261.545	1312
261.607	-977
261.669	166
261.731	399
261.793	890
261.854	-1038
261.916	898
261.978	-939
262.040	573
262.102	155
262.164	-794
262.225	346
262.287	256
262.349	-241
262.411	-778
262.472	-321
262.534	-633
262.596	276
262.658	404
262.719	-447
262.781	-228
262.843	-459
262.904	504
262.966	-5
263.028	244
263.090	2582
263.151	7406
263.213	1697
263.275	-318
263.336	-366
263.398	176
263.459	-692
263.521	-550
263.583	-426
263.644	758
263.706	194
263.767	-647
263.829	-20
263.891	-127
263.952	-519
264.014	-692
264.075	-799
264.137	593
264.198	396
264.260	-674
264.321	-348
264.383	-222
264.444	1413
264.506	72
264.567	270
264.629	477
264.690	-347
264.752	674
264.813	-431
264.875	-107
264.936	419
264.998	835
265.059	949
265.120	970
265.182	-57
265.243	3224
265.305	3417
265.366	803
265.427	221
265.489	-163
265.550	-815
265.611	798
265.673	-374
265.734	923
265.795	20
265.857	-385
265.918	-151
265.979	801
266.040	6010
266.102	5939
266.163	621
266.224	-87
266.286	-32
266.347	-1011
266.408	-79
266.469	-92
266.530	39
266.592	446
266.653	230
266.714	471
266.775	-128
266.836	-393
266.898	-811
266.959	-466
267.020	-802
267.081	887
267.142	-655
267.203	-462
267.264	-1447
267.326	1134
267.387	-906
267.448	-593
267.509	5
267.570	-26
267.631	-822
267.692	-1009
267.753	-295
267.814	-455
267.875	-339
267.936	470
267.997	-233
268.058	-127
268.119	-83
268.180	-468
268.241	-947
268.302	-167
268.363	-1496
268.424	-673
268.485	340
268.546	-559
268.607	457
268.668	-340
268.729	-637
268.790	-167
268.851	-210
268.912	361
268.972	-406
269.033	-631
269.094	-974
269.155	-526
269.216	-159
269.277	-368
269.338	75
269.398	199
269.459	-610
269.520	-72
269.581	-33
269.642	-317
269.702	-639
269.763	311
269.824	-836
269.885	-428
269.945	-883
270.006	19
270.067	-763
270.128	-197
270.188	-419
270.249	-45
270.310	-160
270.370	330
270.431	-680
270.492	-991
270.553	-341
270.613	-523
270.674	392
270.734	119
270.795	-505
270.856	50
270.916	-395
270.977	14
271.038	66
271.098	-273
271.159	-190
271.219	-314
271.280	-85
271.340	204
271.401	-1512
271.462	-1083
271.522	-663
271.583	-37
271.643	-764
271.704	-494
271.764	30
271.825	1036
271.885	3214
271.946	3558
272.006	798
272.066	1295
272.127	3943
272.187	4723
272.248	2111
272.308	718
272.369	2633
272.429	707
272.489	85
272.550	253
272.610	-87
272.671	-285
272.731	-195
272.791	217
272.852	-776
272.912	1550
272.972	370
273.033	-44
273.093	-630
273.153	189
273.214	-197
273.274	-607
273.334	915
273.394	3172
273.455	186
273.515	970
273.575	1743
273.635	36
273.696	1189
273.756	2291
273.816	914
273.876	111
273.936	439
273.997	1837
274.057	-967
274.117	-57
274.177	488
274.237	3196
274.297	2620
274.358	703
274.418	1843
274.478	1264
274.538	274
274.598	-80
274.658	1145
274.718	1234
274.778	476
274.838	264
274.898	356
274.958	2381
275.018	2714
275.078	1279
275.138	359
275.198	-85
275.258	-1287
275.318	-102
275.378	-491
275.438	-53
275.498	-24
275.558	640
275.618	2114
275.678	1646
275.738	604
275.798	619
275.858	-360
275.918	-660
275.978	92
276.038	169
276.098	-39
276.157	490
276.217	2185
276.277	12
276.337	-357
276.397	-476
276.457	45
276.517	82
276.576	-125
276.636	450
276.696	-139
276.756	529
276.815	-247
276.875	-364
276.935	-960
276.995	-267
277.055	353
277.114	1268
277.174	-55
277.234	941
277.293	-76
277.353	224
277.413	-714
277.472	-235
277.532	-171
277.592	490
277.651	1874
277.711	3210
277.771	276
277.830	4226
277.890	3274
277.950	2386
278.009	9082
278.069	3471
278.128	3114
278.188	4210
278.248	1232
278.307	4893
278.367	2570
278.426	-57
278.486	441
278.545	889
278.605	-141
278.664	176
278.724	-570
278.783	1354
278.843	3556
278.902	723
278.962	326
279.021	824
279.081	787
279.140	561
279.199	-217
279.259	229
279.318	449
279.378	1834
279.437	2775
279.496	8355
279.556	38440
279.615	24904
279.675	5637
279.734	3282
279.793	3445
279.853	5252
279.912	2683
279.971	1316
280.031	928
280.090	2436
280.149	2507
280.208	3772
280.268	24045
280.327	22205
280.386	3881
280.445	2574
280.505	1034
280.564	769
280.623	-141
280.682	288
280.742	1525
280.801	-57
280.860	491
280.919	210
280.978	697
281.037	-467
281.097	66
281.156	318
281.215	-274
281.274	240
281.333	1969
281.392	1044
281.451	-530
281.510	-31
281.569	-26
281.628	-17
281.688	554
281.747	742
281.806	178
281.865	51
281.924	-536
281.983	-149
282.042	-701
282.101	145
282.160	102
282.219	-702
282.278	-171
282.337	911
282.396	575
282.454	400
282.513	626
282.572	845
282.631	286
282.690	-169
282.749	-901
282.808	-175
282.867	-647
282.926	-238
282.985	-362
283.043	-133
283.102	-730
283.161	424
283.220	83
283.279	1922
283.338	13
283.396	-940
283.455	-48
283.514	614
283.573	509
283.631	218
283.690	438
283.749	-172
283.808	632
283.866	555
283.925	69
283.984	886
284.043	-439
284.101	10
284.160	-575
284.219	460
284.277	398
284.336	825
284.395	2227
284.453	1793
284.512	709
284.570	887
284.629	512
284.688	532
284.746	729
284.805	738
284.863	910
284.922	2349
284.981	1921
285.039	2964
285.098	6645
285.156	15830
285.215	38922
285.273	35331
285.332	18369
285.390	9160
285.449	5332
285.507	3980
285.566	2145
285.624	1437
285.683	1514
285.741	880
285.799	779
285.858	-13
285.916	210
285.975	-4
286.033	-11
286.091	259
286.150	27
286.208	773
286.267	18
286.325	395
286.383	-65
286.442	1128
286.500	-483
286.558	1041
286.616	-78
286.675	997
286.733	-26
286.791	-38
286.850	140
286.908	354
286.966	633
287.024	230
287.083	-247
287.141	146
287.199	385
287.257	1330
287.315	441
287.374	-136
287.432	554
287.490	941
287.548	250
287.606	433
287.664	-51
287.723	899
287.781	757
287.839	735
287.897	801
287.955	841
288.013	1740
288.071	2489
288.129	13054
288.187	39917
288.245	17810
288.303	5189
288.361	2830
288.419	1584
288.477	1180
288.535	598
288.593	662
288.651	430
288.709	297
288.767	259
288.825	-361
288.883	486
288.941	439
288.999	552
289.057	81
289.115	-271
289.173	147
289.231	547
289.289	-58
289.346	415
289.404	990
289.462	18
289.520	266
289.578	760
289.636	52
289.694	25
289.751	-86
289.809	359
289.867	381
289.925	875
289.983	518
290.040	668
290.098	-90
290.156	278
290.214	581
290.271	-82
290.329	732
290.387	1023
290.444	-122
290.502	209
290.560	394
290.617	773
290.675	104
290.733	375
290.790	942
290.848	767
290.906	-417
290.963	744
291.021	421
291.078	518
291.136	-189
291.194	874
291.251	1516
291.309	858
291.366	48
291.424	-149
291.481	-198
291.539	723
291.596	23
291.654	269
291.711	-173
291.769	-216
291.826	240
291.884	1604
291.941	118
291.999	218
292.056	140
292.114	204
292.171	-409
292.228	1097
292.286	211
292.343	-94
292.401	782
292.458	976
292.515	-7
292.573	1094
292.630	849
292.687	360
292.745	73
292.802	104
292.859	721
292.917	1298
292.974	565
293.031	50
293.089	-152
293.146	354
293.203	691
293.260	-107
293.318	-115
293.375	253
293.432	320
293.489	576
293.546	44
293.604	122
293.661	1544
293.718	4300
293.775	1590
293.832	269
293.889	732
293.947	1144
294.004	-52
294.061	-102
294.118	536
294.175	1818
294.232	1942
294.289	1012
294.346	385
294.403	984
294.460	760
294.517	204
294.574	648
294.631	425
294.688	80
294.745	1638
294.802	4432
294.859	4197
294.916	739
294.973	-325
295.030	-421
295.087	958
295.144	731
295.201	611
295.258	312
295.315	401
295.372	1117
295.429	3045
295.486	1175
295.542	749
295.599	2018
295.656	2987
295.713	1643
295.770	3100
295.827	657
295.883	952
295.940	823
295.997	695
296.054	-118
296.111	6
296.167	226
296.224	154
296.281	-315
296.338	440
296.394	721
296.451	-39
296.508	381
296.564	1457
296.621	941
296.678	3610
296.734	4711
296.791	2019
296.848	292
296.904	497
296.961	1103
297.018	3657
297.074	2135
297.131	1272
297.187	1300
297.244	947
297.301	3161
297.357	7248
297.414	2060
297.470	1461
297.527	1250
297.583	1105
297.640	478
297.696	1065
297.753	582
297.809	-151
297.866	89
297.922	260
297.979	313
298.035	-133
298.092	-3
298.148	2231
298.204	1085
298.261	762
298.317	1197
298.374	4438
298.430	2160
298.486	1175
298.543	1228
298.599	1047
298.656	-14
298.712	1067
298.768	3189
298.824	2676
298.881	898
298.937	914
298.993	482
299.050	126
299.106	969
299.162	757
299.218	483
299.275	179
299.331	958
299.387	1429
299.443	5159
299.500	12106
299.556	8275
299.612	3852
299.668	3045
299.724	9545
299.780	11195
299.837	3568
299.893	3678
299.949	8056
300.005	11069
300.061	9173
300.117	13940
300.173	7102
300.229	2665
300.285	2111
300.341	1260
300.397	1388
300.453	424
300.510	1135
300.566	2106
300.622	3597
300.678	14309
300.734	18883
300.790	8865
300.845	7728
300.901	7358
300.957	13955
301.013	6256
301.069	2292
301.125	1730
301.181	868
301.237	842
301.293	978
301.349	427
301.405	50
301.461	-35
301.516	906
301.572	-231
301.628	828
301.684	690
301.740	1156
301.796	1497
301.851	1458
301.907	1813
301.963	1436
302.019	3777
302.074	12380
302.130	10686
302.186	4797
302.242	1511
302.297	1485
302.353	1082
302.409	1655
302.464	903
302.520	1285
302.576	3064
302.631	4077
302.687	1866
302.743	1352
302.798	828
302.854	124
302.910	365
302.965	-226
303.021	540
303.076	1385
303.132	1088
303.187	506
303.243	734
303.299	370
303.354	323
303.410	887
303.465	-184
303.521	4
303.576	-34
303.632	509
303.687	851
303.743	3862
303.798	2846
303.853	1129
303.909	554
303.964	121
304.020	666
304.075	85
304.130	330
304.186	1303
304.241	1503
304.297	1419
304.352	57
304.358	100
304.407	445
304.449	373
304.463	355
304.518	372
304.539	284
304.573	105
304.629	350
304.630	352
304.684	527
304.720	1841
304.739	2492
304.794	4133
304.811	3758
304.850	2876
304.902	1363
304.905	1260
304.960	1125
304.992	787
305.015	552
305.071	372
305.083	408
305.126	543
305.173	-7
305.181	-93
305.236	-692
305.264	47
305.292	737
305.347	601
305.354	540
305.402	308
305.445	276
305.457	222
305.512	944
305.535	826
305.567	772
305.622	441
305.626	483
305.678	1291
305.716	2554
305.733	2987
305.788	3735
305.807	3020
305.843	1895
305.897	3898
305.898	3920
305.953	3452
305.988	2333
306.008	1804
306.063	839
306.078	634
306.118	62
306.168	281
306.173	308
306.228	147
306.259	133
306.283	170
306.338	255
306.349	300
306.393	319
306.440	182
306.448	210
306.503	817
306.530	969
306.558	1057
306.613	821
306.620	928
306.668	1793
306.711	2298
306.723	2255
306.778	1658
306.801	1468
306.833	1594
306.888	606
306.892	582
306.943	305
306.982	624
306.997	678
307.052	132
307.072	36
307.107	32
307.162	681
307.163	679
307.217	843
307.253	1159
307.272	1132
307.327	47
307.343	57
307.381	450
307.434	678
307.436	704
307.491	1572
307.524	2254
307.546	2365
307.600	2011
307.614	1800
307.655	1385
307.704	692
307.710	665
307.765	1041
307.795	1597
307.819	1891
307.874	2106
307.885	2084
307.929	2121
307.975	2543
307.984	2729
308.038	3596
308.065	4254
308.093	7952
308.148	18179
308.156	20579
308.202	30943
308.246	36581
308.257	35516
308.312	17454
308.336	10721
308.366	7201
308.421	4261
308.426	4037
308.475	2930
308.517	2283
308.530	2071
308.585	1220
308.607	1074
308.639	946
308.694	1079
308.697	1071
308.748	1951
308.787	3153
308.803	3212
308.857	2566
308.877	2268
308.912	2016
308.967	2072
308.967	2074
309.021	3327
309.058	4161
309.076	5282
309.130	9321
309.148	11023
309.185	24588
309.238	49019
309.239	49101
309.293	49720
309.328	41697
309.348	35104
309.402	14829
309.418	10055
309.457	7061
309.508	5086
309.511	5010
309.566	4079
309.598	4118
309.620	4427
309.674	5090
309.688	5268
309.729	5027
309.778	4537
309.783	4460
309.837	3033
309.868	2670
309.892	2950
309.946	3207
309.959	3424
310.001	4107
310.049	4358
310.055	4189
310.109	2710
310.139	1713
310.163	1393
310.218	1183
310.229	1089
310.272	1480
310.319	2112
310.326	2024
310.381	1060
310.409	713
310.435	840
310.489	892
310.499	932
310.543	967
310.589	858
310.598	913
310.652	1455
310.679	1623
310.706	1522
310.760	1335
310.769	1297
310.814	1602
310.859	1957
310.868	1944
310.923	1779
310.948	1644
310.977	1517
311.031	1305
311.038	1295
311.085	1073
311.128	650
311.139	754
311.193	1394
311.218	1619
311.247	1393
311.301	1219
311.308	1169
311.356	1184
311.398	1214
311.410	1200
311.464	1097
311.488	1092
311.518	1165
311.572	1146
311.578	1152
311.626	1506
311.668	1778
311.680	1789
311.734	1841
311.758	1831
311.788	1667
311.842	1421
311.847	1388
311.896	1981
311.937	2528
311.950	2416
312.004	1878
312.027	1643
312.058	1846
312.112	2202
312.117	2233
312.165	1916
312.207	1641
312.297	1463
312.386	1636
312.476	1360
312.566	2133
312.656	1505
312.745	1325
312.835	2189
312.925	1662
313.015	1715
313.104	1471
313.194	2154
313.284	2464
313.374	3117
313.463	2782
313.553	1906
313.643	2570
313.732	2329
313.822	2076
313.912	2804
314.001	3004
314.091	3220
314.180	3357
314.270	3720
314.360	3030
314.449	3386
314.539	2529
314.628	3038
314.718	3356
314.808	3369
314.897	3666
314.987	4125
315.076	3973
315.166	4433
315.255	3600
315.345	5155
315.434	3541
315.524	4555
315.613	4286
315.703	6558
315.792	18527
315.881	59125
315.971	15912
316.060	5557
316.150	4666
316.239	4131
316.328	3045
316.418	4042
316.507	3698
316.597	5323
316.686	3861
316.775	4319
316.865	4777
316.954	3190
317.043	2743
317.133	2254
317.222	2830
317.311	3001
317.400	1941
317.490	3884
317.579	3504
317.668	5444
317.757	8771
317.847	33048
317.936	82951
318.025	24155
318.114	24730
318.203	9658
318.293	4899
318.382	6545
318.471	6320
318.560	6889
318.649	7740
318.738	3426
318.828	2851
318.917	1844
319.006	2193
319.095	3172
319.184	7891
319.273	3931
319.362	1884
319.451	2479
319.540	1630
319.629	2742
319.718	3278
319.807	3555
319.896	3426
319.985	9501
320.074	3673
320.163	2700
320.252	2119
320.341	2586
320.430	2755
320.519	3345
320.608	2786
320.697	3997
320.786	4201
320.875	4637
320.964	5756
321.053	5570
321.142	6594
321.230	8369
321.319	7861
321.408	9895
321.497	7868
321.586	8033
321.675	5796
321.764	5526
321.852	6123
321.941	7162
322.030	5839
322.119	6483
322.207	10129
322.296	10380
322.385	10768
322.474	12237
322.562	13351
322.651	8365
322.740	7913
322.829	7062
322.917	5508
323.006	5066
323.095	4944
323.183	4480
323.272	3376
323.361	5510
323.449	8250
323.538	3983
323.626	5826
323.715	4441
323.804	3273
323.892	4815
323.981	2450
324.069	3075
324.158	3574
324.246	3724
324.335	2442
324.424	3227
324.512	3088
324.601	2618
324.689	2829
324.778	3548
324.866	2496
324.954	2576
325.043	1351
325.131	1877
325.220	3611
325.308	2831
325.397	2007
325.485	3424
325.574	1683
325.662	2274
325.750	1305
325.839	2354
325.927	1548
326.015	2519
326.104	1866
326.192	2923
326.280	1758
326.369	2096
326.457	2277
326.545	3055
326.634	1291
326.722	2517
326.810	2175
326.898	3156
326.987	2780
327.075	1686
327.163	3554
327.251	2363
327.340	2939
327.428	4116
327.516	4469
327.604	3450
327.692	1930
327.781	1910
327.869	1699
327.957	2227
328.045	1137
328.133	2154
328.221	1510
328.309	1623
328.397	1289
328.485	1958
328.574	4158
328.662	6533
328.750	4253
328.838	2816
328.926	1862
329.014	1696
329.102	1569
329.190	2600
329.278	1646
329.366	2327
329.454	1721
329.542	1402
329.630	979
329.718	2040
329.806	1426
329.893	1968
329.981	1454
330.069	1402
330.157	1234
330.245	1873
330.333	1094
330.421	2041
330.509	2064
330.597	3177
330.684	1196
330.772	2359
330.860	1664
330.948	2732
331.036	1868
331.123	1307
331.211	1503
331.299	1725
331.387	2196
331.475	2777
331.562	1623
331.650	2224
331.738	1541
331.825	2004
331.913	1831
332.001	2283
332.089	1887
332.176	2746
332.264	3023
332.352	1836
332.439	1870
332.527	2064
332.614	1594
332.702	1812
332.790	1568
332.877	2509
332.965	3228
333.052	3132
333.140	2758
333.228	3834
333.315	1222
333.403	2457
333.490	2863
333.578	2481
333.665	4073
333.753	3972
333.840	1790
333.928	3961
334.015	4316
334.103	6488
334.190	12563
334.278	10416
334.365	13287
334.452	12868
334.540	8621
334.627	8001
334.715	10441
334.802	16350
334.889	28965
334.977	35093
335.064	19742
335.151	10921
335.239	7211
335.326	7032
335.413	9978
335.501	10086
335.588	6819
335.675	8048
335.762	9284
335.850	13375
335.937	18249
336.024	30809
336.111	49471
336.199	40683
336.286	17196
336.373	10864
336.460	6598
336.547	5769
336.635	5182
336.722	4352
336.809	4065
336.896	3979
336.983	5393
337.070	8903
337.157	10597
337.245	6879
337.332	4792
337.419	3962
337.506	3752
337.593	2995
337.680	4675
337.767	7205
337.854	3194
337.941	4118
338.028	2775
338.115	2067
338.202	4344
338.289	4090
338.376	5330
338.463	3108
338.550	3967
338.637	5133
338.724	2885
338.811	3024
338.898	2064
338.984	2079
339.071	1645
339.158	2413
339.245	2820
339.332	2262
339.419	2778
339.506	2666
339.593	1054
339.679	2602
339.766	2164
339.853	1496
339.940	1933
340.027	2338
340.113	1651
340.200	2690
340.287	1058
340.374	2283
340.460	2248
340.547	1326
340.634	2200
340.720	4012
340.807	1870
340.894	2177
340.980	1614
341.067	2662
341.154	1994
341.240	2434
341.327	2098
341.414	2721
341.500	1195
341.587	2537
341.674	2403
341.760	2355
341.847	2220
341.933	2089
342.020	1302
342.106	1368
342.193	2649
342.279	2059
342.366	1883
342.452	2253
342.539	2222
342.625	2833
342.712	3683
342.798	2786
342.885	1399
342.971	2281
343.058	1584
343.144	2047
343.230	1719
343.317	1754
343.403	1340
343.490	2222
343.576	1715
343.662	2265
343.749	1688
343.835	2285
343.921	2672
344.008	10841
344.094	17977
344.180	4284
344.267	1886
344.353	4479
344.439	4618
344.525	2725
344.612	2079
344.698	2807
344.784	1283
344.870	2679
344.957	1313
345.043	2565
345.129	1201
345.215	2183
345.301	2076
345.387	1824
345.474	1036
345.560	1458
345.646	1049
345.732	2297
345.818	1188
345.904	1886
345.990	1501
346.076	2699
346.162	1520
346.249	2535
346.335	1649
346.421	2338
346.507	3289
346.593	6382
346.679	1395
346.765	2791
346.851	3911
346.937	2683
347.023	2793
347.108	1921
347.194	1966
347.280	2720
347.366	3198
347.452	10911
347.538	14810
347.624	9084
347.710	4973
347.796	2340
347.882	2045
347.967	1548
348.053	1145
348.139	2369
348.225	2227
348.311	1771
348.397	2231
348.482	3012
348.568	2688
348.654	4287
348.740	13060
348.825	11663
348.911	5495
348.997	5735
349.083	8622
349.168	3130
349.254	2494
349.340	3002
349.425	1377
349.511	1813
349.597	1809
349.682	2717
349.768	4258
349.854	3310
349.939	1842
350.025	969
350.110	2174
350.196	1751
350.282	1077
350.367	2264
350.453	1618
350.538	1965
350.624	1023
350.709	2932
350.795	1329
350.880	1044
350.966	1898
351.051	2706
351.137	2228
351.222	2127
351.308	2944
351.393	3050
351.479	1180
351.564	749
351.649	2080
351.735	2504
351.820	1504
351.906	1310
351.991	1881
352.076	2984
352.162	3303
352.247	2651
352.332	1976
352.418	1881
352.503	1704
352.588	4067
352.673	2377
352.759	2432
352.844	1483
352.929	2422
353.014	1387
353.100	2864
353.185	2385
353.270	1619
353.355	2398
353.441	2060
353.526	1467
353.611	2661
353.696	1430
353.781	2737
353.866	1566
353.952	2731
354.037	1954
354.122	2915
354.207	2167
354.292	2159
354.377	1698
354.462	2850
354.547	863
354.632	1493
354.717	2863
354.802	1582
354.887	1190
354.972	2136
355.057	2188
355.142	1763
355.227	2041
355.312	2036
355.397	1589
355.482	3868
355.567	2003
355.652	3539
355.737	2738
355.822	5182
355.907	2646
355.991	2944
356.076	1401
356.161	2414
356.246	1582
356.331	1956
356.416	1899
356.501	11188
356.585	7368
356.670	1450
356.755	4086
356.840	2720
356.924	7471
357.009	19320
357.094	7562
357.179	2683
357.263	1797
357.348	2158
357.433	2054
357.517	2131
357.602	1173
357.687	2682
357.771	2622
357.856	4269
357.941	3432
358.025	7647
358.110	23601
358.195	9846
358.279	2224
358.364	3159
358.448	3583
358.533	7368
358.617	4197
358.702	6175
358.787	3266
358.871	2677
358.956	1279
359.040	1579
359.125	1672
359.209	2671
359.294	3318
359.378	6079
359.462	3400
359.547	2979
359.631	2100
359.716	877
359.800	1237
359.885	3310
359.969	1019
360.053	2943
360.138	1758
360.222	2521
360.306	1826
360.391	2633
360.475	3029
360.559	3847
360.644	4057
360.728	2763
360.812	8019
360.896	14080
360.981	4836
361.065	2937
361.149	2570
361.233	2568
361.318	2004
361.402	2410
361.486	3026
361.570	2998
361.654	2649
361.739	3839
361.823	10925
361.907	14959
361.991	4895
362.075	5511
362.159	7116
362.243	15718
362.327	35639
362.411	48468
362.495	18931
362.580	9887
362.664	9045
362.748	10568
362.832	16406
362.916	34619
363.000	90331
363.084	115069
363.168	51396
363.252	15519
363.336	9515
363.420	7795
363.503	10418
363.587	10636
363.671	5982
363.755	5047
363.839	8275
363.923	6747
364.007	9184
364.091	12142
364.175	21473
364.258	51625
364.342	103710
364.426	163399
364.510	84256
364.594	29152
364.677	15038
364.761	16743
364.845	11724
364.929	6212
365.013	4434
365.096	4075
365.180	2965
365.264	6182
365.347	12888
365.431	6224
365.515	2290
365.598	2792
365.682	3858
365.766	2414
365.849	3334
365.933	2524
366.017	3451
366.100	2158
366.184	1965
366.267	4245
366.351	2846
366.435	1999
366.518	1472
366.602	2562
366.685	3001
366.769	2563
366.852	2870
366.936	3516
367.019	3298
367.103	1877
367.186	3680
367.270	2574
367.353	2559
367.436	4231
367.520	3451
367.603	4377
367.687	2395
367.770	3219
367.853	3896
367.937	6453
368.020	6114
368.104	2207
368.187	3155
368.270	3451
368.353	2580
368.437	3147
368.520	3907
368.603	3204
368.687	3237
368.770	6550
368.853	2814
368.936	2920
369.020	2969
369.103	2233
369.186	1267
369.269	1394
369.352	2762
369.436	2165
369.519	2465
369.602	1127
369.685	3708
369.768	1801
369.851	1610
369.934	1482
370.018	1689
370.101	1740
370.184	3854
370.267	2483
370.350	2063
370.433	4161
370.516	14359
370.599	34610
370.682	12809
370.765	5720
370.848	5226
370.931	6818
371.014	3992
371.097	1662
371.180	2528
371.263	2385
371.346	710
371.429	2486
371.511	1058
371.594	2483
371.677	2428
371.760	3189
371.843	2571
371.926	9819
372.009	17217
372.091	8379
372.174	4010
372.257	8928
372.340	3769
372.423	2288
372.505	4127
372.588	2292
372.671	4407
372.754	6080
372.836	3857
372.919	4265
373.002	6245
373.085	2534
373.167	2743
373.250	4511
373.332	8252
373.415	15546
373.498	25125
373.580	18108
373.663	50009
373.746	46330
373.828	7543
373.911	5481
373.993	3760
374.076	7800
374.159	5639
374.241	4581
374.324	6620
374.406	6982
374.489	9314
374.571	20208
374.654	8174
374.736	7105
374.819	13012
374.901	21406
374.983	19493
375.066	5807
375.148	4587
375.231	7980
375.313	10311
375.395	6117
375.478	4220
375.560	3958
375.643	4076
375.725	6685
375.807	14791
375.890	12144
375.972	3569
376.054	4598
376.136	4053
376.219	3194
376.301	6770
376.383	12247
376.465	5703
376.548	3068
376.630	4969
376.712	9625
376.794	5283
376.877	2884
376.959	1434
377.041	2986
377.123	1987
377.205	2555
377.287	809
377.369	3538
377.452	2138
377.534	2288
377.616	1774
377.698	2357
377.780	1591
377.862	1990
377.944	2982
378.026	916
378.108	2367
378.190	1989
378.272	2476
378.354	2951
378.436	2373
378.518	2043
378.600	2626
378.682	4072
378.764	4922
378.846	4878
378.928	1768
379.010	2594
379.091	2830
379.173	2564
379.255	1950
379.337	2616
379.419	3185
379.501	5794
379.583	3116
379.664	1951
379.746	1612
379.828	5310
379.910	4726
379.991	6100
380.073	2425
380.155	2565
380.237	1429
380.318	2306
380.400	1860
380.482	2418
380.564	1752
380.645	1931
380.727	2491
380.809	2891
380.890	1383
380.972	981
381.053	1737
381.135	2385
381.217	1784
381.298	5089
381.380	3419
381.461	3173
381.543	9665
381.624	10211
381.706	3132
381.787	3515
381.869	2420
381.951	7088
382.032	19400
382.113	14132
382.195	1924
382.276	4396
382.358	4125
382.439	8714
382.521	12872
382.602	17944
382.684	8555
382.765	11023
382.846	12265
382.928	18577
383.009	10670
383.090	10525
383.172	29067
383.253	38816
383.334	14023
383.416	13845
383.497	8480
383.578	5207
383.659	8994
383.741	29977
383.822	62442
383.903	29047
383.984	11139
384.066	15617
384.147	8926
384.228	6111
384.309	5249
384.390	5402
384.471	4536
384.553	4858
384.634	4582
384.715	4279
384.796	3608
384.877	3415
384.958	5871
385.039	4991
385.120	3679
385.201	4557
385.282	3589
385.363	5281
385.444	4270
385.525	6074
385.606	9790
385.687	9192
385.768	4721
385.849	4506
385.930	13164
386.011	18369
386.092	6241
386.173	5083
386.254	4028
386.335	5658
386.416	4361
386.496	5802
386.577	7565
386.658	4942
386.739	3587
386.820	5896
386.901	5121
386.981	6795
387.062	5937
387.143	6921
387.224	10088
387.304	11454
387.385	10032
387.466	7349
387.547	9840
387.627	9943
387.708	10451
387.789	14209
387.869	13310
387.950	9888
388.031	7136
388.111	4588
388.192	7313
388.273	8889
388.353	7050
388.434	4914
388.514	5462
388.595	11228
388.676	11630
388.756	6937
388.837	6140
388.917	4935
388.998	2696
389.078	4550
389.159	3724
389.239	2432
389.320	5467
389.400	2270
389.480	4639
389.561	6014
389.641	5232
389.722	4450
389.802	3208
389.883	5903
389.963	9286
390.043	5134
390.124	2685
390.204	4242
390.284	5992
390.365	4067
390.445	7293
390.525	12576
390.605	11755
390.686	4390
390.766	4674
390.846	5811
390.927	3540
391.007	3671
391.087	5268
391.167	4207
391.247	3314
391.328	6240
391.408	5795
391.488	5940
391.568	4175
391.648	4970
391.728	6513
391.808	6707
391.888	6731
391.969	7897
392.049	8181
392.129	9209
392.209	9386
392.289	13421
392.369	10719
392.449	12210
392.529	11309
392.609	13967
392.689	16823
392.769	21366
392.849	25024
392.929	31890
393.009	44256
393.089	62553
393.169	113667
393.248	239385
393.328	422760
393.408	397314
393.488	211730
393.568	100749
393.648	55900
393.728	36191
393.807	24649
393.887	21063
393.967	17002
394.047	13489
394.127	11987
394.206	12879
394.286	23525
394.366	73851
394.446	72582
394.525	18814
394.605	9062
394.685	8550
394.764	9997
394.844	16378
394.924	18172
395.003	9688
395.083	6004
395.163	6436
395.242	5576
395.322	6260
395.402	5705
395.481	7846
395.561	8691
395.640	26082
395.720	44076
395.799	26083
395.879	12161
395.958	11620
396.038	29879
396.117	95367
396.197	96912
396.276	31028
396.356	18132
396.435	19979
396.515	26930
396.594	41809
396.673	87355
396.753	219042
396.832	376983
396.912	279053
396.991	109553
397.070	49713
397.150	28556
397.229	25055
397.308	39626
397.388	64032
397.467	32251
397.546	12877
397.625	7442
397.705	9691
397.784	6559
397.863	5621
397.942	5619
398.022	5128
398.101	5476
398.180	9138
398.259	4779
398.338	5058
398.417	3801
398.497	2691
398.576	4105
398.655	2693
398.734	3226
398.813	3537
398.892	5214
398.971	8265
399.050	4564
399.129	2461
399.208	2657
399.287	3510
399.366	1953
399.445	3155
399.524	2525
399.603	1222
399.682	2455
399.761	3224
399.840	8642
399.919	7480
399.998	2544
400.077	1549
400.156	824
400.235	4413
400.313	1400
400.392	1879
400.471	3466
400.550	4001
400.629	1372
400.708	2348
400.786	824
400.865	2304
400.944	1051
401.023	3925
401.102	1303
401.180	1821
401.259	1514
401.338	1282
401.416	1625
401.495	934
401.574	2403
401.652	1002
401.731	1849
401.810	1032
401.888	1369
401.967	1012
402.046	1336
402.124	2112
402.203	480
402.281	1848
402.360	852
402.438	2271
402.517	1092
402.596	2277
402.674	956
402.753	1472
402.831	2492
402.910	1895
402.988	798
403.066	2616
403.145	3435
403.223	2837
403.302	2378
403.380	3060
403.459	2602
403.537	2200
403.615	2398
403.694	842
403.772	3045
403.850	2112
403.929	1457
404.007	1045
404.085	2625
404.164	1176
404.242	1219
404.320	3942
404.398	7466
404.477	6783
404.555	12542
404.633	11140
404.711	5827
404.789	4947
404.868	1513
404.946	936
405.024	1843
405.102	1340
405.180	282
405.258	109
405.336	1569
405.415	455
405.493	1714
405.571	2027
405.649	1186
405.727	947
405.805	2494
405.883	2326
405.961	2235
406.039	992
406.117	-107
406.195	1803
406.273	2095
406.351	7991
406.429	5863
406.507	1098
406.585	464
406.663	1248
406.740	939
406.818	40
406.896	497
406.974	2489
407.052	214
407.130	6100
407.208	6536
407.285	2515
407.363	406
407.441	1212
407.519	910
407.596	2575
407.674	6379
407.752	21655
407.830	14608
407.907	3041
407.985	724
408.063	1727
408.141	597
408.218	2300
408.296	-120
408.373	1200
408.451	1630
408.529	1563
408.606	1264
408.684	1925
408.762	2777
408.839	2140
408.917	2324
408.994	2838
409.072	2719
409.149	4767
409.227	7698
409.304	11580
409.382	12620
409.459	14484
409.537	18424
409.614	16067
409.692	12324
409.769	13768
409.846	18743
409.924	22445
410.001	14438
410.079	11944
410.156	8833
410.233	6688
410.311	3511
410.388	3778
410.465	3887
410.543	3037
410.620	3200
410.697	3776
410.775	2348
410.852	2342
410.929	3923
411.006	3962
411.083	2514
411.161	3085
411.238	3361
411.315	1804
411.392	2139
411.469	2119
411.547	1085
411.624	742
411.701	1161
411.778	2686
411.855	1135
411.932	1189
412.009	1042
412.086	2118
412.163	1118
412.240	1539
412.317	1649
412.394	730
412.471	1694
412.548	1151
412.625	1906
412.702	715
412.779	697
412.856	1761
412.933	362
413.010	1613
413.087	805
413.164	1785
413.241	2624
413.318	580
413.395	1947
413.471	1220
413.548	800
413.625	1529
413.702	-373
413.779	1366
413.855	796
413.932	386
414.009	-78
414.086	571
414.162	1262
414.239	1503
414.316	1471
414.393	4278
414.469	719
414.546	410
414.623	-186
414.699	533
414.776	707
414.853	-108
414.929	790
415.006	562
415.082	409
415.159	955
415.236	893
415.312	1711
415.389	-44
415.465	647
415.542	500
415.618	-378
415.695	-89
415.771	108
415.848	557
415.924	616
416.000	753
416.077	1299
416.153	105
416.230	-94
416.306	303
416.383	-51
416.459	1154
416.535	385
416.612	-316
416.688	468
416.764	430
416.841	64
416.917	422
416.993	693
417.069	348
417.146	-477
417.222	942
417.298	911
417.374	-37
417.451	1491
417.527	260
417.603	200
417.679	422
417.755	769
417.831	60
417.908	1240
417.984	949
418.060	363
418.136	1405
418.212	917
418.288	504
418.364	1989
418.440	-164
418.516	1595
418.592	457
418.668	1826
418.744	907
418.820	1314
418.896	490
418.972	862
419.048	377
419.124	1994
419.200	608
419.276	1064
419.352	168
419.428	1466
419.504	219
419.579	1385
419.655	39
419.731	1448
419.807	1182
419.883	1937
419.959	1718
420.034	2821
420.110	1988
420.186	2674
420.262	3249
420.337	2241
420.413	1675
420.489	2634
420.565	2835
420.640	2568
420.716	3182
420.792	2071
420.867	3585
420.943	3738
421.019	3613
421.094	4161
421.170	4344
421.245	4278
421.321	6712
421.397	5810
421.472	10586
421.548	17845
421.623	13737
421.699	9592
421.774	11430
421.850	11837
421.925	14275
422.001	17304
422.076	21354
422.152	26800
422.227	35941
422.302	50434
422.378	70329
422.453	106403
422.529	149610
422.604	165675
422.679	144681
422.755	158079
422.830	149429
422.905	105914
422.981	72068
423.056	52163
423.131	39885
423.207	29168
423.282	22988
423.357	19661
423.432	15250
423.508	13679
423.583	10980
423.658	11059
423.733	8514
423.808	9016
423.883	8508
423.959	9781
424.034	9858
424.109	10433
424.184	6401
424.259	5749
424.334	4725
424.409	4170
424.484	4145
424.559	3954
424.634	3168
424.709	3239
424.784	3334
424.859	3111
424.934	2538
425.009	2871
425.084	3629
425.159	3188
425.234	2412
425.309	1980
425.384	2440
425.459	2173
425.534	1768
425.609	1242
425.683	1705
425.758	1516
425.833	1339
425.908	2166
425.983	927
426.058	3372
426.132	1785
426.207	1682
426.282	2049
426.357	1301
426.431	171
426.506	1002
426.581	920
426.655	1138
426.730	1241
426.805	1039
426.879	972
426.954	680
427.029	1065
427.103	3672
427.178	6855
427.253	4097
427.327	1315
427.402	777
427.476	1906
427.551	1094
427.625	702
427.700	682
427.774	178
427.849	1382
427.923	678
427.998	1579
428.072	1812
428.147	6288
428.221	27982
428.296	73168
428.370	39536
428.444	5830
428.519	1883
428.593	2422
428.667	2167
428.742	3681
428.816	10726
428.890	47915
428.965	65074
429.039	18031
429.113	3228
429.188	1582
429.262	1994
429.336	1285
429.410	1561
429.485	2571
429.559	1593
429.633	1622
429.707	2229
429.781	10167
429.855	43772
429.930	59029
430.004	17877
430.078	13657
430.152	35512
430.226	100539
430.300	91826
430.374	21865
430.448	6845
430.522	5305
430.596	7734
430.670	17914
430.744	58526
430.818	59949
430.892	11946
430.966	2272
431.040	1116
431.114	182
431.188	-497
431.262	546
431.336	925
431.410	1441
431.484	331
431.557	2469
431.631	1435
431.705	4604
431.779	22674
431.853	70733
431.927	45870
432.000	6758
432.074	2523
432.148	494
432.222	-48
432.295	278
432.369	-68
432.443	576
432.516	1741
432.590	6055
432.664	1800
432.737	107
432.811	-902
432.885	-53
432.958	-436
433.032	-1255
433.106	-764
433.179	143
433.253	-219
433.326	-1018
433.400	-518
433.473	-263
433.547	-517
433.620	403
433.694	-389
433.767	185
433.841	-195
433.914	198
433.988	-621
434.061	1071
434.134	146
434.208	288
434.281	-113
434.355	-233
434.428	210
434.501	144
434.575	-706
434.648	526
434.721	-308
434.795	470
434.868	-507
434.941	-375
435.014	-506
435.088	415
435.161	384
435.234	590
435.307	1119
435.381	2415
435.454	4533
435.527	8254
435.600	9057
435.673	8043
435.746	5273
435.819	3838
435.892	1833
435.966	2390
436.039	901
436.112	1996
436.185	438
436.258	593
436.331	-59
436.404	393
436.477	178
436.550	-172
436.623	-155
436.696	65
436.769	-238
436.842	-239
436.915	-211
436.987	-830
437.060	-166
437.133	-460
437.206	-605
437.279	805
437.352	-478
437.425	104
437.498	-485
437.570	-330
437.643	-916
437.716	500
437.789	-823
437.861	-169
437.934	406
438.007	-162
438.080	-970
438.152	-284
438.225	-241
438.298	4774
438.370	10305
438.443	4083
438.516	159
438.588	81
438.661	-260
438.734	-556
438.806	-694
438.879	-80
438.951	-279
439.024	-750
439.096	-447
439.169	-17
439.241	-103
439.314	-40
439.386	-1314
439.459	230
439.531	-547
439.604	-542
439.676	-480
439.749	3
439.821	-802
439.893	545
439.966	-646
440.038	-477
440.110	-428
440.183	-49
440.255	-814
440.327	486
440.400	1182
440.472	4721
440.544	3048
440.617	447
440.689	520
440.761	121
440.833	-866
440.905	312
440.978	-748
441.050	-748
441.122	-120
441.194	-113
441.266	197
441.338	-269
441.411	221
441.483	1910
441.555	2014
441.627	42
441.699	140
441.771	52
441.843	64
441.915	651
441.987	96
442.059	884
442.131	1207
442.203	2416
442.275	2434
442.347	5320
442.419	15700
442.491	63579
442.563	112910
442.635	48153
442.706	11967
442.778	4502
442.850	2890
442.922	2736
442.994	1699
443.066	2580
443.137	3756
443.209	4880
443.281	10067
443.353	23403
443.425	74159
443.496	172170
443.568	171417
443.640	76671
443.711	20163
443.783	8303
443.855	4827
443.926	3426
443.998	2425
444.070	2024
444.141	1445
444.213	1750
444.285	1875
444.356	1649
444.428	306
444.499	1470
444.571	304
444.642	2401
444.714	983
444.785	1616
444.857	1890
444.928	2568
445.000	2650
445.071	4834
445.143	6571
445.214	10553
445.285	18086
445.357	46859
445.428	127725
445.500	196790
445.571	166865
445.642	111668
445.714	41822
445.785	14932
445.856	6580
445.928	4017
445.999	2765
446.070	1712
446.141	1338
446.213	1524
446.284	1160
446.355	763
446.426	-70
446.497	940
446.569	991
446.640	223
446.711	84
446.782	-360
446.853	-709
446.924	141
446.995	81
447.066	-439
447.138	-125
447.209	314
447.280	-441
447.351	206
447.422	-859
447.493	-452
447.564	-562
447.635	83
447.706	-892
447.777	-696
447.847	-393
447.918	-712
447.989	-501
448.060	-83
448.131	-449
448.202	-404
448.273	-653
448.344	-102
448.414	-329
448.485	-528
448.556	-456
448.627	-1435
448.698	337
448.768	-552
448.839	-1033
448.910	-746
448.981	-250
449.051	-726
449.122	-1115
449.193	-433
449.263	-253
449.334	-945
449.405	-1057
449.475	-159
449.546	-130
449.616	41
449.687	-16
449.758	-514
449.828	-1163
449.899	-776
449.969	-1720
450.040	-1368
450.110	-93
450.181	271
450.251	-518
450.322	359
450.392	-1389
450.463	-162
450.533	-325
450.604	1038
450.674	-1346
450.744	632
450.815	122
450.885	737
450.955	131
451.026	-223
451.096	-960
451.166	-119
451.237	160
451.307	1785
451.377	659
451.447	373
451.518	-67
451.588	-732
451.658	-596
451.728	-504
451.799	-605
451.869	953
451.939	-941
452.009	145
452.079	-645
452.149	68
452.219	-375
452.289	1050
452.360	505
452.430	1094
452.500	-214
452.570	2694
452.640	7820
452.710	20675
452.780	22490
452.850	11718
452.920	4931
452.990	2990
453.060	699
453.129	142
453.199	-220
453.269	1940
453.339	3148
453.409	4364
453.479	3064
453.549	5097
453.619	4651
453.688	884
453.758	131
453.828	-1036
453.898	-1378
453.968	-350
454.037	-555
454.087	-489
454.107	-476
454.168	-1299
454.177	-1434
454.247	-543
454.249	-537
454.316	-774
454.330	-807
454.386	-974
454.411	-813
454.456	-632
454.492	-254
454.525	82
454.574	-94
454.595	-179
454.655	-637
454.665	-732
454.734	-497
454.736	-457
454.804	377
454.817	491
454.873	854
454.898	854
454.943	849
454.979	303
455.013	-193
455.060	-298
455.082	-366
455.141	-622
455.152	-678
455.221	1557
455.222	1564
455.291	263
455.303	586
455.360	1997
455.384	2490
455.430	2980
455.465	2055
455.499	1280
455.546	500
455.569	129
455.627	1398
455.638	1621
455.707	-361
455.708	-347
455.777	-432
455.789	-414
455.846	-310
455.869	108
455.916	886
455.950	633
455.985	338
456.031	475
456.054	445
456.112	63
456.124	45
456.193	725
456.193	711
456.262	261
456.274	254
456.332	252
456.355	138
456.401	-162
456.436	58
456.470	215
456.516	-205
456.540	-484
456.597	134
456.609	318
456.678	369
456.678	351
456.747	657
456.759	460
456.817	-226
456.840	224
456.886	845
456.920	1002
456.955	1255
457.001	757
457.024	396
457.082	580
457.093	654
457.162	384
457.163	402
457.232	521
457.243	629
457.301	1091
457.324	1373
457.370	2092
457.405	2269
457.439	2223
457.485	2116
457.508	2253
457.566	3079
457.577	3472
457.646	6094
457.647	6160
457.715	14482
457.727	16330
457.784	26813
457.808	35423
457.853	44263
457.889	49638
457.922	51100
457.969	36384
457.991	35512
458.050	42101
458.060	43399
458.129	73029
458.130	73853
458.198	68805
458.211	61022
458.267	36321
458.292	26339
458.336	18209
458.372	18274
458.405	24837
458.453	37102
458.474	43987
458.533	73144
458.543	74449
458.611	106671
458.614	106865
458.680	68710
458.694	54819
458.749	25362
458.775	18460
458.818	10443
458.855	8032
458.887	6633
458.936	4977
458.955	4338
459.016	3229
459.024	3172
459.093	4071
459.097	4070
459.162	2862
459.177	2678
459.230	2710
459.257	2821
459.299	2900
459.338	3038
459.368	2971
459.418	2380
459.437	2254
459.499	2095
459.505	2071
459.574	2217
459.579	2269
459.643	2411
459.659	2344
459.711	2775
459.740	2899
459.780	2308
459.820	2165
459.849	2428
459.900	2769
459.917	2852
459.981	2748
459.986	2729
460.054	2518
460.061	2550
460.123	2560
460.141	2608
460.191	2779
460.222	2596
460.260	2195
460.302	2129
460.328	2405
460.382	2887
460.397	3012
460.462	3226
460.465	3390
460.534	7904
460.543	8455
460.602	17124
460.623	20635
460.671	30744
460.703	40665
460.739	34584
460.783	22466
460.808	19617
460.864	6390
460.876	5068
460.944	3454
460.945	3428
461.013	2984
461.024	2974
461.081	2904
461.104	2962
461.150	3161
461.184	3115
461.218	2971
461.264	2839
461.286	2755
461.345	2127
461.355	2026
461.423	2614
461.425	2597
461.491	2130
461.505	2231
461.559	3377
461.585	3655
461.628	3688
461.665	4147
461.696	4409
461.745	4457
461.764	3993
461.825	2418
461.832	2467
461.901	2810
461.905	2864
461.969	2958
461.985	2905
462.037	3094
462.065	3204
462.105	2772
462.145	2576
462.173	3074
462.225	3855
462.241	3945
462.305	4133
462.310	4073
462.378	3037
462.385	2904
462.446	2880
462.465	2999
462.514	3178
462.545	3313
462.582	3171
462.625	2964
462.650	3028
462.705	3023
462.718	3012
462.785	3104
462.786	3109
462.854	2739
462.865	2783
462.922	3296
462.945	3459
462.990	3438
463.025	3395
463.058	3677
463.104	3847
463.126	3416
463.184	2627
463.194	2779
463.262	3445
463.264	3479
463.330	3576
463.344	3488
463.398	3697
463.424	3778
463.466	2990
463.504	2648
463.533	3271
463.583	3946
463.601	3734
463.663	3079
463.669	3084
463.737	3187
463.743	3174
463.805	3811
463.823	4073
463.873	4508
463.903	4657
463.940	4301
463.982	3934
464.008	3884
464.062	3697
464.076	3653
464.142	3296
464.144	3297
464.211	3332
464.221	3366
464.279	3538
464.301	3424
464.347	3414
464.381	3557
464.414	3693
464.461	3901
464.482	4009
464.540	4149
464.550	4003
464.617	2895
464.620	2859
464.685	4272
464.699	4523
464.753	4119
464.779	3985
464.820	4060
464.859	4017
464.888	3724
464.938	3259
464.956	3495
465.018	4310
465.023	4340
465.091	4571
465.098	4591
465.158	4261
465.177	4223
465.226	4674
465.257	4755
465.293	4479
465.336	4157
465.361	4000
465.416	3834
465.428	3957
465.495	4445
465.496	4455
465.563	4635
465.575	4708
465.631	5932
465.654	6372
465.698	5291
465.734	4321
465.765	4173
465.813	3924
465.833	3852
465.893	3728
465.900	3784
465.968	4070
465.972	4092
466.035	3864
466.052	3774
466.102	4305
466.131	4588
466.170	4469
466.210	4346
466.237	4453
466.290	4632
466.304	4558
466.369	4103
466.372	4117
466.439	4375
466.449	4381
466.506	4519
466.528	4602
466.573	5609
466.607	6280
466.641	6180
466.687	6095
466.708	6535
466.766	7661
466.775	7409
466.842	5421
466.845	5315
466.909	4436
466.925	4221
466.977	5239
467.004	5759
467.044	5174
467.083	4582
467.111	5291
467.163	6586
467.178	6453
467.242	5837
467.245	5827
467.312	5370
467.321	5300
467.379	5555
467.400	5630
467.446	5849
467.480	5989
467.559	5793
467.638	4950
467.717	5558
467.796	6389
467.875	6778
467.955	6225
468.034	7770
468.113	10248
468.192	13418
468.271	12373
468.350	16599
468.429	20658
468.508	22159
468.588	13861
468.667	9015
468.746	7468
468.825	7795
468.904	4948
468.983	7075
469.062	5671
469.141	7398
469.220	5009
469.299	6381
469.378	4538
469.456	6848
469.535	5656
469.614	5623
469.693	4999
469.772	5882
469.851	6728
469.930	5048
470.009	6211
470.088	5586
470.166	6010
470.245	6317
470.324	6102
470.403	6822
470.482	5985
470.560	5961
470.639	4531
470.718	5594
470.797	4914
470.875	5907
470.954	5350
471.033	5931
471.111	4702
471.190	4614
471.269	4507
471.347	4782
471.426	3955
471.505	5347
471.583	5449
471.662	5316
471.740	5729
471.819	5493
471.898	4154
471.976	5227
472.055	4882
472.133	5225
472.212	5848
472.290	5556
472.369	4917
472.447	4480
472.526	4545
472.604	5953
472.683	5144
472.761	5256
472.839	5055
472.918	5021
472.996	4660
473.075	5327
473.153	5395
473.231	5591
473.310	4677
473.388	5916
473.466	4524
473.545	5455
473.623	5164
473.701	5485
473.780	5619
473.858	4226
473.936	6915
474.014	6143
474.093	5226
474.171	6483
474.249	6261
474.327	5449
474.405	4778
474.484	5674
474.562	4774
474.640	5522
474.718	4062
474.796	4565
474.874	5032
474.952	5066
475.030	4162
475.108	5198
475.187	3969
475.265	4853
475.343	5330
475.421	5584
475.499	4516
475.577	5541
475.655	5722
475.733	5955
475.811	7022
475.889	6787
475.966	5098
476.044	4784
476.122	4017
476.200	5488
476.278	3677
476.356	4275
476.434	4802
476.512	5248
476.590	5130
476.667	6247
476.745	4683
476.823	5121
476.901	5303
476.979	3764
477.056	5392
477.134	4980
477.212	4847
477.290	5048
477.367	4592
477.445	4702
477.523	4291
477.601	5162
477.678	5039
477.756	5023
477.834	4646
477.911	4665
477.989	5005
478.066	4261
478.144	4690
478.222	5694
478.299	5223
478.377	5490
478.454	4841
478.532	4776
478.609	4888
478.687	5326
478.764	4985
478.842	5174
478.919	3643
478.997	4365
479.074	4458
479.152	4822
479.229	5825
479.307	4545
479.384	4497
479.461	5299
479.539	5160
479.616	5453
479.694	4408
479.771	4850
479.848	4201
479.926	3762
480.003	6506
480.080	5305
480.157	5237
480.235	5082
480.312	5182
480.389	4768
480.467	5207
480.544	7227
480.621	5523
480.698	5737
480.775	5232
480.853	4558
480.930	4364
481.007	5792
481.084	6129
481.161	8383
481.238	5797
481.315	5071
481.392	5525
481.470	6439
481.547	4888
481.624	5809
481.701	5296
481.778	5521
481.855	5425
481.932	6919
482.009	7315
482.086	8234
482.163	7439
482.240	9438
482.317	8073
482.393	7429
482.470	6891
482.547	7134
482.624	6731
482.701	6833
482.778	5579
482.855	6540
482.932	5871
483.009	6481
483.085	7776
483.162	9683
483.239	9625
483.316	8327
483.393	8851
483.469	7576
483.546	7062
483.623	6774
483.699	5728
483.776	6050
483.853	6046
483.930	6040
484.006	7189
484.083	10677
484.160	9545
484.236	13064
484.313	9042
484.389	9455
484.466	11455
484.543	11920
484.619	14056
484.696	15887
484.772	10738
484.849	9109
484.925	7776
485.002	8818
485.078	7300
485.155	7226
485.231	7055
485.308	7318
485.384	7300
485.461	8163
485.537	7894
485.614	8611
485.690	5981
485.766	6476
485.843	6057
485.919	7304
485.995	6921
486.072	6485
486.148	5973
486.224	6581
486.301	6073
486.377	7109
486.453	5090
486.530	8234
486.606	9487
486.682	8295
486.758	8643
486.835	9541
486.911	7643
486.987	11347
487.063	9984
487.139	13029
487.215	13714
487.292	14058
487.368	13868
487.444	16221
487.520	23392
487.596	37938
487.672	102229
487.748	263543
487.824	336999
487.900	99519
487.976	31830
488.052	19547
488.128	14089
488.204	10534
488.280	9688
488.356	9264
488.432	10679
488.508	10555
488.584	7020
488.660	6795
488.736	7225
488.812	6235
488.888	7453
488.964	7769
489.039	7625
489.115	9146
489.191	7834
489.267	6551
489.343	6204
489.418	6564
489.494	6163
489.570	5289
489.646	6641
489.722	6305
489.797	5924
489.873	7587
489.949	7547
490.024	6788
490.100	6011
490.176	5478
490.251	5636
490.327	7083
490.403	5056
490.478	5386
490.554	5432
490.629	6207
490.705	5156
490.781	5840
490.856	4559
490.932	5391
491.007	5008
491.083	5401
491.158	5322
491.234	5608
491.309	7297
491.385	6407
491.460	4385
491.536	6041
491.611	4188
491.686	5577
491.762	5130
491.837	6502
491.913	6882
491.988	8363
492.063	8368
492.139	6563
492.214	5101
492.289	5044
492.365	4072
492.440	5429
492.515	3894
492.590	4866
492.666	3734
492.741	4895
492.816	5347
492.891	4041
492.967	3748
493.042	5650
493.117	3993
493.192	4621
493.267	6361
493.342	12631
493.418	12429
493.493	4979
493.568	3991
493.643	4866
493.718	4312
493.793	4134
493.868	4742
493.943	4033
494.018	4107
494.093	4165
494.168	4322
494.243	3357
494.318	4039
494.393	4658
494.468	3465
494.543	4628
494.618	3431
494.693	4760
494.768	4014
494.842	3960
494.917	4339
494.992	4925
495.067	3252
495.142	4665
495.217	4310
495.292	4348
495.366	3993
495.441	4080
495.516	4622
495.591	5280
495.665	8347
495.740	12726
495.815	5741
495.890	3567
495.964	2214
496.039	6157
496.114	5194
496.188	7874
496.263	5339
496.338	4186
496.412	3418
496.487	5016
496.561	4297
496.636	5550
496.710	4854
496.785	4419
496.860	5273
496.934	4767
497.009	4986
497.083	3757
497.158	4276
497.232	4664
497.307	5533
497.381	4225
497.455	3991
497.530	5569
497.604	3760
497.679	4419
497.753	5239
497.827	4953
497.902	4972
497.976	5841
498.050	14486
498.125	37404
498.199	24743
498.273	5771
498.348	4074
498.422	4143
498.496	3895
498.570	5042
498.645	4345
498.719	4027
498.793	5427
498.867	6137
498.941	7276
499.016	18430
499.090	32773
499.164	10115
499.238	5315
499.312	5281
499.386	4868
499.460	5248
499.534	4779
499.609	4453
499.683	4941
499.757	7037
499.831	10256
499.905	25258
499.979	16224
500.053	5377
500.127	6424
500.201	4223
500.275	5316
500.349	4683
500.422	4281
500.496	5829
500.570	7223
500.644	17186
500.718	20962
500.792	6894
500.866	4965
500.940	5459
501.013	5131
501.087	4218
501.161	5880
501.235	5600
501.309	12041
501.382	20159
501.456	14671
501.530	6490
501.603	6737
501.677	5752
501.751	3306
501.825	5620
501.898	6311
501.972	9238
502.046	5744
502.119	3724
502.193	6786
502.266	9838
502.340	5749
502.413	7488
502.487	8281
502.561	5604
502.634	3809
502.708	4682
502.781	2625
502.855	5162
502.928	3379
503.002	4296
503.075	3625
503.149	4662
503.222	3938
503.295	4970
503.369	4628
503.442	6226
503.516	10905
503.589	16383
503.662	12080
503.736	10832
503.809	15280
503.882	18223
503.956	30087
504.029	62409
504.102	154065
504.175	182712
504.249	63209
504.322	26156
504.395	14459
504.468	11074
504.542	8023
504.615	5848
504.688	5737
504.761	3164
504.834	6062
504.907	4950
504.980	3576
505.053	4247
505.127	2103
505.200	6610
505.273	3452
505.346	4046
505.419	2763
505.492	4788
505.565	3243
505.638	3528
505.711	3260
505.784	3134
505.857	2620
505.930	4740
506.003	2181
506.076	4580
506.149	2491
506.221	1922
506.294	4483
506.367	4842
506.440	10364
506.513	5636
506.586	3376
506.659	2504
506.731	2197
506.804	2241
506.877	1735
506.950	3360
507.022	3017
507.095	2029
507.168	3131
507.241	4276
507.313	2050
507.386	1870
507.459	3420
507.531	2663
507.604	1719
507.677	3915
507.749	619
507.822	4148
507.894	3213
507.967	5106
508.040	2708
508.112	4588
508.185	3228
508.257	1661
508.330	5181
508.402	3358
508.475	2843
508.547	3526
508.620	2478
508.692	3367
508.765	2627
508.837	2376
508.909	2755
508.982	2894
509.054	3132
509.127	2696
509.199	2217
509.271	2054
509.344	2640
509.416	2728
509.488	2378
509.560	3962
509.633	2924
509.705	2974
509.777	2590
509.849	4504
509.922	1867
509.994	2913
510.066	3778
510.138	2406
510.210	6470
510.283	3549
510.355	4101
510.427	4045
510.499	3788
510.571	2946
510.643	1614
510.715	4812
510.787	1293
510.859	4351
510.931	3784
511.003	3330
511.076	3894
511.148	3513
511.219	2386
511.291	4075
511.363	4234
511.435	3289
511.507	1855
511.579	4262
511.651	4268
511.723	3034
511.795	3495
511.867	2928
511.939	3611
512.010	3510
512.082	3437
512.154	2562
512.226	2897
512.298	5443
512.369	3767
512.441	4414
512.513	3204
512.585	2364
512.656	3703
512.728	3572
512.800	2878
512.871	4622
512.943	3737
513.015	2462
513.086	3240
513.158	3417
513.230	1955
513.301	3452
513.373	3499
513.444	3187
513.516	3629
513.588	3554
513.659	3249
513.731	3784
513.802	1521
513.874	5733
513.945	4477
514.016	3720
514.088	3167
514.159	2010
514.231	3767
514.302	4015
514.374	4126
514.445	2848
514.516	6393
514.588	3353
514.659	3392
514.730	4387
514.802	4065
514.873	1787
514.944	5644
515.016	4639
515.087	3067
515.158	3708
515.229	4494
515.301	2332
515.372	4313
515.443	2275
515.514	2849
515.585	2726
515.656	4284
515.728	4412
515.799	2503
515.870	4089
515.941	3998
516.012	3226
516.083	5504
516.154	4074
516.225	4694
516.296	5157
516.367	4160
516.438	4140
516.509	4969
516.580	6815
516.651	17184
516.722	34797
516.793	13779
516.864	5482
516.935	6047
517.006	6606
517.077	7389
517.148	17918
517.219	56795
517.289	59604
517.360	14535
517.431	7950
517.502	4166
517.573	5438
517.643	5107
517.714	5981
517.785	6474
517.856	5752
517.926	8008
517.997	8161
518.068	6984
518.138	11804
518.209	15754
518.280	52043
518.350	117992
518.421	38197
518.492	16390
518.562	20320
518.633	28591
518.703	47120
518.774	122255
518.845	269766
518.915	190205
518.986	54800
519.056	24602
519.127	17588
519.197	14539
519.268	17330
519.338	11700
519.408	7592
519.479	6343
519.549	5594
519.620	6820
519.690	5157
519.760	4915
519.831	5240
519.901	3886
519.971	5246
520.042	3105
520.112	3579
520.182	4284
520.253	4795
520.323	3247
520.393	4130
520.463	6243
520.534	1918
520.604	7494
520.674	5302
520.744	3391
520.814	5173
520.885	5338
520.955	8012
521.025	12663
521.095	5005
521.165	4634
521.235	3677
521.305	2637
521.375	3557
521.445	4385
521.515	3318
521.585	4343
521.655	1712
521.725	4818
521.795	4485
521.865	860
521.935	6039
522.005	2962
522.075	2412
522.145	4094
522.215	3034
522.285	4253
522.355	4680
522.424	5290
522.494	4022
522.564	3806
522.634	5608
522.704	7696
522.774	3923
522.843	3874
522.913	3516
522.983	3162
523.053	2606
523.122	4102
523.192	3214
523.262	4814
523.331	3517
523.401	4172
523.471	3480
523.540	3309
523.610	2881
523.680	3493
523.749	4687
523.819	5561
523.888	3679
523.958	3756
524.027	3872
524.097	4218
524.166	4217
524.236	3498
524.305	5834
524.375	2732
524.444	2639
524.514	5189
524.583	3529
524.653	3486
524.722	4649
524.791	2414
524.861	5492
524.930	3614
524.999	4301
525.069	4962
525.138	4818
525.207	5093
525.277	6141
525.346	5738
525.415	7415
525.484	8075
525.554	7856
525.623	12059
525.692	13446
525.761	14604
525.830	19005
525.900	24559
525.969	44812
526.038	85963
526.107	206488
526.176	440654
526.245	268791
526.314	104025
526.383	259115
526.452	282139
526.522	437591
526.591	275052
526.660	51933
526.729	34844
526.797	39862
526.867	69526
526.935	230877
527.004	570452
527.073	263733
527.142	43882
527.211	21546
527.280	14592
527.349	11029
527.418	7087
527.487	9419
527.555	7100
527.624	6278
527.693	4089
527.762	6735
527.831	4953
527.899	6213
527.968	4444
528.037	3698
528.106	5035
528.174	4501
528.243	4932
528.312	5737
528.380	4629
528.449	4000
528.518	5902
528.586	4302
528.655	5875
528.723	4409
528.792	4495
528.861	4110
528.929	3133
528.998	5444
529.066	5833
529.135	8034
529.203	6524
529.272	8400
529.340	10117
529.409	10273
529.477	7835
529.545	8700
529.614	11316
529.682	9870
529.751	10988
529.819	14639
529.887	12810
529.956	11737
530.024	11477
530.092	10802
530.161	11247
530.229	11538
530.297	11859
530.365	12890
530.434	13654
530.502	11894
530.570	11567
530.638	8660
530.707	9714
530.775	11848
530.843	10307
530.911	11016
530.979	11779
531.047	12814
531.115	11969
531.183	12092
531.252	10464
531.320	10886
531.388	8982
531.456	12344
531.524	10776
531.592	14255
531.660	14730
531.728	11268
531.796	10205
531.864	11808
531.932	11486
532.000	12158
532.067	12495
532.135	12929
532.203	16058
532.271	13418
532.339	14861
532.407	15783
532.475	14661
532.542	14520
532.610	14437
532.678	14084
532.746	20102
532.814	25172
532.881	15884
532.949	14491
533.017	13604
533.084	13298
533.152	12014
533.220	12651
533.287	12858
533.355	13719
533.423	13884
533.490	13370
533.558	14011
533.625	13290
533.693	12560
533.761	12174
533.828	12958
533.896	12618
533.963	14635
534.031	15372
534.098	16262
534.166	16548
534.233	15816
534.300	17922
534.368	16780
534.435	16384
534.503	16722
534.570	18277
534.637	18965
534.705	22428
534.772	27510
534.840	62168
534.907	235213
534.974	181201
535.041	27282
535.109	17787
535.176	14844
535.243	16258
535.310	14404
535.378	13317
535.445	14537
535.512	14165
535.579	14002
535.646	12546
535.714	12688
535.781	14197
535.848	14846
535.915	15311
535.982	12936
536.049	12180
536.116	14279
536.183	11899
536.250	10899
536.317	11112
536.384	13597
536.451	13272
536.518	13188
536.585	11463
536.652	15355
536.719	13439
536.786	9913
536.853	12670
536.920	13187
536.987	12678
537.053	11983
537.120	17722
537.187	15511
537.254	12724
537.321	12852
537.388	13582
537.454	11275
537.521	12075
537.588	11470
537.654	13232
537.721	13971
537.788	13768
537.855	12762
537.921	13014
537.988	11274
538.055	12909
538.121	10065
538.188	10230
538.254	11890
538.321	11856
538.388	12806
538.454	13548
538.521	13113
538.587	13490
538.654	12491
538.720	13926
538.787	12130
538.853	12808
538.920	11585
538.986	11180
539.053	11190
539.119	11234
539.185	10576
539.252	13629
539.318	12288
539.385	14700
539.451	10848
539.517	13190
539.583	13097
539.650	13467
539.716	13645
539.782	12374
539.849	10150
539.915	12267
539.981	11569
540.047	11101
540.114	12153
540.180	13666
540.246	11024
540.312	12996
540.378	12575
540.444	13061
540.510	14422
540.576	16240
540.643	11202
540.709	10866
540.775	11656
540.841	11389
540.907	11769
540.973	12369
541.039	11029
541.105	12294
541.171	12967
541.237	13014
541.303	12737
541.369	14597
541.435	12827
541.500	12042
541.566	9788
541.632	11588
541.698	11769
541.764	12664
541.830	11677
541.896	11554
541.961	12004
542.027	11808
542.093	13535
542.159	13693
542.224	10666
542.290	13226
542.356	10891
542.421	13312
542.487	11858
542.553	11032
542.618	10268
542.684	11376
542.750	12063
542.815	12743
542.881	11593
542.947	15414
543.012	12999
543.078	11382
543.143	10879
543.209	12063
543.274	10237
543.340	12248
543.405	12812
543.471	12246
543.536	11645
543.602	13050
543.667	9766
543.732	12924
543.798	11268
543.863	13397
543.928	11732
543.994	11212
544.059	12526
544.124	12747
544.190	12463
544.255	14112
544.320	13989
544.386	12730
544.451	13738
544.516	13658
544.581	12705
544.646	16821
544.712	16783
544.777	14520
544.842	14075
544.907	13082
544.972	13997
545.037	14655
545.102	15336
545.168	15506
545.233	15356
545.298	15776
545.363	15288
545.428	16349
545.493	16807
545.558	18136
545.623	16581
545.688	16365
545.753	17342
545.818	18214
545.883	20238
545.947	18630
546.012	19591
546.077	20150
546.142	22939
546.207	21072
546.272	23050
546.337	24004
546.401	24861
546.466	25975
546.531	25360
546.596	30336
546.661	29155
546.725	32411
546.790	33274
546.855	38108
546.919	39227
546.984	44699
547.049	48012
547.113	55647
547.178	61806
547.243	69670
547.307	80391
547.372	86011
547.436	87601
547.501	93971
547.565	97171
547.630	87904
547.695	86450
547.759	87938
547.823	87987
547.888	91092
547.952	91434
548.017	96594
548.081	97378
548.146	96458
548.210	101706
548.274	109540
548.339	103370
548.403	93830
548.468	88874
548.532	88855
548.596	89197
548.660	92095
548.725	102826
548.789	108224
548.853	103955
548.917	100451
548.982	93678
549.046	86530
549.110	77787
549.174	84526
549.238	97959
549.303	104637
549.367	107044
549.431	98730
549.495	92612
549.559	97397
549.623	115594
549.687	119007
549.751	121368
549.815	144161
549.879	141082
549.943	137926
550.007	145273
550.071	138886
550.135	124667
550.199	118856
550.263	116328
550.327	111342
550.391	116954
550.455	129794
550.519	134436
550.582	145375
550.646	162909
550.710	161611
550.774	159772
550.838	162656
550.901	167859
550.965	178300
551.029	185770
551.093	197446
551.156	214175
551.220	236268
551.284	239603
551.347	191375
551.411	172742
551.475	168539
551.538	169323
551.602	158104
551.666	149224
551.729	139564
551.793	139976
551.856	135649
551.920	133934
551.983	135108
552.047	132611
552.110	135946
552.174	136713
552.237	137236
552.301	126270
552.364	121785
552.428	119052
552.491	123028
552.554	122939
552.618	124861
552.681	124497
552.745	120745
552.808	127142
552.871	130785
552.934	127558
552.998	124153
553.061	121587
553.124	116686
553.187	117142
553.251	120698
553.314	118296
553.377	121923
553.440	130600
553.503	138785
553.567	136447
553.630	130212
553.693	128592
553.756	129689
553.819	124902
553.882	120843
553.945	121858
554.008	121172
554.071	123401
554.134	122641
554.197	114027
554.260	111909
554.323	115629
554.386	118546
554.449	123406
554.512	121231
554.575	117289
554.638	116816
554.701	114168
554.764	112288
554.827	108650
554.889	103488
554.952	99742
555.015	97093
555.078	99131
555.141	101031
555.203	97654
555.266	98878
555.329	96907
555.391	94739
555.454	90456
555.517	89500
555.580	86691
555.642	83763
555.705	81844
555.768	81482
555.830	78449
555.893	74105
555.955	72323
556.018	71155
556.080	72457
556.143	75944
556.206	71488
556.268	71471
556.330	69818
556.393	68212
556.455	65187
556.518	64602
556.580	61045
556.643	59990
556.705	58236
556.767	57928
556.830	57100
556.892	56560
556.955	54252
557.017	54192
557.079	54368
557.142	52854
557.204	52500
557.266	52022
557.328	47527
557.391	45345
557.453	44116
557.515	44438
557.577	46149
557.639	45837
557.701	44278
557.764	44329
557.826	44932
557.888	45781
557.950	48077
558.012	54468
558.074	74534
558.136	177842
558.198	277898
558.260	85181
558.322	49548
558.384	49463
558.446	50356
558.508	53953
558.570	58326
558.632	68681
558.694	90469
558.756	169084
558.818	459366
558.880	623059
558.942	281974
559.003	304970
559.065	115320
559.127	61805
559.189	58029
559.251	67718
559.312	106468
559.374	275179
559.436	534049
559.498	199690
559.559	66116
559.621	57844
559.683	70644
559.744	131164
559.806	371979
559.868	343262
559.929	83309
559.991	71362
560.052	138952
560.114	295627
560.176	147799
560.237	211540
560.299	216002
560.360	47041
560.422	25678
560.483	23520
560.545	22571
560.606	22017
560.667	20321
560.729	19895
560.790	18233
560.852	18485
560.913	17429
560.974	17684
561.036	17404
561.097	16989
561.158	17725
561.220	16901
561.281	16199
561.342	15382
561.403	15232
561.465	15771
561.526	16319
561.587	16763
561.648	14367
561.709	15573
561.771	14916
561.832	14887
561.893	13766
561.954	13424
562.015	12805
562.076	14161
562.137	13454
562.198	14059
562.259	12974
562.320	13888
562.381	13273
562.442	13793
562.503	12479
562.564	12740
562.625	11948
562.686	12166
562.747	11491
562.808	12069
562.869	12297
562.930	12330
562.991	11612
563.051	12435
563.112	12095
563.173	12061
563.234	10491
563.294	11445
563.355	10150
563.416	11038
563.477	11068
563.537	10297
563.598	9925
563.659	11501
563.720	9920
563.780	10958
563.841	10691
563.901	10744
563.962	9941
564.023	10030
564.083	10309
564.144	10962
564.204	10095
564.265	10688
564.325	9353
564.386	11295
564.446	9941
564.507	9554
564.567	9092
564.628	9127
564.688	9735
564.749	10602
564.809	10519
564.869	9616
564.930	10047
564.990	10512
565.050	9229
565.111	9334
565.171	8694
565.231	8849
565.292	9773
565.352	8554
565.412	10465
565.472	9266
565.532	8615
565.593	9734
565.653	8605
565.713	9359
565.773	9351
565.833	9432
565.893	9713
565.953	8525
566.013	8509
566.074	9139
566.134	9024
566.194	8360
566.254	10249
566.314	8946
566.374	8697
566.434	9890
566.494	8266
566.554	9113
566.614	8349
566.673	9069
566.733	8750
566.793	9580
566.853	8785
566.913	9176
566.973	8529
567.033	9979
567.092	8493
567.152	9078
567.212	9926
567.272	9417
567.331	9385
567.391	10301
567.451	10671
567.511	11120
567.570	9410
567.630	9743
567.690	8791
567.749	9428
567.809	9370
567.868	9963
567.928	8523
567.988	9850
568.047	9545
568.107	9616
568.166	9102
568.226	9261
568.285	9159
568.345	9769
568.404	9247
568.464	9754
568.523	8581
568.582	9935
568.642	8675
568.701	8800
568.761	8098
568.820	9388
568.879	9199
568.939	9267
568.998	9125
569.057	8535
569.116	8293
569.176	9271
569.235	8801
569.294	9415
569.353	7826
569.413	8588
569.472	7996
569.531	9141
569.590	8023
569.649	7368
569.708	7692
569.767	9022
569.827	8154
569.886	8177
569.945	8575
570.004	8670
570.063	8261
570.122	9680
570.181	9567
570.240	9454
570.299	8725
570.358	8659
570.417	10010
570.475	9573
570.534	9820
570.593	9533
570.652	8749
570.711	9756
570.770	9295
570.829	9668
570.887	8429
570.946	10209
571.005	8773
571.064	8962
571.122	8884
571.181	8732
571.240	8991
571.299	8797
571.357	8922
571.416	9168
571.475	8991
571.533	9986
571.592	9759
571.650	10169
571.709	10358
571.768	12247
571.826	10795
571.885	10098
571.943	9574
572.002	8943
572.060	9348
572.119	8854
572.177	8685
572.236	9411
572.294	8887
572.352	10422
572.411	9467
572.469	8592
572.528	8465
572.586	9420
572.644	8438
572.703	9066
572.761	7948
572.819	8305
572.877	7361
572.936	8183
572.994	8432
573.052	7887
573.110	8758
573.169	9279
573.227	9087
573.285	9085
573.343	8054
573.401	8249
573.459	8156
573.517	9170
573.576	8915
573.634	9562
573.692	8268
573.750	9032
573.808	7989
573.866	9002
573.924	8546
573.982	9122
574.040	8034
574.098	8880
574.155	9349
574.213	9102
574.271	7943
574.329	9475
574.387	7785
574.445	7408
574.503	8008
574.560	7304
574.618	7187
574.676	8643
574.734	7735
574.792	8047
574.849	7674
574.907	5947
574.965	5144
575.022	5814
575.080	6221
575.138	6307
575.195	6576
575.253	5990
575.311	5512
575.368	7375
575.426	5779
575.483	7399
575.541	6661
575.598	5957
575.656	6393
575.713	7092
575.771	7501
575.828	6954
575.886	5411
575.943	5842
576.001	5811
576.058	5653
576.115	5861
576.173	6083
576.230	6711
576.287	7129
576.345	6536
576.402	6852
576.459	6872
576.517	6092
576.574	5591
576.631	6238
576.688	5531
576.746	6044
576.803	5502
576.860	6099
576.917	6082
576.974	7462
577.031	5514
577.089	5998
577.146	5043
577.203	4946
577.260	5153
577.317	5749
577.374	6449
577.431	5179
577.488	4764
577.545	6319
577.602	5761
577.659	5492
577.716	6647
577.773	6399
577.830	4679
577.886	4829
577.943	5075
578.000	5438
578.057	5288
578.114	5511
578.171	7060
578.227	6165
578.284	4855
578.341	6205
578.398	5085
578.454	7041
578.511	6163
578.568	5661
578.625	4989
578.681	4981
578.738	5781
578.794	5589
578.851	4640
578.908	5895
578.964	5282
579.021	5729
579.077	4345
579.134	4727
579.190	5242
579.247	6128
579.303	5367
579.360	4591
579.416	4676
579.473	5874
579.529	4864
579.586	5428
579.642	5800
579.698	5741
579.755	4876
579.811	6093
579.867	5338
579.924	5899
579.980	5338
580.036	6203
580.093	6335
580.149	8591
580.205	6731
580.261	6780
580.317	6206
580.374	6572
580.430	6135
580.486	6306
580.542	5920
580.598	6356
580.619	6296
580.654	6199
580.692	6081
580.710	6030
580.765	7210
580.767	7255
580.823	6673
580.838	6562
580.879	6267
580.911	6499
580.935	6688
580.984	6506
580.991	6490
581.047	6795
581.057	6855
581.103	7134
581.130	6932
581.159	6730
581.203	7361
581.215	7545
581.270	6494
581.276	6504
581.326	6582
581.349	6751
581.382	7042
581.422	6250
581.438	5927
581.494	7024
581.494	7009
581.550	5707
581.567	5819
581.606	6126
581.640	6470
581.661	6651
581.713	8242
581.717	8378
581.773	6158
581.786	6218
581.829	6446
581.859	6529
581.885	6574
581.932	6808
581.940	6876
581.996	6679
582.004	6733
582.052	6879
582.077	6809
582.107	6779
582.150	7068
582.163	7147
582.219	6045
582.223	6128
582.274	7312
582.296	6956
582.330	6263
582.368	6698
582.386	6996
582.441	7306
582.441	7307
582.497	7151
582.514	6860
582.552	6418
582.587	6773
582.608	6994
582.659	6988
582.663	6979
582.719	8112
582.732	7904
582.774	7298
582.805	7520
582.830	7694
582.877	7734
582.885	7737
582.941	8149
582.950	8209
582.996	8652
583.023	8951
583.052	9322
583.095	8827
583.107	8632
583.162	8919
583.168	8897
583.218	8672
583.240	8415
583.273	8067
583.313	7453
583.328	7279
583.384	7784
583.385	7759
583.439	6680
583.458	7077
583.494	8017
583.531	7332
583.549	7024
583.603	7840
583.605	7852
583.660	6906
583.676	7170
583.715	8004
583.748	7690
583.770	7480
583.820	7878
583.825	7892
583.881	6828
583.893	6846
583.936	7193
583.965	7018
583.991	6845
584.038	7769
584.046	7913
584.101	7306
584.110	7316
584.156	7432
584.183	7421
584.211	7372
584.255	7545
584.266	7618
584.321	7950
584.328	8026
584.376	8714
584.400	8785
584.431	8692
584.472	8010
584.486	7767
584.541	8617
584.545	8623
584.596	8965
584.617	8991
584.651	9060
584.689	9798
584.706	10091
584.761	10211
584.762	10218
584.816	10498
584.834	10357
584.871	10305
584.906	10997
584.926	11342
584.978	11303
584.980	11318
585.035	13157
585.051	13508
585.090	14230
585.123	14944
585.145	15450
585.195	16635
585.200	16790
585.254	18559
585.267	19321
585.309	21897
585.340	23838
585.364	25649
585.412	30116
585.419	30865
585.473	39769
585.484	42380
585.528	56107
585.556	72632
585.583	98895
585.628	161557
585.637	181996
585.692	368293
585.700	386334
585.747	434337
585.772	369125
585.801	229032
585.845	93813
585.856	77063
585.910	39930
585.917	36248
585.965	27466
585.989	24108
586.019	21478
586.061	18797
586.074	18153
586.128	16022
586.133	15897
586.183	15293
586.205	15125
586.237	14962
586.277	14299
586.292	14169
586.346	14084
586.349	14093
586.401	13931
586.421	13853
586.455	13709
586.493	13619
586.509	13803
586.564	14358
586.565	14378
586.618	15290
586.637	15708
586.672	17329
586.709	19909
586.727	20943
586.781	21645
586.781	21642
586.835	17262
586.853	16502
586.889	14832
586.925	13186
586.944	12914
586.996	12926
586.998	12933
587.052	12555
587.068	12646
587.106	12946
587.140	12932
587.161	12962
587.212	13832
587.215	13845
587.269	12533
587.284	12576
587.323	13498
587.356	13803
587.377	13720
587.427	14529
587.431	14601
587.485	14511
587.499	14343
587.539	14093
587.571	14818
587.593	15334
587.643	16036
587.648	16079
587.702	15757
587.715	15883
587.755	16531
587.786	16549
587.810	16299
587.858	16321
587.864	16366
587.917	16166
587.930	16213
587.971	16440
588.001	16849
588.025	16993
588.073	16306
588.079	16312
588.133	16979
588.145	17133
588.187	16981
588.217	16478
588.241	16457
588.288	17366
588.295	17471
588.348	17342
588.360	17379
588.402	17277
588.431	17302
588.456	17571
588.503	18178
588.510	18346
588.564	19588
588.575	19889
588.617	20858
588.646	21595
588.671	21969
588.718	22586
588.725	22901
588.778	26625
588.789	27728
588.832	37852
588.861	46654
588.886	65922
588.932	112161
588.939	117454
588.993	142149
589.004	141201
589.047	71712
589.075	36257
589.100	30065
589.147	21668
589.154	21405
589.207	19726
589.218	19506
589.261	20412
589.290	20844
589.314	21204
589.361	22786
589.368	23428
589.421	29277
589.433	31021
589.475	48767
589.504	64021
589.528	84301
589.576	122059
589.582	118348
589.635	59877
589.647	50005
589.689	31542
589.718	20403
589.742	19789
589.790	18307
589.795	18278
589.849	18407
589.861	18414
589.902	18630
589.932	18565
589.955	18379
590.004	18449
590.009	18423
590.062	17466
590.075	17263
590.115	17116
590.146	17087
590.168	17341
590.218	17696
590.222	17669
590.275	17527
590.289	17422
590.328	18620
590.360	19604
590.381	19292
590.431	18187
590.435	18247
590.488	19333
590.503	19613
590.541	19445
590.574	19234
590.594	19456
590.645	20266
590.647	20315
590.700	21012
590.716	21182
590.753	21366
590.787	21518
590.806	21754
590.859	22594
590.859	22617
590.912	22689
590.930	22840
590.965	23185
591.001	23107
591.018	23014
591.071	23085
591.072	23063
591.124	23052
591.143	23089
591.177	22940
591.214	22759
591.230	23033
591.283	23911
591.285	23913
591.336	23370
591.356	23200
591.389	23036
591.427	22733
591.442	22802
591.495	22959
591.498	22955
591.547	23234
591.569	23344
591.600	24064
591.640	24904
591.653	24980
591.706	25177
591.711	25174
591.759	25341
591.782	25452
591.811	25932
591.853	26455
591.864	26505
591.917	26670
591.924	26657
591.969	26487
591.995	26380
592.022	26387
592.066	26351
592.075	26530
592.127	27543
592.137	27691
592.180	28564
592.208	29121
592.233	29108
592.279	29042
592.285	29224
592.338	30543
592.350	30807
592.390	30085
592.421	29529
592.443	30052
592.491	31081
592.495	31136
592.548	31453
592.562	31509
592.600	32143
592.633	32635
592.653	32004
592.704	30121
592.705	30338
592.775	32663
592.846	33048
592.916	33159
592.987	33774
593.058	34742
593.128	33813
593.199	34785
593.270	34370
593.341	35347
593.411	36937
593.482	37156
593.553	39310
593.623	39883
593.694	40755
593.764	41614
593.835	41537
593.906	41391
593.976	43108
594.047	43123
594.117	46293
594.188	47577
594.258	46705
594.329	47512
594.399	48961
594.470	49737
594.540	52180
594.611	54195
594.681	52245
594.751	52228
594.822	53529
594.892	56265
594.963	58691
595.033	58127
595.103	61334
595.174	60905
595.244	64110
595.314	65879
595.384	66039
595.455	67819
595.525	72019
595.595	74375
595.665	73681
595.736	72532
595.806	74003
595.876	74472
595.946	74051
596.016	78317
596.087	80375
596.157	81625
596.227	80649
596.297	85825
596.367	91931
596.437	97095
596.507	96578
596.577	95893
596.647	98704
596.717	105127
596.787	107002
596.857	104928
596.927	106717
596.997	107390
597.067	108133
597.137	110007
597.207	109631
597.277	110800
597.347	107017
597.417	104626
597.487	104890
597.557	107213
597.626	109148
597.696	109941
597.766	109323
597.836	103257
597.906	98653
597.975	95371
598.045	98910
598.115	102695
598.185	111264
598.254	124538
598.324	133202
598.394	136403
598.464	133013
598.533	128895
598.603	122192
598.672	118273
598.742	120064
598.812	121032
598.881	123953
598.951	125020
599.020	125315
599.090	131275
599.159	133263
599.229	127162
599.299	124957
599.368	129056
599.437	127879
599.507	117151
599.576	113374
599.646	111663
599.715	110020
599.785	109497
599.854	105834
599.924	105052
599.993	104354
600.062	107574
600.132	109080
600.201	115355
600.270	134258
600.340	140969
600.409	138479
600.478	138559
600.547	139706
600.617	128275
600.686	103802
600.755	94540
600.824	88901
600.894	87086
600.963	89156
601.032	88027
601.101	85193
601.170	83053
601.239	77924
601.308	79732
601.378	80104
601.447	80235
601.516	81704
601.585	82725
601.654	83531
601.723	85744
601.792	87531
601.861	90386
601.930	94149
601.999	94898
602.068	94964
602.137	95497
602.206	98400
602.275	99095
602.343	100059
602.412	99247
602.481	101439
602.550	102741
602.619	105086
602.688	105866
602.756	106574
602.825	107050
602.894	111676
602.963	112700
603.032	114161
603.100	114270
603.169	113529
603.238	116039
603.307	116507
603.375	115284
603.444	120716
603.513	118850
603.581	122187
603.650	124085
603.719	117797
603.787	120968
603.856	122675
603.924	125288
603.993	130395
604.061	136057
604.130	141748
604.198	144328
604.267	147654
604.335	150283
604.404	150797
604.472	153553
604.541	154702
604.609	157055
604.678	159590
604.746	157603
604.815	164298
604.883	166044
604.951	164902
605.020	167702
605.088	168992
605.156	171440
605.225	173318
605.293	172864
605.361	173089
605.429	175884
605.498	179560
605.566	184073
605.634	191909
605.702	197680
605.771	201130
605.839	203620
605.907	199384
605.975	193408
606.043	188478
606.111	187455
606.180	189184
606.248	185398
606.316	184338
606.384	185743
606.452	183282
606.520	182151
606.588	189151
606.656	190003
606.724	186987
606.792	176945
606.860	158642
606.928	146267
606.996	140219
607.064	135905
607.132	141716
607.200	148709
607.267	155820
607.335	158330
607.403	161759
607.471	155717
607.539	151171
607.607	152660
607.674	134885
607.742	133739
607.810	131670
607.878	131648
607.946	137413
608.013	139900
608.081	145271
608.149	147706
608.216	151127
608.284	156027
608.352	155846
608.419	155095
608.487	152993
608.555	147854
608.622	153536
608.690	163635
608.757	179530
608.825	183087
608.893	179331
608.960	167972
609.028	160576
609.095	160528
609.163	161109
609.230	142871
609.298	131035
609.365	138314
609.432	150425
609.500	161745
609.567	186394
609.635	211554
609.702	221334
609.769	209703
609.837	163547
609.904	142941
609.971	146439
610.039	161753
610.106	198242
610.173	327723
610.241	636115
610.308	408024
610.375	189549
610.442	156487
610.509	149504
610.577	148736
610.644	148994
610.711	154704
610.778	159716
610.845	166504
610.912	173879
610.980	180607
611.047	182637
611.114	181126
611.181	172298
611.248	172434
611.315	182508
611.382	184882
611.449	192227
611.516	196243
611.583	193850
611.650	193885
611.717	197043
611.784	201785
611.851	208689
611.918	219573
611.984	246599
612.051	315614
612.118	502764
612.185	914653
612.252	680353
612.319	312249
612.386	258880
612.452	232880
612.519	222042
612.586	216846
612.653	221370
612.719	227142
612.786	218617
612.853	202353
612.919	199770
612.986	201904
613.053	189881
613.120	179697
613.186	172017
613.253	175528
613.319	173911
613.386	174139
613.453	178593
613.519	179676
613.586	175498
613.652	177761
613.719	175176
613.785	180798
613.852	180474
613.918	179330
613.985	181588
614.051	189305
614.118	187977
614.184	181797
614.250	180236
614.317	184040
614.383	180215
614.449	184476
614.516	182223
614.582	183916
614.648	181762
614.715	178732
614.781	174479
614.847	175043
614.914	173884
614.980	168040
615.046	172004
615.112	174121
615.179	175319
615.245	177913
615.311	175892
615.377	178885
615.443	178895
615.509	181876
615.575	188432
615.642	187622
615.708	191412
615.774	199894
615.840	210907
615.906	219895
615.972	256594
616.038	345206
616.104	586973
616.170	995705
616.236	880486
616.302	415770
616.368	328031
616.434	249612
616.500	226262
616.565	247276
616.631	304224
616.697	258496
616.763	259512
616.829	364433
616.895	598141
616.961	569291
617.026	286176
617.092	204100
617.158	190037
617.224	182199
617.289	169958
617.355	160102
617.421	157401
617.487	158596
617.552	150463
617.618	148561
617.684	147799
617.749	149128
617.815	143682
617.880	139385
617.946	140187
618.012	142938
618.077	145325
618.143	139379
618.208	140385
618.274	151144
618.339	150398
618.405	125662
618.470	125178
618.536	124246
618.601	121741
618.667	114060
618.732	108543
618.798	106016
618.863	105463
618.928	105125
618.994	107632
619.059	105775
619.124	107026
619.190	105198
619.255	104756
619.320	104107
619.386	105872
619.451	104761
619.516	100959
619.581	102185
619.647	105608
619.712	105966
619.777	99894
619.842	102000
619.907	103123
619.972	104053
620.038	103266
620.103	101529
620.168	100802
620.233	102684
620.298	103450
620.363	105791
620.428	106445
620.493	111325
620.558	111892
620.623	113449
620.688	113318
620.753	111696
620.818	114945
620.883	115640
620.948	115601
621.013	112654
621.078	111878
621.143	112222
621.207	116264
621.272	111731
621.337	108228
621.402	107230
621.467	106759
621.532	106437
621.596	106956
621.661	103765
621.726	102740
621.791	102924
621.855	104910
621.920	102480
621.985	104818
622.049	107623
622.114	107880
622.179	108261
622.243	111865
622.308	114955
622.373	119964
622.437	117604
622.502	109973
622.566	108982
622.631	107697
622.695	111868
622.760	110885
622.824	111077
622.889	110243
622.953	109882
623.018	116537
623.082	119345
623.147	118416
623.211	114471
623.276	113850
623.340	109775
623.404	106439
623.469	106970
623.533	109323
623.597	105246
623.662	104611
623.726	96740
623.790	90916
623.854	86810
623.919	89373
623.983	90367
624.047	94154
624.111	95416
624.176	95526
624.240	94609
624.304	99706
624.368	95860
624.432	96125
624.496	100051
624.560	103357
624.625	104793
624.689	103638
624.753	108758
624.817	103715
624.881	100947
624.945	90655
625.009	88846
625.073	88362
625.137	93260
625.201	97317
625.265	98364
625.329	93080
625.393	93254
625.456	94757
625.520	99744
625.584	98368
625.648	102356
625.712	104949
625.776	106183
625.839	100107
625.903	84468
625.967	77502
626.031	85267
626.095	98358
626.158	91230
626.222	70575
626.286	67266
626.349	64258
626.413	59634
626.477	60002
626.540	61394
626.604	60530
626.668	58477
626.731	58603
626.795	57512
626.858	59216
626.922	57219
626.986	57215
627.049	55688
627.113	59702
627.176	58624
627.240	54718
627.303	56326
627.366	55052
627.430	56685
627.493	56241
627.557	55057
627.620	57131
627.684	57813
627.747	58389
627.810	53154
627.874	48673
627.937	46165
628.000	48929
628.064	47202
628.127	41644
628.190	42537
628.253	40820
628.317	38143
628.380	36460
628.443	35143
628.506	35170
628.569	34356
628.632	31843
628.696	33211
628.759	30897
628.822	30296
628.885	30138
628.948	29260
629.011	29459
629.074	28591
629.137	27805
629.200	26878
629.263	27413
629.326	26285
629.389	26168
629.452	25908
629.515	26042
629.578	24367
629.641	26823
629.704	26226
629.767	25820
629.830	25210
629.892	23710
629.955	24347
630.018	26489
630.081	24352
630.144	25374
630.207	23132
630.269	25054
630.332	23092
630.395	23222
630.458	23452
630.520	21844
630.583	23418
630.646	23303
630.708	22755
630.771	22495
630.834	25778
630.896	25152
630.959	24442
631.021	23056
631.084	22997
631.146	24120
631.209	23968
631.272	23927
631.334	24606
631.397	24920
631.459	25319
631.522	26072
631.584	26700
631.646	29001
631.709	30079
631.771	29939
631.834	28835
631.896	27391
631.958	24437
632.021	25390
632.083	23210
632.145	23682
632.208	22134
632.270	24114
632.332	22262
632.395	22409
632.457	23438
632.519	21197
632.581	22521
632.643	20851
632.706	22811
632.768	20573
632.830	23371
632.892	22647
632.954	22583
633.016	22761
633.078	22372
633.141	21564
633.203	22177
633.265	21817
633.327	22563
633.389	22224
633.451	23222
633.513	21928
633.575	23935
633.637	22155
633.698	22919
633.760	25170
633.822	25841
633.884	26110
633.946	26943
634.008	27142
634.070	28683
634.132	30525
634.193	33767
634.255	36605
634.317	36411
634.379	35841
634.441	33022
634.502	28648
634.564	26855
634.626	24734
634.687	23994
634.749	22266
634.811	23044
634.873	22118
634.934	22338
634.996	22746
635.057	21874
635.119	22114
635.181	23817
635.242	23882
635.304	21202
635.365	24274
635.427	22920
635.488	21547
635.550	20772
635.611	23583
635.673	21879
635.734	25807
635.796	25810
635.857	29306
635.918	29711
635.980	35237
636.041	37827
636.102	38940
636.164	40105
636.225	38701
636.286	30709
636.348	28805
636.409	26289
636.470	24111
636.531	23810
636.593	22207
636.654	21721
636.715	21050
636.776	19749
636.838	19172
636.899	19857
636.960	18148
637.021	18195
637.082	18178
637.143	18814
637.204	17038
637.265	17613
637.326	18518
637.387	18422
637.448	17880
637.509	18525
637.570	18185
637.631	17874
637.692	16527
637.753	15739
637.814	16501
637.875	16326
637.936	17069
637.997	15921
638.058	15925
638.119	16791
638.179	16642
638.240	15998
638.301	15848
638.362	15860
638.423	15434
638.483	16947
638.544	14768
638.605	14508
638.666	13713
638.726	16063
638.787	15686
638.848	15256
638.908	15254
638.969	13895
639.030	13887
639.090	13375
639.151	14200
639.211	14890
639.272	15423
639.332	14177
639.393	15492
639.453	15767
639.514	17876
639.574	14862
639.635	11740
639.695	14733
639.756	11969
639.816	13872
639.877	12677
639.937	14281
639.997	13185
640.058	12712
640.118	12191
640.178	14210
640.239	13640
640.299	12302
640.359	13950
640.420	15046
640.480	16622
640.540	19062
640.600	18923
640.661	17304
640.721	14799
640.781	17395
640.841	13804
640.901	14427
640.961	14160
641.021	14274
641.082	14036
641.142	12849
641.202	13537
641.262	10669
641.322	13496
641.382	11386
641.442	12443
641.502	12380
641.562	12635
641.622	12520
641.682	13923
641.742	16267
641.802	14963
641.861	13965
641.921	11956
641.981	12491
642.041	11938
642.101	10945
642.161	10059
642.221	10663
642.280	11314
642.340	11809
642.400	10164
642.460	13024
642.519	12030
642.579	11688
642.639	12458
642.698	10264
642.758	14291
642.818	13395
642.877	11670
642.937	12898
642.997	11986
643.056	12775
643.116	10848
643.175	13617
643.235	12630
643.294	12875
643.354	14676
643.414	15504
643.473	18845
643.532	21356
643.592	29222
643.651	44533
643.711	74264
643.770	137115
643.830	300038
643.889	537375
643.948	183557
644.008	45561
644.067	27142
644.126	19250
644.186	17113
644.245	15698
644.304	12668
644.363	15194
644.423	12289
644.482	13062
644.541	13732
644.600	12430
644.659	18334
644.719	23351
644.778	34569
644.837	57893
644.896	116873
644.955	249605
645.014	89471
645.073	24006
645.132	16148
645.191	15240
645.250	13727
645.309	15650
645.368	17466
645.427	24274
645.486	40947
645.545	72179
645.604	22009
645.663	13132
645.722	12122
645.781	15063
645.840	16879
645.898	19550
645.957	28365
646.016	39212
646.075	70758
646.134	129900
646.192	309801
646.251	423559
646.310	98113
646.369	32684
646.427	26204
646.486	17626
646.545	14096
646.603	13045
646.662	12807
646.721	12414
646.779	10994
646.838	12332
646.896	16382
646.955	21960
647.014	35214
647.072	67111
647.131	176222
647.189	87759
647.248	15751
647.306	11246
647.365	10393
647.423	8442
647.481	9084
647.540	7568
647.598	8184
647.657	8784
647.715	9408
647.773	6860
647.832	8363
647.890	6646
647.948	7400
648.007	7451
648.065	6222
648.123	6172
648.181	8743
648.240	7415
648.298	6195
648.356	6606
648.414	7131
648.472	6862
648.531	6277
648.589	5997
648.647	5611
648.705	5892
648.763	6443
648.821	6938
648.879	6467
648.937	8903
648.995	9977
649.053	13073
649.111	20630
649.169	33585
649.227	58405
649.285	120833
649.343	310375
649.401	160969
649.459	27365
649.516	14882
649.574	11062
649.632	12288
649.690	13723
649.748	17858
649.806	23822
649.863	47685
649.921	130694
649.979	89088
650.037	13681
650.094	6976
650.152	7158
650.210	5727
650.268	6470
650.325	5311
650.383	5408
650.440	3897
650.498	5399
650.556	4568
650.613	3757
650.671	5043
650.728	4985
650.786	5890
650.843	7748
650.901	5398
650.958	4108
651.016	3511
651.073	4125
651.131	2809
651.188	3203
651.246	4299
651.303	2865
651.360	4055
651.418	3485
651.475	4661
651.532	2981
651.590	4294
651.647	3132
651.704	3490
651.762	2655
651.819	4057
651.876	3275
651.933	3561
651.990	3374
652.048	2806
652.105	2346
652.162	3254
652.219	2767
652.276	3350
652.333	3228
652.390	1860
652.448	3405
652.505	3221
652.562	2629
652.619	3507
652.676	3371
652.733	4239
652.790	2027
652.847	1792
652.904	2832
652.961	2158
653.017	1928
653.074	2958
653.131	2428
653.188	2025
653.245	2612
653.302	2150
653.359	2928
653.415	2665
653.472	2202
653.529	2923
653.586	2175
653.642	1568
653.699	3322
653.756	2496
653.813	2800
653.869	2747
653.926	2641
653.983	1655
654.039	2837
654.096	1966
654.152	4298
654.209	1068
654.266	2189
654.322	1443
654.379	2867
654.435	3418
654.492	2195
654.548	1915
654.605	2074
654.661	3244
654.717	1987
654.774	3220
654.830	2699
654.887	2201
654.943	2804
655.000	2596
655.056	2457
655.112	2152
655.168	1348
655.225	2124
655.281	3095
655.337	3240
655.394	1534
655.450	1984
655.506	2872
655.562	1578
655.618	3606
655.675	2408
655.731	2299
655.787	2085
655.843	2483
655.899	1968
655.955	2685
656.011	3059
656.067	1860
656.123	3253
656.179	2383
656.235	3650
656.291	1431
656.347	3349
656.403	1719
656.459	1832
656.515	3274
656.571	1473
656.627	2433
656.683	1810
656.739	2813
656.795	2649
656.850	1493
656.906	2433
656.962	2304
657.018	2614
657.074	4372
657.129	4938
657.185	9531
657.241	22539
657.297	12359
657.352	3217
657.408	1525
657.464	2923
657.519	1903
657.575	1585
657.630	1176
657.686	1136
657.742	1172
657.797	1959
657.853	1094
657.908	2699
657.964	1161
658.019	2329
658.075	1446
658.130	2243
658.186	308
658.241	2134
658.297	862
658.352	835
658.407	1916
658.463	1242
658.518	1870
658.573	1631
658.629	1123
658.684	1731
658.739	1287
658.795	1211
658.850	1524
658.905	1728
658.960	1122
659.016	202
659.071	835
659.126	1780
659.181	1565
659.236	2252
659.291	2120
659.346	1265
659.401	1928
659.457	1771
659.512	1504
659.567	1878
659.622	1811
659.677	1131
659.732	174
659.787	1100
659.842	548
659.897	974
659.952	2009
660.007	757
660.061	1596
660.116	266
660.171	658
660.226	845
660.281	1908
660.336	849
660.391	1728
660.445	580
660.500	1061
660.555	839
660.610	1181
660.664	1302
660.719	1480
660.774	1975
660.828	2099
660.883	810
660.938	1721
660.992	14
661.047	1666
661.101	687
661.156	1018
661.211	848
661.265	587
661.320	608
661.374	854
661.429	1162
661.483	1609
661.538	274
661.592	1496
661.647	1615
661.701	1407
661.755	1064
661.810	1492
661.864	660
661.919	648
661.973	1383
662.027	1140
662.081	1139
662.136	107
662.190	1338
662.244	817
662.299	667
662.353	457
662.407	845
662.461	247
662.515	755
662.569	511
662.624	1898
662.678	1310
662.732	969
662.786	751
662.840	935
662.894	1462
662.948	1093
663.002	1112
663.056	376
663.110	1217
663.164	898
663.218	569
663.272	1246
663.326	2133
663.380	1187
663.434	767
663.488	807
663.542	1048
663.595	1619
663.649	485
663.703	1197
663.757	789
663.811	480
663.864	1008
663.918	1625
663.972	562
664.026	1004
664.079	182
664.133	1553
664.187	1956
664.240	1361
664.294	1387
664.348	1069
664.401	1636
664.455	1726
664.508	58
664.562	1053
664.615	1498
664.669	455
664.722	1076
664.776	1149
664.829	861
664.883	734
664.936	607
664.990	674
665.043	594
665.097	1199
665.150	1575
665.203	1369
665.257	1362
665.310	1650
665.363	1219
665.417	1092
665.470	1285
665.523	1514
665.576	2256
665.630	1422
665.683	988
665.736	1044
665.789	1307
665.842	-42
665.895	1936
665.949	1104
666.002	1565
666.055	1017
666.108	1163
666.161	1408
666.214	711
666.267	1839
666.320	1766
666.373	1164
666.426	1372
666.479	1268
666.532	1473
666.585	1507
666.638	1936
666.691	680
666.744	1955
666.796	1302
666.849	1417
666.902	1251
666.955	1194
667.008	765
667.060	1155
667.113	1178
667.166	1204
667.219	1808
667.271	1580
667.324	1666
667.377	1661
667.430	1367
667.482	1435
667.535	1378
667.587	1864
667.640	1505
667.693	888
667.745	1660
667.798	2161
667.850	1106
667.903	995
667.955	1479
668.008	1346
668.060	933
668.113	1111
668.165	835
668.218	1837
668.270	1717
668.322	824
668.375	1238
668.427	1123
668.479	1157
668.532	1478
668.584	1770
668.636	1054
668.689	912
668.741	644
668.793	1927
668.845	765
668.898	977
668.950	1043
669.002	1609
669.054	1088
669.106	1651
669.158	1567
669.211	1531
669.263	1087
669.315	1568
669.367	1203
669.419	281
669.471	2310
669.523	1768
669.575	1649
669.627	1062
669.679	1273
669.731	1740
669.783	1276
669.835	1619
669.886	1387
669.938	990
669.990	1496
670.042	904
670.094	1157
670.146	1459
670.197	1670
670.249	2223
670.301	1571
670.353	1934
670.404	2813
670.456	4412
670.508	6453
670.560	9871
670.611	15681
670.663	27876
670.715	65963
670.766	105525
670.818	32094
670.869	6064
670.921	5187
670.972	2939
671.024	2206
671.075	2223
671.127	1452
671.178	2604
671.230	2536
671.281	2832
671.333	2547
671.384	2949
671.436	5439
671.487	8233
671.538	10799
671.590	18886
671.641	31362
671.692	57061
671.744	105938
671.795	76316
671.846	27503
671.897	12341
671.949	6551
672.000	5628
672.051	4387
672.102	3094
672.153	1623
672.204	1799
672.256	1778
672.307	1537
672.358	1348
672.409	1253
672.460	1472
672.511	850
672.562	1330
672.613	1005
672.664	675
672.715	434
672.766	1242
672.817	1269
672.868	821
672.919	1859
672.970	217
673.021	706
673.071	188
673.122	1298
673.173	319
673.224	426
673.275	932
673.326	1013
673.376	483
673.427	847
673.478	390
673.528	588
673.579	512
673.630	551
673.680	1210
673.731	560
673.782	-34
673.832	1361
673.883	624
673.934	73
673.984	288
674.035	492
674.085	1041
674.136	854
674.186	950
674.237	698
674.287	756
674.338	1115
674.388	279
674.438	941
674.489	828
674.539	1586
674.589	746
674.640	832
674.690	1292
674.740	224
674.791	299
674.841	637
674.891	362
674.942	990
674.992	575
675.042	684
675.092	634
675.142	-55
675.193	395
675.243	-209
675.293	841
675.343	910
675.393	127
675.443	1102
675.493	478
675.543	126
675.593	-34
675.643	676
675.693	278
675.743	17
675.793	837
675.843	-67
675.893	696
675.943	16
675.993	603
676.043	564
676.093	453
676.142	-83
676.192	903
676.242	-537
676.292	-328
676.341	-876
676.391	-225
676.441	-194
676.491	225
676.540	-180
676.590	543
676.640	-390
676.689	-541
676.739	-491
676.789	-105
676.838	-642
676.888	-666
676.937	-248
676.987	-38
677.037	438
677.086	-773
677.136	29
677.185	-614
677.235	-51
677.284	-206
677.333	381
677.383	-526
677.432	120
677.482	199
677.531	135
677.580	-692
677.630	160
677.679	-868
677.728	-306
677.778	380
677.827	-305
677.876	-298
677.925	-368
677.975	208
678.024	-548
678.073	-45
678.122	297
678.171	40
678.220	-116
678.269	665
678.319	341
678.368	540
678.417	364
678.466	72
678.515	73
678.564	17
678.613	-38
678.662	-707
678.711	168
678.760	-1032
678.809	-207
678.857	115
678.906	100
678.955	-377
679.004	925
679.053	208
679.102	-281
679.151	60
679.199	-814
679.248	-381
679.297	-890
679.346	-23
679.394	-820
679.443	-225
679.492	-474
679.540	190
679.589	56
679.638	-42
679.686	-291
679.735	799
679.784	28
679.832	883
679.881	209
679.929	-44
679.978	-547
680.026	-413
680.075	-419
680.123	-691
680.172	-1083
680.220	358
680.268	307
680.317	-1181
680.365	-585
680.414	-550
680.462	-6
680.510	76
680.559	-324
680.607	-855
680.655	-318
680.703	-599
680.752	-586
680.800	-584
680.848	-767
680.896	-427
680.945	-537
680.993	-659
681.041	-775
681.089	-193
681.137	-1270
681.185	-219
681.233	-1091
681.258	-903
681.281	-745
681.329	-491
681.377	-133
681.380	-97
681.425	204
681.473	-625
681.502	-466
681.521	-401
681.569	100
681.617	-172
681.624	-101
681.665	229
681.713	6
681.745	458
681.761	643
681.809	-375
681.857	88
681.867	146
681.904	271
681.952	499
681.989	629
682.000	645
682.048	246
682.096	731
682.111	479
682.143	-128
682.191	833
682.233	1020
682.239	1025
682.286	514
682.334	65
682.354	189
682.382	356
682.430	1109
682.476	853
682.477	829
682.525	970
682.572	426
682.598	608
682.620	742
682.667	1184
682.715	1297
682.720	1242
682.763	522
682.810	661
682.841	402
682.857	256
682.905	579
682.952	784
682.963	840
683.000	957
683.047	1212
683.085	1704
683.095	1821
683.142	1948
683.190	1473
683.206	1465
683.237	1406
683.284	1516
683.328	1500
683.332	1479
683.379	1476
683.426	682
683.449	937
683.473	1233
683.521	793
683.568	1520
683.571	1571
683.615	1990
683.662	1437
683.693	1476
683.709	1458
683.757	781
683.804	2030
683.814	1851
683.851	1143
683.898	1268
683.936	1914
683.945	2086
683.992	1638
684.039	1453
684.057	1528
684.086	1534
684.133	1663
684.179	1920
684.180	1919
684.227	2050
684.274	2019
684.300	2087
684.321	2143
684.368	730
684.415	2037
684.422	2050
684.462	2089
684.509	2021
684.543	2303
684.556	2363
684.603	2185
684.649	2230
684.665	2228
684.696	2217
684.743	2687
684.786	2443
684.790	2416
684.837	2217
684.883	2334
684.908	2412
684.930	2459
684.977	2308
685.023	2605
685.029	2644
685.070	2802
685.117	2987
685.150	2870
685.164	2790
685.210	3049
685.257	2759
685.272	2876
685.303	3237
685.350	2965
685.393	3385
685.396	3394
685.443	3093
685.490	2959
685.514	2539
685.536	2266
685.583	2842
685.629	2653
685.636	2688
685.675	2859
685.722	3308
685.757	3396
685.768	3365
685.815	2693
685.861	2957
685.878	2711
685.908	2467
685.954	3304
686.000	3381
686.000	3377
686.047	3580
686.093	3897
686.121	3974
686.139	3903
686.185	3695
686.232	3588
686.242	3470
686.278	3106
686.324	3469
686.363	3432
686.370	3445
686.416	3833
686.463	3835
686.484	3986
686.509	4085
686.555	3560
686.601	3724
686.606	3769
686.647	4053
686.693	3410
686.727	3786
686.739	3973
686.785	3637
686.831	3515
686.848	3596
686.877	3738
686.923	3433
686.969	4158
686.969	4161
687.015	3945
687.061	4605
687.090	4734
687.107	4743
687.153	4576
687.199	4397
687.211	4365
687.245	4266
687.291	4246
687.332	4004
687.336	3997
687.382	3575
687.428	4384
687.453	4566
687.474	4655
687.520	4383
687.565	4737
687.574	4790
687.611	5246
687.657	5403
687.695	5441
687.702	5449
687.748	5598
687.794	6642
687.816	6332
687.839	5689
687.885	5468
687.931	4995
687.937	4999
687.976	5373
688.022	5185
688.058	5283
688.067	5300
688.113	4939
688.158	4791
688.179	4895
688.204	5083
688.249	5240
688.295	5127
688.300	5175
688.340	5473
688.386	5225
688.421	5335
688.431	5381
688.477	5153
688.522	5200
688.542	5255
688.567	5415
688.613	5848
688.658	5516
688.663	5577
688.703	5876
688.749	5474
688.784	5441
688.794	5417
688.839	5497
688.884	5321
688.905	5185
688.930	5223
688.975	5565
689.020	5621
689.026	5615
689.065	5600
689.110	5452
689.146	5529
689.155	5547
689.201	5437
689.246	6210
689.267	6055
689.291	5817
689.336	6091
689.381	5970
689.388	5916
689.426	5884
689.471	6124
689.509	6043
689.516	5978
689.561	6076
689.606	5571
689.630	5371
689.651	5304
689.696	5434
689.741	5735
689.750	5680
689.785	5676
689.830	5905
689.871	6157
689.875	6171
689.920	6328
689.965	6207
689.992	6021
690.010	5920
690.054	5832
690.099	5880
690.112	5843
690.144	5853
690.189	5928
690.233	5774
690.233	5783
690.278	5999
690.323	6213
690.354	6223
690.367	6208
690.412	6123
690.457	6121
690.474	6168
690.501	6342
690.546	6138
690.590	6464
690.595	6441
690.635	6284
690.680	6064
690.716	6128
690.724	6195
690.769	6542
690.813	6889
690.836	6922
690.857	7322
690.902	8671
690.946	9436
690.957	9612
690.991	10891
691.035	12764
691.077	15003
691.080	15019
691.124	13854
691.168	12975
691.198	12418
691.213	11830
691.257	9726
691.301	7983
691.318	7498
691.346	7786
691.390	7053
691.434	7125
691.439	7058
691.478	6710
691.522	7363
691.559	7088
691.567	7085
691.611	7155
691.655	7331
691.680	7386
691.699	7375
691.743	7590
691.787	7341
691.800	7268
691.831	7216
691.875	7357
691.919	7418
691.921	7402
691.964	7146
692.008	6964
692.041	6910
692.052	7013
692.096	7179
692.139	7215
692.162	7501
692.183	7567
692.227	7050
692.271	7189
692.282	7030
692.315	6927
692.359	7245
692.402	7657
692.403	7674
692.447	7402
692.490	7094
692.523	7150
692.534	7221
692.578	7246
692.622	7299
692.643	7157
692.666	7084
692.709	7059
692.753	7293
692.763	7341
692.797	7583
692.840	7412
692.884	7684
692.884	7702
692.928	7541
692.971	7497
693.004	7265
693.015	7280
693.059	7624
693.102	7844
693.124	7880
693.146	7798
693.189	7507
693.233	7540
693.245	7411
693.276	7299
693.320	7645
693.363	7690
693.365	7672
693.407	8206
693.450	8779
693.485	9110
693.493	9134
693.537	9559
693.580	9526
693.605	9604
693.624	10208
693.667	11675
693.710	13260
693.725	13693
693.753	17039
693.797	22251
693.840	27900
693.845	28487
693.883	26250
693.926	23274
693.966	20719
693.970	20407
694.013	16893
694.056	13103
694.086	10652
694.099	10446
694.142	9624
694.185	8720
694.206	8286
694.229	8398
694.272	8447
694.315	9026
694.326	8983
694.358	8541
694.401	8151
694.444	7771
694.446	7730
694.487	7976
694.530	8447
694.566	8524
694.573	8507
694.616	8546
694.659	8343
694.686	8231
694.702	8286
694.745	8522
694.787	8445
694.806	8550
694.830	8602
694.873	8376
694.916	8433
694.926	8374
694.959	8501
695.002	8643
695.044	8743
695.046	8734
695.087	8978
695.130	8964
695.166	8904
695.172	8953
695.215	9202
695.258	9387
695.286	9605
695.301	9700
695.343	9755
695.386	10030
695.406	9960
695.428	10310
695.471	11212
695.514	11752
695.526	11972
695.556	12568
695.599	13756
695.641	14199
695.646	14231
695.684	13549
695.726	12952
695.766	12176
695.769	12176
695.811	11877
695.854	11527
695.886	11283
695.896	11375
695.938	11529
695.981	11590
696.005	11734
696.023	12213
696.065	13141
696.108	14119
696.125	14447
696.150	14681
696.192	15208
696.235	15504
696.245	15583
696.277	15411
696.319	15087
696.361	14685
696.365	14624
696.404	14926
696.446	14982
696.485	15266
696.488	15315
696.530	15200
696.572	15236
696.604	15164
696.614	15097
696.656	14593
696.698	14142
696.724	13859
696.740	14008
696.783	14267
696.825	14552
696.844	14626
696.867	14755
696.909	14868
696.951	14972
696.964	15003
696.992	14929
697.034	14721
697.076	14494
697.083	14417
697.118	14948
697.160	15531
697.202	16054
697.203	16027
697.244	15820
697.286	15617
697.323	15222
697.327	15301
697.369	15703
697.411	16181
697.442	16500
697.453	16511
697.494	16204
697.536	16048
697.562	15923
697.578	15959
697.620	15870
697.661	15722
697.682	15645
697.703	16010
697.744	16641
697.786	17366
697.801	17520
697.828	17470
697.869	17364
697.911	17276
697.921	17212
697.952	16996
697.994	16624
698.035	16265
698.040	16175
698.077	16432
698.118	16693
698.160	16933
698.160	16888
698.201	17310
698.243	17597
698.279	17856
698.284	17977
698.325	18656
698.367	19300
698.399	19750
698.408	19839
698.449	20045
698.491	20221
698.518	20261
698.532	20162
698.573	19743
698.614	19298
698.638	18979
698.656	19150
698.697	19444
698.738	19752
698.757	19839
698.779	19926
698.820	19981
698.862	20052
698.877	20024
698.903	20196
698.944	20377
698.985	20568
698.996	20565
699.026	20413
699.067	20127
699.116	19734
699.235	19686
699.354	19788
699.474	18043
699.593	18553
699.713	18737
699.832	18949
699.951	19052
700.070	19330
700.190	17956
700.309	16836
700.428	15815
700.547	16290
700.667	16208
700.786	17044
700.905	15750
701.024	16950
701.143	16208
701.262	16759
701.381	17672
701.500	18149
701.619	17006
701.738	17772
701.857	17214
701.976	14691
702.095	16049
702.214	16864
702.333	15743
702.452	18495
702.571	16663
702.690	17270
702.809	16545
702.928	15497
703.047	15071
703.165	15525
703.284	15832
703.403	14970
703.522	15610
703.640	14829
703.759	14322
703.878	14856
703.997	14856
704.115	14694
704.234	14583
704.353	14921
704.471	13853
704.590	13372
704.708	12967
704.827	13493
704.946	12950
705.064	13665
705.183	12197
705.301	14096
705.420	14504
705.538	12829
705.656	12305
705.775	11903
705.893	14127
706.012	14146
706.130	12267
706.249	13242
706.367	11738
706.485	12357
706.604	11751
706.722	12531
706.840	14001
706.958	16002
707.077	13727
707.195	11732
707.313	11660
707.431	11133
707.549	10976
707.668	10493
707.786	11360
707.904	12123
708.022	11339
708.140	10877
708.258	10593
708.376	12054
708.494	11250
708.612	11800
708.730	11148
708.848	11724
708.966	12038
709.084	11283
709.202	10789
709.320	10090
709.438	9704
709.556	10036
709.674	9050
709.791	10130
709.909	9586
710.027	9719
710.145	9672
710.263	9420
710.380	9923
710.498	9016
710.616	9428
710.733	8994
710.851	9468
710.969	9456
711.086	8441
711.204	9570
711.322	9120
711.439	8213
711.557	8712
711.674	9016
711.792	9161
711.909	9421
712.027	8381
712.144	8728
712.262	8658
712.379	9241
712.497	9186
712.614	8394
712.732	9880
712.849	7823
712.966	9166
713.084	9249
713.201	8112
713.318	9338
713.436	9550
713.553	9603
713.670	10025
713.787	9775
713.905	9748
714.022	10693
714.139	10670
714.256	14709
714.373	20282
714.490	39202
714.608	106849
714.725	423168
714.842	421597
714.959	48001
715.076	19218
715.193	14215
715.310	12253
715.427	9562
715.544	9882
715.661	9398
715.778	8537
715.895	8807
716.011	8001
716.128	8116
716.245	7543
716.362	8126
716.479	7491
716.596	8181
716.713	7681
716.829	7334
716.946	6435
717.063	6723
717.180	6496
717.296	6247
717.413	7039
717.530	6383
717.646	5952
717.763	6545
717.880	5794
717.996	5553
718.113	5669
718.229	6604
718.346	5265
718.462	6226
718.579	7161
718.695	6820
718.812	5698
718.928	7122
719.045	5829
719.161	6125
719.277	6389
719.394	7586
719.510	6756
719.626	8205
719.743	11134
719.859	17069
719.975	37646
720.092	154190
720.208	338949
720.324	45039
720.440	11757
720.557	7756
720.673	8254
720.789	7393
720.905	8562
721.021	6704
721.137	5139
721.253	5490
721.369	5230
721.486	6758
721.602	5683
721.718	5506
721.834	5143
721.950	5284
722.066	5439
722.181	4943
722.297	5520
722.413	5634
722.529	5295
722.645	5457
722.761	5416
722.877	5166
722.993	5795
723.108	9668
723.224	6633
723.340	5729
723.456	5338
723.571	4583
723.687	4888
723.803	5129
723.918	4670
724.034	4496
724.150	4737
724.265	4443
724.381	5207
724.497	4382
724.612	4555
724.728	4415
724.843	3140
724.959	4972
725.074	5052
725.190	4650
725.305	4312
725.421	3752
725.536	4514
725.651	4925
725.767	3109
725.882	4879
725.997	4262
726.113	4535
726.228	4573
726.343	4426
726.459	4525
726.574	4413
726.689	4564
726.804	4692
726.920	4921
727.035	4400
727.150	3802
727.265	4359
727.380	4756
727.495	4912
727.610	4521
727.725	3331
727.841	4638
727.956	5509
728.071	4540
728.186	4318
728.301	3961
728.416	4116
728.531	4819
728.645	4469
728.760	3998
728.875	4603
728.990	3664
729.105	4359
729.220	2892
729.335	4504
729.449	3718
729.564	3563
729.679	4228
729.794	4093
729.908	3082
730.023	4867
730.138	3750
730.253	3752
730.367	3370
730.482	4075
730.596	3667
730.711	5911
730.826	6930
730.940	6425
731.055	5619
731.169	5501
731.284	5616
731.398	6823
731.513	6505
731.627	7070
731.742	9157
731.856	11767
731.970	10819
732.085	14852
732.199	23634
732.313	42684
732.428	111413
732.542	318360
732.656	191679
732.771	36645
732.885	17903
732.999	15966
733.113	16537
733.227	15170
733.342	14471
733.456	13053
733.570	11558
733.684	11984
733.798	10247
733.912	10781
734.026	10846
734.140	11731
734.254	11396
734.368	10201
734.482	10359
734.596	11292
734.710	9969
734.824	9480
734.938	10751
735.052	10087
735.166	9857
735.280	10391
735.393	10507
735.507	10060
735.621	9474
735.735	9276
735.849	9969
735.962	8359
736.076	9504
736.190	9026
736.303	10012
736.417	9800
736.531	8170
736.644	8695
736.758	9167
736.872	9064
736.985	8712
737.099	8825
737.212	7972
737.326	8908
737.439	9801
737.553	8947
737.666	8649
737.780	8293
737.893	7890
738.007	7780
738.120	8513
738.233	7994
738.347	8175
738.460	7864
738.573	6966
738.687	7270
738.800	8601
738.913	7709
739.026	7612
739.140	7470
739.253	7153
739.366	7231
739.479	6991
739.592	7135
739.705	6750
739.818	8655
739.932	6980
740.045	7694
740.158	7067
740.271	7761
740.384	6723
740.497	5692
740.610	7336
740.723	7191
740.836	7627
740.949	6686
741.062	7574
741.174	7344
741.287	6921
741.400	7198
741.513	5616
741.626	7272
741.739	6438
741.851	6826
741.964	7203
742.077	7033
742.189	6495
742.302	7803
742.415	6207
742.527	6709
742.640	6120
742.753	5352
742.865	6031
742.978	5718
743.090	5603
743.203	6593
743.316	6011
743.428	5073
743.541	5415
743.653	5704
743.766	6187
743.878	6037
743.990	5188
744.103	7050
744.215	5808
744.327	4787
744.440	6175
744.552	5368
744.664	5177
744.777	6365
744.889	5558
745.001	5187
745.113	5419
745.226	5836
745.338	5218
745.450	5749
745.562	5225
745.674	4453
745.786	5979
745.898	5485
746.010	4536
746.122	6564
746.234	5306
746.347	6023
746.459	5674
746.570	4068
746.682	6605
746.794	7160
746.906	5245
747.018	5195
747.130	4842
747.242	5001
747.354	4300
747.466	5593
747.577	4124
747.689	5553
747.801	5233
747.913	4515
748.024	4085
748.136	4478
748.248	4498
748.359	5105
748.471	4549
748.583	4342
748.694	3995
748.806	5300
748.918	4544
749.029	4661
749.141	4082
749.252	4859
749.364	3311
749.475	3967
749.587	4210
749.698	4351
749.809	4165
749.921	4810
750.032	4281
750.144	3178
750.255	4112
750.366	3888
750.478	3602
750.589	4722
750.700	3595
750.811	5347
750.923	3363
751.034	3941
751.145	4702
751.256	4418
751.367	2866
751.479	3101
751.590	3808
751.701	3992
751.812	3302
751.923	3988
752.034	4289
752.145	3721
752.256	3300
752.367	3801
752.478	3006
752.589	4002
752.700	4532
752.811	4144
752.922	3886
753.032	3623
753.143	4217
753.254	3420
753.365	4451
753.476	4033
753.586	4447
753.697	3580
753.808	3689
753.919	3646
754.029	3364
754.140	3429
754.251	2899
754.361	2945
754.472	3477
754.582	3166
754.693	3906
754.804	4923
754.914	3657
755.025	2591
755.135	3427
755.246	3529
755.356	3092
755.466	3716
755.577	2705
755.687	3029
755.798	3208
755.908	3499
756.018	2889
756.129	4252
756.239	2918
756.349	3592
756.460	3558
756.570	3991
756.680	3831
756.790	3432
756.900	4172
757.011	3550
757.121	2895
757.231	2857
757.341	2603
757.451	3636
757.561	2190
757.671	3415
757.781	2815
757.891	3328
758.001	2522
758.111	3530
758.221	4212
758.331	4083
758.441	3812
758.551	3393
758.661	3885
758.771	4176
758.880	3684
758.990	3476
759.100	3355
759.210	4075
759.320	3751
759.429	3642
759.539	4555
759.649	4722
759.758	4859
759.868	6418
759.978	5545
760.087	5891
760.197	6001
760.307	5901
760.416	5635
760.526	4348
760.635	5148
760.745	6446
760.854	5996
760.964	8038
761.073	7916
761.182	6379
761.292	5593
761.401	4846
761.511	4837
761.620	4146
761.729	3591
761.839	3680
761.948	4332
762.057	3740
762.166	3669
762.276	2740
762.385	4491
762.494	3659
762.603	3935
762.712	4311
762.822	3298
762.931	3582
763.040	2913
763.149	3508
763.258	3376
763.367	4197
763.476	3738
763.585	3924
763.694	3153
763.803	4181
763.912	3700
764.021	4906
764.130	4255
764.238	5266
764.347	5100
764.456	5598
764.565	5457
764.674	5391
764.783	4939
764.891	6043
765.000	6835
765.109	7581
765.217	7965
765.326	9006
765.435	10366
765.543	14003
765.652	15786
765.761	20431
765.869	27414
765.978	42663
766.086	67822
766.195	118148
766.303	221452
766.412	303874
766.520	240884
766.629	185475
766.737	100326
766.846	58578
766.954	38111
767.062	28852
767.171	21829
767.279	17609
767.387	12954
767.496	12009
767.604	10236
767.712	8930
767.820	8219
767.928	7673
768.037	6760
768.145	7416
768.253	6641
768.361	7108
768.469	6085
768.577	6553
768.685	6831
768.793	6927
768.901	7374
769.009	9452
769.117	9140
769.225	13233
769.333	18498
769.441	28095
769.549	47531
769.657	97375
769.765	209076
769.873	243595
769.981	168583
770.088	79805
770.196	40476
770.304	27204
770.412	19236
770.519	13908
770.627	11768
770.735	10791
770.842	8571
770.950	8709
771.058	6627
771.165	8481
771.273	7153
771.380	8112
771.488	8881
771.595	10534
771.703	8512
771.810	8188
771.918	7816
772.025	10180
772.133	10165
772.240	9139
772.348	10766
772.455	10580
772.562	9045
772.670	7926
772.777	9193
772.884	9011
772.991	8388
773.099	9292
773.206	7355
773.313	8824
773.420	8368
773.528	8029
773.635	7648
773.742	8718
773.849	7340
773.956	8632
774.063	7132
774.170	7722
774.277	7968
774.384	7245
774.491	6989
774.598	8530
774.705	7430
774.812	7934
774.919	7666
775.026	7455
775.133	6899
775.239	7919
775.346	6932
775.453	6434
775.560	6934
775.667	7221
775.773	5878
775.880	7121
775.987	6782
776.093	6567
776.200	7413
776.307	6327
776.413	5846
776.520	7001
776.627	6498
776.733	6746
776.840	4585
776.946	9813
777.053	7445
777.159	8300
777.266	6722
777.372	8206
777.478	7909
777.585	6822
777.691	5211
777.798	6488
777.904	4811
778.010	6360
778.117	5504
778.223	4540
778.329	5157
778.435	5188
778.542	5954
778.648	6464
778.754	4395
778.860	5159
778.966	5883
779.072	4917
779.178	4804
779.284	4452
779.391	4211
779.497	4870
779.603	5973
779.708	5358
779.815	7211
779.920	16007
780.026	28941
780.132	7290
780.238	4511
780.344	4280
780.450	6074
780.556	3786
780.661	3733
780.767	5161
780.873	2864
780.979	3920
781.085	3911
781.190	4620
781.296	3581
781.402	4339
781.507	3831
781.613	3442
781.719	3546
781.824	5105
781.930	4669
782.035	4500
782.141	4805
782.246	3501
782.352	3267
782.457	4324
782.563	3684
782.668	4084
782.773	3652
782.879	3446
782.984	4331
783.090	4362
783.195	4710
783.300	4878
783.405	3612
783.511	3207
783.616	3791
783.721	4913
783.826	3087
783.932	3620
784.037	3435
784.142	4035
784.247	3383
784.352	3885
784.457	2584
784.562	3251
784.667	4461
784.772	3294
784.877	2093
784.982	3702
785.087	2646
785.192	2947
785.297	3445
785.402	3215
785.507	2866
785.611	4030
785.716	2292
785.821	3246
785.926	2585
786.031	2942
786.135	2488
786.240	3456
786.345	1580
786.450	3465
786.554	2909
786.659	1985
786.763	1705
786.868	3017
786.973	3434
787.077	2581
787.182	2074
787.286	3164
787.391	2872
787.495	1959
787.600	2399
787.704	1998
787.809	2497
787.913	2806
788.017	3027
788.122	3101
788.226	2623
788.330	2013
788.435	2206
788.539	3700
788.643	2406
788.747	1938
788.852	2461
788.956	2346
789.060	2880
789.164	2967
789.268	2307
789.372	3209
789.476	1269
789.580	1869
789.684	1401
789.788	3362
789.892	1791
789.996	2267
790.100	1948
790.204	2270
790.308	2999
790.412	1067
790.516	1667
790.620	2339
790.724	3647
790.828	2166
790.931	417
791.035	3267
791.139	1317
791.242	1823
791.346	2424
791.450	2097
791.554	1497
791.657	674
791.761	3082
791.864	2471
791.968	1934
792.072	2306
792.175	1396
792.279	1043
792.382	1922
792.486	1148
792.589	1536
792.693	1770
792.796	249
792.899	2811
793.003	2722
793.106	430
793.209	672
793.313	2063
793.416	-159
793.519	1455
793.623	2489
793.726	1711
793.829	952
793.932	1647
794.035	623
794.138	2869
794.242	1852
794.345	1401
794.448	1933
794.551	2340
794.654	7478
794.757	15155
794.860	2967
794.963	1847
795.066	1575
795.169	2312
795.272	902
795.375	1874
795.477	707
795.580	1444
795.683	213
795.786	1784
795.889	216
795.991	2113
796.094	1235
796.197	431
796.300	2526
796.402	2230
796.505	1043
796.608	1081
796.710	2078
796.813	1921
796.915	1943
797.018	1787
797.120	1553
797.223	1162
797.326	2436
797.428	210
797.530	1147
797.633	902
797.735	2515
797.838	723
797.940	2431
798.042	676
798.145	1370
798.247	2275
798.349	-339
798.452	2810
798.554	1677
798.656	1438
798.758	2988
798.860	1898
798.962	236
799.065	353
799.167	108
799.269	2084
799.371	1750
799.473	3346
799.575	1831
799.677	1264
799.779	2745
799.881	477
799.983	1773
800.085	1675
800.187	885
800.289	466
800.390	839
800.492	1471
800.594	2209
800.696	609
800.798	1270
800.899	1004
801.001	406
801.103	1690
801.205	1716
801.306	1450
801.408	478
801.509	1091
801.611	1961
801.713	1609
801.814	945
801.916	1249
802.017	415
802.119	871
802.220	445
802.322	-355
802.423	1722
802.525	-542
802.626	142
802.727	1845
802.829	1215
802.930	-839
803.031	897
803.133	1022
803.234	631
803.335	1117
803.436	218
803.538	781
803.639	-270
803.740	1160
803.841	981
803.942	1710
804.043	904
804.144	425
804.245	276
804.346	723
804.447	348
804.548	853
804.649	1421
804.750	520
804.851	433
804.952	448
805.053	411
805.154	292
805.255	1060
805.355	1178
805.456	-10
805.557	669
805.658	-208
805.758	513
805.859	1201
805.960	1181
806.061	292
806.161	241
806.262	782
806.362	257
806.463	36
806.564	720
806.664	191
806.765	770
806.865	-592
806.966	45
807.066	270
807.166	1836
807.267	1533
807.367	66
807.468	1038
807.568	-66
807.668	1120
807.769	1416
807.869	148
807.969	1364
808.069	150
808.170	470
808.270	-365
808.370	1005
808.470	245
808.570	368
808.670	1021
808.770	323
808.870	-274
808.970	779
809.070	268
809.170	529
809.271	1048
809.370	523
809.470	366
809.570	553
809.670	-310
809.770	718
809.870	1144
809.970	675
810.070	498
810.169	579
810.269	-1228
810.369	1241
810.469	739
810.568	320
810.668	701
810.768	450
810.867	738
810.967	561
811.066	88
811.166	-33
811.265	1219
811.365	-792
811.464	857
811.564	1312
811.663	171
811.763	-216
811.862	1449
811.962	1197
812.061	907
812.160	238
812.260	334
812.359	830
812.458	303
812.557	1710
812.657	1720
812.756	1165
812.855	766
812.954	-52
813.053	648
813.153	1647
813.252	-552
813.351	622
813.450	-4
813.549	975
813.648	612
813.747	712
813.846	1065
813.945	402
814.044	135
814.143	961
814.242	1081
814.341	796
814.439	1467
814.538	1324
814.637	549
814.736	899
814.835	2088
814.933	503
815.032	876
815.131	3091
815.229	4665
815.328	6598
815.427	4700
815.525	4331
815.624	5029
815.722	3956
815.821	3784
815.919	4485
816.018	3926
816.116	5143
816.215	3411
816.313	4707
816.412	6131
816.510	6048
816.609	7844
816.707	6974
816.805	5699
816.904	5293
817.002	6450
817.100	5679
817.198	6907
817.296	5706
817.395	6046
817.493	6261
817.591	4915
817.689	5933
817.787	4929
817.885	5153
817.983	4633
818.081	5765
818.179	4654
818.277	7254
818.375	6180
818.473	4952
818.571	4652
818.669	5934
818.767	6305
818.865	4748
818.963	3949
819.061	4798
819.158	4202
819.256	6383
819.354	5050
819.452	7601
819.549	5041
819.647	6189
819.745	3221
819.842	3964
819.940	4574
820.038	4715
820.135	3874
820.233	4885
820.330	3663
820.428	3326
820.525	5173
820.623	4443
820.720	2660
820.818	5289
820.915	4527
821.012	4331
821.110	3271
821.207	4960
821.304	2916
821.402	3897
821.499	3976
821.596	3984
821.693	3444
821.791	3958
821.888	2954
821.985	4880
822.082	2345
822.179	4119
822.276	3612
822.373	3594
822.470	2590
822.567	3729
822.664	2658
822.761	4511
822.858	2948
822.955	3435
823.052	2844
823.149	2934
823.246	2736
823.343	2366
823.440	1993
823.536	2965
823.633	3174
823.730	2901
823.827	3035
823.923	3105
824.020	3156
824.117	3191
824.213	2859
824.310	3832
824.407	1556
824.503	3418
824.600	3021
824.696	3094
824.793	4454
824.889	3614
824.986	2981
825.082	1900
825.179	2239
825.275	3941
825.371	3709
825.468	2901
825.564	595
825.660	3794
825.757	3842
825.853	3367
825.949	1598
826.045	2752
826.142	2545
826.238	2569
826.334	3450
826.430	2361
826.526	2027
826.622	1508
826.718	2599
826.814	3371
826.910	3142
827.006	1814
827.102	1153
827.198	3653
827.294	3057
827.390	3091
827.486	1663
827.582	663
827.678	1436
827.774	4210
827.869	585
827.965	3237
828.061	670
828.157	3489
828.252	2030
828.348	1892
828.444	2678
828.539	987
828.635	2522
828.731	3777
828.826	1018
828.922	2649
829.017	2232
829.113	3328
829.208	1188
829.304	1576
829.399	4025
829.495	2607
829.590	2340
829.685	2161
829.781	2711
829.876	3182
829.971	990
830.066	1116
830.162	1794
830.257	3369
830.352	2167
830.447	2121
830.543	2031
830.638	1310
830.733	2748
830.828	1978
830.923	2683
831.018	1776
831.113	1671
831.208	1121
831.303	173
831.398	1863
831.493	1243
831.588	3128
831.683	1260
831.778	869
831.873	1728
831.967	3149
832.062	1611
832.157	2188
832.252	1472
832.346	1436
832.441	2389
832.536	1342
832.631	2258
832.725	1216
832.820	1157
832.914	1160
833.009	135
833.104	1061
833.198	911
833.293	533
833.387	1671
833.482	2173
833.576	506
833.670	1852
833.765	1165
833.859	2029
833.954	1772
834.048	1700
834.142	1256
834.237	1201
834.331	1103
834.425	1524
834.519	1083
834.613	881
834.708	102
834.802	1672
834.896	1109
834.990	2517
835.084	873
835.178	511
835.272	269
835.366	2015
835.460	2204
835.554	1123
835.648	587
835.742	498
835.836	692
835.930	188
836.024	1546
836.117	1880
836.211	389
836.305	980
836.399	959
836.493	-17
836.586	1814
836.680	737
836.774	1010
836.867	1564
836.961	284
837.055	868
837.148	587
837.242	1675
837.335	664
837.429	943
837.522	261
837.616	489
837.709	888
837.803	217
837.896	1611
837.989	774
838.083	338
838.176	847
838.269	-687
838.363	1611
838.456	73
838.549	1509
838.642	-328
838.735	351
838.829	935
838.922	707
839.015	711
839.108	457
839.201	1415
839.294	906
839.387	824
839.480	399
839.573	204
839.666	232
839.759	557
839.852	-405
839.945	1522
840.038	181
840.131	285
840.223	543
840.316	815
840.409	862
840.502	1112
840.594	1363
840.687	129
840.780	-205
840.873	-48
840.965	528
841.058	804
841.150	1245
841.243	-550
841.336	870
841.428	5
841.521	115
841.613	614
841.706	251
841.798	170
841.890	634
841.983	-708
842.075	1117
842.167	-720
842.260	424
842.352	1244
842.444	1004
842.537	177
842.629	477
842.721	-951
842.813	678
842.905	-249
842.997	206
843.090	-447
843.182	738
843.274	-132
843.366	1437
843.458	1158
843.550	1262
843.642	664
843.734	963
843.826	-787
843.918	217
844.009	199
844.101	-216
844.193	1000
844.285	889
844.377	873
844.469	1081
844.560	173
844.652	-406
844.744	951
844.835	230
844.927	228
845.019	984
845.110	-147
845.202	760
845.293	-162
845.385	-255
845.476	612
845.568	1243
845.659	433
845.751	1170
845.842	27
845.934	774
846.025	-542
846.116	-530
846.208	507
846.299	-179
846.390	-127
846.482	46
846.573	314
846.664	636
846.755	-654
846.846	398
846.937	-580
847.029	-368
847.120	-229
847.211	-661
847.302	1158
847.393	-1067
847.484	112
847.575	-608
847.666	-564
847.757	-283
847.847	-506
847.938	1330
848.029	966
848.120	254
848.211	191
848.302	148
848.392	-649
848.483	582
848.574	-343
848.664	-748
848.755	-168
848.846	-149
848.936	-536
849.027	659
849.118	757
849.208	520
849.299	1222
849.389	3513
849.480	6205
849.570	13843
849.661	27339
849.751	45568
849.841	16588
849.932	2301
850.022	815
850.112	167
850.203	-17
850.293	81
850.383	-91
850.474	-346
850.564	-557
850.654	12
850.744	-176
850.834	-37
850.924	-484
851.014	268
851.104	-364
851.194	-433
851.284	59
851.374	113
851.464	-573
851.554	-72
851.644	-336
851.734	374
851.824	57
851.914	71
852.004	1383
852.094	-356
852.183	-158
852.273	-233
852.363	-242
852.452	372
852.542	-744
852.632	-720
852.721	152
852.811	-31
852.901	520
852.990	121
853.080	369
853.169	846
853.259	1085
853.348	566
853.438	1958
853.527	2632
853.617	3571
853.706	7468
853.795	14955
853.885	30858
853.974	55071
854.063	97370
854.152	130861
854.242	59417
854.331	15070
854.420	6745
854.509	3737
854.598	2587
854.687	2200
854.777	2006
854.866	658
854.955	1324
855.044	484
855.133	539
855.222	232
855.311	10
855.400	586
855.488	-138
855.577	-773
855.666	-301
855.755	-197
855.844	898
855.933	63
856.021	538
856.110	157
856.199	-647
856.288	-622
856.376	395
856.465	-278
856.554	818
856.642	-193
856.731	306
856.819	-11
856.908	-231
856.996	-66
857.085	-736
857.173	-386
857.262	125
857.350	-671
857.438	-141
857.527	419
857.615	-490
857.703	81
857.792	-392
857.880	-1018
857.968	-204
858.056	-49
858.145	-329
858.233	-270
858.321	489
858.409	-569
858.497	-237
858.585	-458
858.673	407
858.761	-959
858.849	-331
858.937	-26
859.025	66
859.113	-387
859.201	62
859.289	407
859.377	132
859.465	-552
859.552	-714
859.640	-270
859.728	2
859.816	-592
859.903	46
859.991	-649
860.079	-190
860.166	188
860.254	347
860.342	-418
860.429	50
860.517	-501
860.604	775
860.692	-778
860.779	-292
860.867	-317
860.954	78
861.042	150
861.129	1355
861.216	611
861.304	22
861.391	-108
861.478	-190
861.565	-202
861.653	657
861.740	-62
861.827	-205
861.914	265
862.001	-89
862.089	-54
862.176	-369
862.263	-78
862.350	-67
862.437	-682
862.524	-330
862.611	-358
862.698	-254
862.785	268
862.871	105
862.958	-136
863.045	-5
863.132	523
863.219	-435
863.306	-659
863.392	244
863.479	-24
863.566	396
863.652	444
863.739	440
863.826	106
863.912	110
863.999	-201
864.086	-327
864.172	-13
864.259	796
864.345	829
864.432	1051
864.518	-769
864.604	173
864.691	438
864.777	1040
864.863	1452
864.950	2558
865.036	3182
865.122	6836
865.209	7534
865.295	6432
865.381	5721
865.467	5432
865.553	7036
865.639	8743
865.726	10832
865.812	20407
865.898	32599
865.984	48280
866.070	82649
866.156	85388
866.242	30598
866.328	10899
866.414	7339
866.499	6351
866.585	4573
866.671	5450
866.757	5427
866.843	5525
866.928	4272
867.014	3929
867.100	4728
867.186	4523
867.271	4069
867.357	4673
867.442	3758
867.528	4079
867.614	3956
867.699	4646
867.785	4762
867.870	4425
867.956	4006
868.041	3450
868.127	3258
868.212	5101
868.297	3801
868.383	4126
868.468	3570
868.553	3756
868.639	3566
868.724	4021
868.809	2750
868.894	3745
868.979	3481
869.065	3806
869.150	2674
869.235	3798
869.320	3263
869.405	3399
869.490	2673
869.575	4195
869.660	3035
869.745	3370
869.830	3706
869.915	3601
870.000	3031
870.085	3330
870.169	4379
870.254	4763
870.339	2247
870.424	2462
870.509	3476
870.593	3748
870.678	2712
870.763	2968
870.847	2278
870.932	2549
871.016	3791
871.101	1632
871.186	3021
871.270	4438
871.355	2177
871.439	1969
871.523	2492
871.608	1954
871.692	1749
871.777	3575
871.861	2917
871.945	2893
872.030	2574
872.114	3459
872.198	2605
872.282	2504
872.367	1999
872.451	2184
872.535	2256
872.619	2839
872.703	2230
872.787	2968
872.871	2425
872.955	1223
873.039	1004
873.123	2880
873.207	2415
873.291	2293
873.375	1760
873.459	3100
873.543	1436
873.627	1266
873.711	1857
873.794	2479
873.878	2211
873.962	1057
874.045	1552
874.129	1263
874.137	1293
874.213	1592
874.245	1710
874.296	1901
874.352	1537
874.380	1356
874.460	2622
874.464	2674
874.547	1423
874.568	1808
874.631	2973
874.676	2380
874.714	1855
874.784	2540
874.798	2681
874.881	2699
874.892	2535
874.965	1436
874.999	1526
875.048	1640
875.107	1985
875.131	2102
875.215	1074
875.215	1074
875.298	1546
875.323	1505
875.381	1436
875.430	2149
875.465	2628
875.538	2194
875.548	2130
875.631	1532
875.646	1544
875.714	1620
875.753	1141
875.798	669
875.861	1746
875.881	2029
875.964	2357
875.968	2309
876.047	1577
876.076	1781
876.130	2165
876.183	1988
876.213	1885
876.291	1879
876.296	1874
876.379	1703
876.398	1744
876.462	1870
876.506	1631
876.545	1530
876.613	1377
876.628	1319
876.711	1753
876.721	1877
876.794	2797
876.828	2286
876.877	1539
876.935	1381
876.960	1322
877.043	689
877.043	693
877.125	1844
877.150	2041
877.208	2489
877.258	1961
877.291	1573
877.365	704
877.374	607
877.456	1072
877.472	1178
877.539	1729
877.579	2003
877.622	2280
877.687	2206
877.704	2129
877.787	1284
877.794	1323
877.869	2015
877.901	2006
877.952	1672
878.008	959
878.034	804
878.115	1303
878.117	1312
878.199	628
878.222	848
878.282	1533
878.329	1812
878.364	1853
878.437	2186
878.447	2226
878.529	480
878.544	638
878.611	1707
878.651	1706
878.694	1652
878.758	1218
878.776	1052
878.858	1512
878.865	1495
878.941	1286
878.972	976
879.023	491
879.078	724
879.105	993
879.185	1516
879.187	1519
879.269	1632
879.292	1574
879.351	1412
879.399	1464
879.433	1541
879.506	1292
879.516	1295
879.598	2069
879.613	1925
879.680	632
879.720	973
879.762	1784
879.827	1315
879.844	1070
879.926	1078
879.933	1107
880.007	1674
880.040	1229
880.089	438
880.147	1120
880.171	1590
880.253	1388
880.254	1389
880.335	1189
880.360	1147
880.417	1851
880.467	2258
880.499	2261
880.574	2068
880.580	2069
880.662	2027
880.680	1890
880.744	1113
880.787	1176
880.825	1472
880.893	1717
880.907	1712
880.989	910
881.000	996
881.070	2037
881.106	2246
881.152	1880
881.213	1101
881.233	1138
881.315	1800
881.319	1814
881.396	1386
881.426	1193
881.478	1253
881.532	1875
881.559	2035
881.639	1534
881.641	1526
881.722	1241
881.745	1291
881.803	1575
881.852	1605
881.885	1629
881.958	1762
881.966	1710
882.047	1450
882.064	1246
882.129	1024
882.171	888
882.210	496
882.277	244
882.291	375
882.372	1329
882.383	1443
882.454	1811
882.489	1762
882.535	1554
882.596	1485
882.616	1513
882.697	1644
882.702	1632
882.778	1351
882.808	1294
882.859	1050
882.914	853
882.940	956
883.020	1349
883.021	1353
883.102	1157
883.127	1295
883.183	1937
883.233	1830
883.264	1353
883.339	1212
883.345	1261
883.426	837
883.445	1025
883.507	1166
883.551	851
883.587	1157
883.657	1858
883.668	1859
883.749	1918
883.763	1862
883.830	1257
883.869	1032
883.910	982
883.975	920
883.991	933
884.072	1081
884.081	1090
884.152	1532
884.187	1641
884.233	1921
884.292	2351
884.314	2004
884.394	221
884.398	157
884.475	685
884.504	948
884.555	1012
884.610	754
884.636	856
884.716	1631
884.716	1642
884.797	2580
884.821	2755
884.877	1908
884.927	1001
884.958	904
885.033	1077
885.038	1058
885.118	571
885.139	440
885.199	548
885.244	686
885.279	1067
885.350	1925
885.359	1969
885.439	2514
885.456	2424
885.520	1757
885.561	1647
885.600	1334
885.667	858
885.680	1009
885.760	1792
885.773	1880
885.840	1168
885.878	919
885.920	1006
885.984	931
886.000	926
886.080	973
886.089	968
886.160	1339
886.195	1614
886.240	1596
886.300	1342
886.320	1413
886.400	1974
886.406	1981
886.480	1007
886.511	780
886.560	1053
886.616	1038
886.640	986
886.720	1196
886.722	1191
886.800	1312
886.827	1401
886.879	1547
886.932	1675
886.959	1834
887.038	2252
887.039	2253
887.119	1752
887.143	1665
887.198	1658
887.248	1430
887.278	1290
887.354	1145
887.358	1165
887.437	1304
887.459	1427
887.517	1763
887.564	1837
887.596	1814
887.669	1848
887.676	1782
887.755	936
887.774	723
887.835	1167
887.880	1564
887.914	1367
887.985	742
887.994	872
888.073	2215
888.090	2487
888.153	2559
888.195	2442
888.232	2040
888.300	1532
888.311	1503
888.391	1182
888.405	1129
888.470	1199
888.510	1213
888.549	1023
888.615	819
888.628	1001
888.708	1902
888.720	2056
888.787	2177
888.825	2197
888.866	1620
888.930	797
888.945	871
889.024	1200
889.035	1247
889.103	1772
889.140	2004
889.182	1586
889.245	1022
889.261	1213
889.340	2100
889.349	2199
889.419	1359
889.454	920
889.498	1084
889.559	1318
889.577	1380
889.656	1653
889.664	1680
889.735	2150
889.768	2364
889.814	1753
889.873	938
889.978	2080
890.083	995
890.187	2512
890.292	1122
890.397	2221
890.501	1798
890.606	2177
890.710	2036
890.815	2151
890.919	658
891.024	1369
891.128	1483
891.233	1365
891.337	1361
891.442	1991
891.546	947
891.650	1892
891.755	1301
891.859	2180
891.963	2799
892.068	2630
892.172	812
892.276	1034
892.380	717
892.484	2332
892.589	1071
892.693	1520
892.797	595
892.901	1445
893.005	1086
893.109	2251
893.213	2214
893.317	1457
893.421	457
893.525	557
893.629	1261
893.733	2398
893.837	981
893.941	1155
894.045	549
894.148	1309
894.252	1140
894.356	1687
894.460	2553
894.564	1535
894.667	752
894.771	896
894.875	476
894.978	961
895.082	594
895.186	1870
895.289	791
895.393	1504
895.496	1736
895.600	1411
895.703	415
895.807	1737
895.910	1275
896.014	1285
896.117	1115
896.221	2586
896.324	1122
896.427	1022
896.531	768
896.634	852
896.737	1287
896.840	1455
896.944	1740
897.047	1855
897.150	1590
897.253	539
897.356	561
897.460	950
897.563	493
897.666	1888
897.769	1787
897.872	1468
897.975	156
898.078	1783
898.181	471
898.284	1404
898.387	1961
898.490	2613
898.593	1104
898.695	875
898.798	1085
898.901	834
899.004	1044
899.107	1243
899.209	805
899.312	2062
899.415	1664
899.518	719
899.620	-103
899.723	1096
899.826	1149
899.928	1407
900.031	84
900.133	1537
900.236	1143
900.338	1054
900.441	484
900.543	800
900.646	951
900.748	232
900.851	865
900.953	2036
901.055	781
901.158	1102
901.260	596
901.362	672
901.465	-154
901.567	906
901.669	1380
901.771	808
901.873	1766
901.976	970
902.078	149
902.180	364
902.282	-159
902.384	1104
902.486	1209
902.588	1482
902.690	394
902.792	753
902.894	882
902.996	1366
903.098	1298
903.200	481
903.302	580
903.404	725
903.505	743
903.607	327
903.709	1947
903.811	1170
903.913	697
904.014	880
904.116	-85
904.218	702
904.319	558
904.421	1666
904.523	1072
904.624	719
904.726	484
904.827	517
904.929	287
905.030	824
905.132	743
905.233	1648
905.335	864
905.436	345
905.537	417
905.639	287
905.740	721
905.841	1045
905.943	803
906.044	367
906.145	915
906.247	505
906.348	1392
906.449	377
906.550	205
906.651	489
906.752	837
906.854	167
906.955	577
907.056	1309
907.157	1069
907.258	1360
907.359	1023
907.460	809
907.561	471
907.662	752
907.762	806
907.863	815
907.964	1175
908.065	1876
908.166	107
908.267	1024
908.367	543
908.468	1128
908.569	388
908.670	1204
908.770	649
908.871	939
908.971	641
909.072	1404
909.173	627
909.273	1428
909.374	1145
909.474	1405
909.575	127
909.675	438
909.776	760
909.876	459
909.977	370
910.077	1166
910.177	1284
910.278	1534
910.378	201
910.478	565
910.579	408
910.679	997
910.779	1303
910.879	1363
910.980	688
911.080	855
911.180	-690
911.280	151
911.380	541
911.480	859
911.580	546
911.680	282
911.780	312
911.880	1095
911.980	-42
912.080	668
912.180	573
912.280	-186
912.380	612
912.480	42
912.580	466
912.679	1229
912.779	1461
912.879	1674
912.979	639
913.078	649
913.178	310
913.278	642
913.377	620
913.477	703
913.577	475
913.676	1197
913.776	906
913.875	1181
913.975	252
914.074	1243
914.174	215
914.273	252
914.373	869
914.472	1520
914.572	-507
914.671	845
914.770	541
914.870	567
914.969	-466
915.068	702
915.167	1629
915.267	1500
915.366	127
915.465	-65
915.564	38
915.663	1625
915.763	1058
915.862	1255
915.961	446
916.060	282
916.159	148
916.258	859
916.357	-129
916.456	1066
916.555	477
916.654	1153
916.752	540
916.851	1128
916.950	674
917.049	662
917.148	698
917.247	1311
917.345	933
917.444	852
917.543	470
917.642	778
917.740	1099
917.839	2028
917.937	854
918.036	1383
918.135	834
918.233	1168
918.332	766
918.430	507
918.529	1108
918.627	900
918.726	1591
918.824	1660
918.923	1163
919.021	1017
919.119	-34
919.218	1104
919.316	973
919.414	1107
919.512	1610
919.611	1538
919.709	380
919.807	2171
919.905	2120
920.003	1604
920.102	1463
920.200	2000
920.298	1023
920.396	2216
920.494	1332
920.592	1609
920.690	1115
920.788	968
920.886	1709
920.984	1484
921.082	1386
921.180	2456
921.277	1321
921.375	2663
921.473	3279
921.571	3663
921.669	2043
921.766	2389
921.864	2732
921.962	3459
922.060	2661
922.157	3506
922.255	2421
922.352	3486
922.450	2684
922.548	3551
922.645	3547
922.743	4582
922.840	6682
922.938	9646
923.035	8537
923.133	7987
923.230	7545
923.327	11005
923.425	10216
923.522	9207
923.619	9212
923.717	7958
923.814	8079
923.911	7868
924.008	9142
924.106	8080
924.203	6337
924.300	8854
924.397	7185
924.494	7855
924.591	7119
924.688	7750
924.786	6484
924.883	8044
924.979	7710
925.077	6763
925.173	7454
925.270	7057
925.367	7438
925.464	8844
925.561	8692
925.658	8498
925.755	7182
925.852	8586
925.948	7573
926.045	7524
926.142	7209
926.239	7713
926.335	6778
926.432	7076
926.529	7500
926.625	9082
926.722	6726
926.818	6885
926.915	7566
927.011	7237
927.108	7179
927.204	8067
927.301	6705
927.397	7203
927.494	8254
927.590	6098
927.687	5490
927.783	8930
927.879	7533
927.976	6872
928.072	6060
928.168	6020
928.264	6754
928.361	5874
928.457	7247
928.553	6671
928.649	5082
928.745	7040
928.841	5021
928.937	6359
929.033	6161
929.129	6337
929.225	6593
929.321	6839
929.417	4929
929.513	7568
929.609	4874
929.705	5511
929.801	6474
929.897	5702
929.993	5314
930.089	5636
930.184	4375
930.280	6011
930.376	7969
930.471	6146
930.567	4306
930.663	5287
930.758	4173
930.854	5785
930.950	5453
931.045	4697
931.141	4996
931.236	6878
931.332	5481
931.427	3360
931.523	5407
931.618	5863
931.714	3546
931.809	4720
931.905	5637
932.000	4318
932.095	3466
932.191	5824
932.286	6714
932.381	5923
932.476	3478
932.572	5199
932.667	4238
932.762	4406
932.857	5742
932.952	6345
933.047	4379
933.142	4020
933.237	4232
933.332	5477
933.427	5867
933.522	5286
933.617	3756
933.712	3660
933.807	5177
933.902	6931
933.997	5717
934.092	4280
934.187	3665
934.282	5379
934.376	4509
934.471	5321
934.566	3609
934.661	4345
934.755	4558
934.850	5346
934.945	3840
935.039	3589
935.134	2892
935.228	4312
935.323	6146
935.417	4660
935.512	2522
935.606	3832
935.701	3356
935.795	4799
935.890	4882
935.984	3745
936.079	2388
936.173	4183
936.267	3887
936.362	3048
936.456	4226
936.550	6504
936.644	4847
936.738	3476
936.833	3568
936.927	2549
937.021	3146
937.115	4063
937.209	3719
937.303	4446
937.397	1844
937.491	3992
937.585	3505
937.679	4586
937.773	2249
937.867	3071
937.961	3205
938.055	4913
938.149	4662
938.243	2629
938.337	1179
938.430	3006
938.524	5030
938.618	4237
938.712	2848
938.805	3866
938.899	3099
938.993	4630
939.086	3441
939.180	2419
939.274	2947
939.367	3524
939.461	4494
939.554	3461
939.648	2842
939.741	2844
939.835	2306
939.928	4940
940.022	4002
940.115	3010
940.208	4156
940.302	4266
940.395	4797
940.488	2868
940.582	2562
940.675	3730
940.768	2547
940.861	3764
940.954	4693
941.048	2022
941.141	1396
941.234	2176
941.327	2270
941.420	4647
941.513	4280
941.606	2428
941.699	2095
941.792	4034
941.885	3506
941.978	4112
942.071	3121
942.164	2688
942.257	2103
942.349	2810
942.442	3322
942.535	2714
942.628	3053
942.721	2725
942.813	1918
942.906	4394
942.999	2736
943.091	1765
943.184	2605
943.277	2887
943.369	2123
943.462	1221
943.554	2225
943.647	2648
943.739	2937
943.832	3882
943.924	473
944.017	1747
944.109	892
944.201	2550
944.294	1292
944.386	2219
944.478	1873
944.571	1321
944.663	1388
944.755	2353
944.847	2945
944.940	2779
945.032	180
945.124	1213
945.216	2040
945.308	2539
945.400	2521
945.492	2446
945.584	2671
945.676	3693
945.768	2651
945.860	1515
945.952	2762
946.044	2590
946.136	1495
946.228	2493
946.320	1382
946.412	2967
946.503	2722
946.595	2893
946.687	1204
946.779	1604
946.870	943
946.962	1983
947.054	946
947.145	2328
947.237	1060
947.329	1773
947.420	1807
947.512	2006
947.603	793
947.695	1270
947.786	896
947.878	1274
947.969	2294
948.061	2761
948.152	1975
948.243	1015
948.335	385
948.426	1016
948.517	1250
948.609	1749
948.700	1634
948.791	1596
948.882	877
948.973	979
949.065	1999
949.156	2379
949.247	916
949.338	1811
949.429	-352
949.520	1302
949.611	967
949.702	2689
949.793	603
949.884	2353
949.975	1679
950.066	707
950.157	718
950.247	1545
950.338	495
950.429	545
950.520	1552
950.611	1278
950.701	1489
950.792	2060
950.883	1871
950.973	1599
951.064	2036
951.155	1520
951.245	1844
951.336	1576
951.427	1500
951.517	3046
951.608	967
951.698	1815
951.788	726
951.879	1422
951.969	-135
952.060	1742
952.150	726
952.240	1802
952.331	1117
952.421	2065
952.511	-16
952.602	767
952.692	-525
952.782	1566
952.872	240
952.962	2488
953.052	521
953.143	667
953.233	1182
953.323	1850
953.413	1183
953.503	1516
953.593	916
953.683	797
953.773	-585
953.863	67
953.953	873
954.042	1258
954.132	431
954.222	2541
954.312	66
954.402	249
954.492	1083
954.581	1056
954.671	613
954.761	360
954.850	1488
954.940	1267
955.030	524
955.119	313
955.209	623
955.298	1295
955.388	1017
955.477	1522
955.567	-321
955.656	1272
955.746	510
955.835	1135
955.925	537
956.014	1451
956.103	1351
956.193	2702
956.282	381
956.371	582
956.461	593
956.550	1602
956.639	1285
956.728	201
956.817	1139
956.906	758
956.995	1837
957.085	575
957.174	509
957.263	745
957.352	129
957.441	731
957.530	919
957.619	441
957.708	-61
957.796	284
957.885	880
957.974	1279
958.063	475
958.152	-139
958.241	201
958.329	-259
958.418	498
958.507	259
958.596	1856
958.684	378
958.773	612
958.861	415
958.950	-735
959.039	398
959.127	656
959.216	1182
959.304	-19
959.393	1600
959.481	679
959.570	542
959.658	-199
959.746	323
959.835	310
959.923	424
960.011	-412
960.100	1041
960.188	109
960.276	474
960.365	144
960.453	402
960.541	-1328
960.629	2
960.717	-150
960.805	-827
960.893	154
960.981	606
961.069	1698
961.158	1627
961.245	2224
961.333	1504
961.421	248
961.509	711
961.597	410
961.685	762
961.773	-439
961.861	227
961.949	1012
962.036	135
962.124	238
962.212	146
962.299	-534
962.387	351
962.475	15
962.562	170
962.650	1219
962.738	287
962.825	-673
962.913	-166
963.000	-290
963.088	1099
963.175	637
963.263	368
963.350	-186
963.438	-161
963.525	-923
963.612	914
963.700	-377
963.787	1127
963.874	275
963.962	410
964.049	310
964.136	128
964.223	-516
964.310	297
964.398	-230
964.485	-370
964.572	971
964.659	234
964.746	636
964.833	87
964.920	216
965.007	668
965.094	284
965.181	100
965.268	790
965.355	666
965.441	-1032
965.528	1218
965.615	585
965.702	496
965.789	314
965.875	807
965.962	1300
966.049	461
966.136	977
966.222	1073
966.309	1237
966.395	280
966.482	1081
966.569	236
966.655	441
966.742	522
966.828	147
966.915	328
967.001	-366
967.087	-1164
967.174	-145
967.260	1246
967.347	-283
967.433	884
967.519	508
967.605	964
967.692	673
967.778	1028
967.864	-339
967.950	553
968.036	-547
968.123	485
968.209	1111
968.295	-565
968.381	1335
968.467	329
968.553	-920
968.639	1581
968.725	-882
968.811	1125
968.897	1543
968.983	507
969.069	-1290
969.154	550
969.240	788
969.326	-313
969.412	21
969.497	327
969.583	-1100
969.669	1360
969.755	80
969.840	396
969.926	714
970.012	1670
970.097	2283
970.183	2012
970.268	615
970.354	1136
970.439	-1010
970.525	1472
970.610	-872
970.696	1053
970.781	231
970.866	-305
970.952	552
971.037	-219
971.122	358
971.208	-573
971.293	-558
971.378	-359
971.463	164
971.549	409
971.634	-584
971.719	-370
971.804	-113
971.889	226
971.974	-540
972.059	-442
972.144	144
972.229	337
972.314	31
972.399	1133
972.484	-603
972.569	407
972.654	-512
972.739	313
972.824	326
972.908	266
972.993	378
973.078	-111
973.163	-706
973.247	219
973.332	-1476
973.417	971
973.501	-634
973.586	1126
973.671	-23
973.755	68
973.840	157
973.924	539
974.009	-35
974.093	1353
974.178	1492
974.262	965
974.346	-211
974.431	1000
974.515	-56
974.600	800
974.684	410
974.768	484
974.852	578
974.937	-643
975.021	791
975.105	-247
975.189	94
975.273	-225
975.358	-108
975.442	-414
975.526	1045
975.610	-876
975.694	-542
975.778	1744
975.862	-38
975.946	-874
976.030	936
976.114	472
976.198	-195
976.281	732
976.365	-76
976.449	-409
976.533	337
976.617	428
976.700	51
976.784	701
976.868	-220
976.951	947
977.035	-358
977.119	728
977.202	574
977.286	876
977.369	489
977.453	2336
977.536	1095
977.620	943
977.703	803
977.787	204
977.870	831
977.953	1766
978.037	-654
978.120	1006
978.203	183
978.287	910
978.370	-130
978.453	-48
978.536	543
978.620	1182
978.703	-669
978.786	-134
978.869	-554
978.952	-906
979.035	960
979.118	1126
979.201	430
979.284	592
979.367	450
979.450	408
979.533	-176
979.616	-421
979.699	-619
979.782	543
979.865	709
979.948	191
980.030	-962
980.113	560
980.196	73
980.279	591
980.361	-22
980.444	660
980.526	1074
980.609	2005
980.692	2305
980.774	1651
980.857	-763
980.939	2036
981.022	3
981.104	814
981.187	-83
981.269	486
981.352	579
981.434	51
981.516	-880
981.599	849
981.681	675
981.763	710
981.846	-398
981.928	1007
982.010	-441
982.092	165
982.174	741
982.256	159
982.339	-454
982.421	369
982.503	236
982.585	327
982.667	345
982.749	587
982.831	193
982.913	205
982.995	554
983.077	325
983.158	1210
983.240	-262
983.322	1043
983.404	2664
983.486	1489
983.568	2082
983.649	1238
983.731	1618
983.813	176
983.894	1857
983.976	543
984.058	1144
984.139	1180
984.221	402
984.302	1192
984.384	943
984.465	393
984.547	825
984.628	-349
984.710	1948
984.791	676
984.872	768
984.954	106
985.035	1604
985.116	455
985.198	790
985.279	1672
985.360	863
985.441	457
985.522	1827
985.604	615
985.685	-547
985.766	974
985.847	1842
985.928	44
986.009	1437
986.090	-107
986.171	1559
986.252	-510
986.333	343
986.414	285
986.495	1113
986.576	-144
986.656	1867
986.737	1383
986.818	1368
986.899	494
986.980	1286
987.060	1247
987.141	1774
987.222	1676
987.302	2219
987.383	2569
987.464	1496
987.544	1712
987.625	1371
987.705	2594
987.786	2403
987.866	2022
987.947	1253
988.027	1534
988.108	1466
988.188	1337
988.268	773
988.349	982
988.429	1544
988.509	1017
988.589	1262
988.670	-564
988.750	2211
988.830	696
988.910	2288
988.990	1411
989.070	1196
989.151	384
989.231	1062
989.311	1306
989.391	806
989.471	1735
989.551	777
989.631	810
989.711	1901
989.791	514
989.870	1250
989.950	1751
990.030	881
990.110	963
990.190	879
990.269	665
990.349	1052
990.429	835
990.509	1094
990.588	-781
990.668	938
990.747	293
990.827	638
990.907	647
990.986	865
991.066	239
991.145	26
991.225	718
991.304	787
991.383	483
991.463	1420
991.542	1026
991.622	354
991.701	-167
991.780	795
991.859	370
991.939	1008
992.018	-139
992.097	1145
992.176	931
992.256	829
992.335	-278
992.414	1697
992.493	-78
992.572	321
992.651	488
992.730	768
992.809	284
992.888	1
992.967	-108
993.046	1270
993.125	-716
993.203	-316
993.282	874
993.361	743
993.440	574
993.519	469
993.597	377
993.676	37
993.755	211
993.834	669
993.912	-1176
993.991	900
994.069	-98
994.148	658
994.226	290
994.305	491
994.384	-202
994.462	2204
994.540	-798
994.619	-229
994.697	-143
994.776	554
994.854	1036
994.932	-60
995.011	85
995.089	463
995.167	-1107
995.245	281
995.324	-229
995.402	925
995.480	-627
995.558	-60
995.636	-212
995.714	-181
995.792	-2
995.870	-606
995.948	-827
996.026	-547
996.104	-1327
996.182	1092
996.260	-764
996.338	531
996.416	-866
996.494	-106
996.572	50
996.649	-1083
996.727	-1906
996.805	143
996.883	-726
996.960	-648
997.038	-447
997.116	364
997.193	-2021
997.271	-547
997.348	-756
997.426	340
997.504	-1615
997.581	286
997.658	-537
997.736	-1499
997.813	-1912
997.891	553
997.968	-1218
998.046	-734
998.123	-1531
998.200	-352
998.277	-316
998.355	473
998.432	-1743
998.509	-299
998.586	-1344
998.663	774
998.741	-379
998.818	-160
998.895	-1076
998.972	1288
999.049	-989
999.126	-759
999.203	-765
999.280	-916
999.357	-898
999.434	-786
999.511	-947
999.587	84
999.664	-1138
999.741	-476
999.818	211
999.895	-1492
999.971	-1287
1000.048	-666
1000.125	-628
1000.202	-1563
1000.278	-1298
1000.355	-135
1000.431	-1243
1000.508	-1590
1000.584	-905
1000.661	153
1000.738	-1734
1000.814	-661
1000.890	-990
1000.967	-981
1001.043	-1166
1001.120	-1295
1001.196	-846
1001.272	-1716
1001.349	-1075
1001.425	-695
1001.501	-866
1001.577	-1124
1001.654	-708
1001.730	-401
1001.806	-1399
1001.882	-1116
1001.958	-679
1002.034	141
1002.110	-1105
1002.186	-1780
1002.262	-2163
1002.338	-1706
1002.414	-365
1002.490	-440
1002.566	-1534
1002.642	-1581
1002.718	-842
1002.794	-1031
1002.870	-1526
1002.945	-1482
1003.021	-1751
1003.097	-1347
1003.173	-961
1003.248	-1129
1003.324	-1350
1003.400	59
1003.475	-1688
1003.551	-672
1003.626	-2063
1003.702	-1824
1003.777	-1778
1003.853	-799
1003.928	-1911
1004.004	-1001
1004.079	-1992
1004.155	-1115
1004.230	-2209
1004.305	-654
1004.381	-2345
1004.456	-1309
1004.531	-1438
1004.607	-1534
1004.682	-1755
1004.757	-1175
1004.832	-1198
1004.907	-1234
1004.982	-1406
1005.057	-602
1005.133	-1432
1005.208	-1594
1005.283	-2047
1005.358	-548
1005.433	-2527
1005.508	-1436
1005.583	-2130
1005.657	-1917
1005.732	-1582
1005.807	-1858
1005.882	-1565
1005.957	-998
1006.032	-1189
1006.106	-2042
1006.181	-1687
1006.256	-1283
1006.331	-2181
1006.405	-2159
1006.480	-1333
1006.554	-1613
1006.629	-1682
1006.704	-790
1006.778	-1403
1006.853	-1098
1006.927	-1314
1007.002	-2018
1007.076	-1982
1007.150	-2109
1007.225	-1975
1007.299	-1738
1007.373	-1751
1007.448	-1704
1007.522	-2265
1007.596	-1034
1007.671	-2366
1007.745	-1967
1007.819	-1638
1007.893	-2296
1007.967	-1916
1008.041	-2968
1008.115	-1287
1008.190	-1648
1008.264	-1684
1008.338	-1867
1008.412	-2781
1008.486	-952
1008.560	-2229
1008.633	-2241
1008.707	-1265
1008.781	-1485
1008.855	-2260
1008.929	-1520
1009.003	-2473
1009.076	-1359
1009.150	-2388
1009.224	-1981
1009.298	-1831
1009.371	-2140
1009.445	-1611
1009.519	-1062
1009.592	-2062
1009.666	-936
1009.739	-2024
1009.813	-2806
1009.886	-1781
1009.960	-2620
1010.033	-1582
1010.107	-1178
1010.180	-2733
1010.253	-1900
1010.327	-2186
1010.400	-1364
1010.473	-2136
1010.547	-1117
1010.620	-1999
1010.693	-1989
1010.766	-1403
1010.840	-1996
1010.913	-2475
1010.986	-2768
1011.059	-3105
1011.132	-2063
1011.205	-1855
1011.278	-1791
1011.351	-2593
1011.424	-1550
1011.497	-3030
1011.570	-1706
1011.643	-2097
1011.716	-1573
1011.789	-1932
1011.862	-1456
1011.934	-1377
1012.007	-2153
1012.080	-3071
1012.153	-2009
1012.225	-426
1012.298	-2297
1012.371	-3065
1012.443	-915
1012.516	-2309
1012.588	-891
1012.661	-1258
1012.733	-2306
1012.806	-1964
1012.879	-1826
1012.951	-2743
1013.023	-1963
1013.096	-2654
1013.168	-1563
1013.241	-1404
1013.313	-1565
1013.385	-2539
1013.458	-2309
1013.530	-2157
1013.602	-2305
1013.674	-1630
1013.746	-1582
1013.819	-1996
1013.891	-986
1013.963	-2941
1014.035	-1317
1014.107	-2193
1014.179	-1940
1014.251	-2958
1014.323	-1823
1014.395	-2918
1014.467	-828
1014.539	-2368
1014.611	-2239
1014.683	-2155
1014.754	-1016
1014.826	-3168
1014.898	-1221
1014.970	-3197
1015.042	-357
1015.113	-2397
1015.185	-1452
1015.257	-3124
1015.328	-1591
1015.400	-2686
1015.471	-1768
1015.543	-3160
1015.615	-2297
1015.686	-1962
1015.757	-2119
1015.829	-2468
1015.901	-1642
1015.972	-2017
1016.043	-2214
1016.115	-2714
1016.186	-1451
1016.257	-2802
1016.328	-2176
1016.400	-1674
1016.471	-2294
1016.542	-2616
1016.613	-1783
1016.685	-2171
1016.756	-2515
1016.827	-1780
1016.898	-2932
1016.969	-2251
1017.040	-2456
1017.111	-2486
1017.182	-2537
1017.253	-2391
1017.324	-2327
1017.395	-2456
1017.466	-1662
1017.537	-2511
1017.608	-1926
1017.678	-2249
1017.749	-2358
1017.820	-1933
1017.891	-2264
1017.961	-2670
1018.032	-1630
1018.103	-2323
1018.173	-1865
1018.244	-2906
1018.315	-2225
1018.385	-1564
1018.456	-1551
1018.526	-2129
1018.597	-1478
1018.667	-2681
1018.738	-2654
1018.808	-2372
1018.878	-2537
1018.949	-1116
1019.019	-2459
1019.089	-1769
1019.160	-1858
1019.230	-2420
1019.300	-2057
1019.371	-3014
1019.441	-1463
1019.511	-1901
1019.581	-2239
1019.651	-3114
1019.721	-1923
1019.791	-2851
1019.861	-2276
1019.931	-1616
1020.001	-2783
1020.071	-2545
1020.141	-2264
1020.211	-1849
1020.281	-3001
1020.351	-2945
1020.421	-2330
1020.491	-2145
1020.560	-2129
1020.630	-3289
1020.700	-2268
1020.770	-2884
1020.839	-1768
1020.909	-2271
1020.979	-2377
1021.048	-2717
1021.118	-1781
1021.187	-1674
1021.257	-2468
1021.326	-1871
1021.396	-2478
1021.465	-2530
1021.535	-1616
1021.604	-2506
1021.674	-1050
1021.743	-3577
1021.812	-2538
1021.882	-1866
1021.951	-2263
1022.020	-2903
1022.089	-2128
1022.159	-2858
1022.228	-2179
1022.297	-1846
1022.366	-2401
1022.435	-2584
1022.504	-2327
1022.573	-2398
1022.642	-1446
1022.711	-2732
1022.781	-1745
1022.849	-2191
1022.918	-2564
1022.987	-2489
1023.056	-2115
1023.125	-2401
1023.194	-1500
1023.263	-2842
1023.331	-2052
1023.400	-2967
1023.469	-2350
1023.538	-1986
1023.606	-1620
1023.675	-2562
1023.744	-1998
1023.812	-2209
1023.881	-1913
1023.949	-1940
1024.018	-2443
1024.086	-2458
1024.155	-2228
1024.223	-2612
1024.292	-2245
1024.360	-1886
1024.429	-2330
1024.497	-3109
1024.565	-2154
1024.634	-3158
1024.702	-1579
1024.770	-2634
1024.838	-2427
1024.907	-2704
1024.975	-2086
1025.043	-2161
1025.111	-2243
1025.179	-1931
1025.247	-2168
1025.315	-2718
1025.383	-2169
1025.451	-2621
1025.519	-2588
1025.587	-2970
1025.655	-2224
1025.723	-2936
1025.791	-2241
1025.859	-1715
1025.927	-1724
1025.995	-2135
1026.062	-2084
1026.130	-2425
1026.198	-2720
1026.266	-2253
1026.333	-2985
1026.401	-2824
1026.469	-2578
1026.536	-2931
1026.604	-1689
1026.671	-2434
1026.739	-2031
1026.806	-2280
1026.874	-2370
1026.941	-2532
1027.009	-2494
1027.076	-2844
1027.144	-1827
1027.211	-2587
1027.278	-2445
1027.345	-2912
1027.413	-1932
1027.480	-1649
1027.547	-2787
1027.614	-2624
1027.682	-1945
1027.749	-2664
1027.816	-2700
1027.883	-2391
1027.950	-2101
1028.017	-3589
1028.084	-1675
1028.151	-3227
1028.218	-2244
1028.285	-3006
1028.352	-2562
1028.419	-2650
1028.486	-2280
1028.553	-2171
1028.619	-2093
1028.686	-2726
1028.753	-1897
1028.820	-2134
1028.886	-2169
1028.953	-2209
1029.020	-1915
1029.086	-2755
1029.153	-1632
1029.220	-2450
1029.286	-1406
1029.353	-2185
1029.419	-2505
1029.486	-3272
1029.552	-2380
1029.619	-2555
1029.685	-2037
1029.751	-3224
1029.818	-2061
1029.884	-3197
1029.951	-1276
1030.017	-3128
1030.083	-2683
1030.149	-2273
1030.216	-2502
1030.282	-1808
1030.348	-2099
1030.414	-2733
1030.480	-1953
1030.546	-3523
1030.612	-2567
1030.678	-2478
1030.744	-2031
1030.810	-2726
1030.876	-2807
1030.942	-2371
1031.008	-1907
1031.074	-2677
1031.140	-1707
1031.206	-2025
1031.272	-2566
1031.337	-3195
1031.403	-1452
1031.469	-3042
1031.534	-2774
1031.600	-2232
1031.666	-2180
1031.731	-2344
1031.797	-3030
1031.863	-3386
1031.928	-1929
1031.994	-3903
1032.059	-2400
1032.125	-2350
1032.190	-2698
1032.256	-2790
1032.321	-2655
1032.386	-3205
1032.452	-1637
1032.517	-2365
1032.582	-2410
1032.647	-2839
1032.713	-1869
1032.778	-2809
1032.843	-2097
1032.908	-2673
1032.974	-1729
1033.039	-2533
1033.104	-1544
1033.169	-3121
1033.234	-2882
1033.299	-2639
1033.364	-1569
1033.429	-1960
1033.494	-1882
1033.559	-2282
1033.624	-1217
1033.688	-1795
1033.753	-2221
1033.818	-2448
1033.883	-1441
1033.948	-2171
1034.013	-1627
1034.077	-1177
1034.142	-564
1034.207	-1426
1034.271	126
1034.336	587
1034.400	-516
1034.465	-1967
1034.530	-1679
1034.594	-2125
1034.658	-1979
1034.723	-1800
1034.787	-1964
1034.852	-2567
1034.916	-2783
1034.981	-2344
1035.045	-1211
1035.109	-2902
1035.173	-1913
1035.238	-2420
1035.302	-1546
1035.366	-2135
1035.430	-2153
1035.495	-1975
1035.559	-1739
1035.623	-3180
1035.687	-2683
1035.751	-2010
1035.815	-2026
1035.879	-2980
1035.943	-1808
1036.007	-2530
1036.071	-2348
1036.135	-2544
1036.198	-2351
1036.262	-3305
1036.326	-2639
1036.390	-2197
1036.454	-2114
1036.517	-2994
1036.581	-1969
1036.645	-3120
1036.709	-2498
1036.772	-3295
1036.836	-2157
1036.900	-2670
1036.963	-2814
1037.026	-2932
1037.090	-2382
1037.154	-2720
1037.217	-2312
1037.280	-3040
1037.344	-2754
1037.407	-2955
1037.471	-2060
1037.534	-2099
1037.597	-2187
1037.661	-2346
1037.724	-2155
1037.787	-3059
1037.850	-2119
1037.913	-2106
1037.977	-1964
1038.040	-2859
1038.103	-2210
1038.166	-2561
1038.229	-2129
1038.292	-2571
1038.355	-1699
1038.418	-2432
1038.481	-1840
1038.544	-3337
1038.607	-2138
1038.670	-2293
1038.732	-2018
1038.795	-2756
1038.858	-1950
1038.921	-2432
1038.984	-2032
1039.046	-2447
1039.109	-2318
1039.172	-3047
1039.234	-2583
1039.297	-2664
1039.360	-2729
1039.422	-2837
1039.485	-2298
1039.547	-3556
1039.610	-2322
1039.672	-2738
1039.734	-2084
1039.797	-2198
1039.859	-2523
1039.922	-2149
1039.984	-1982
1040.046	-2532
1040.109	-2131
1040.171	-2837
1040.233	-2351
1040.295	-2235
1040.358	-2204
1040.420	-2870
1040.482	-2062
1040.544	-2990
1040.606	-2006
1040.668	-3009
1040.730	-1628
1040.792	-3305
1040.854	-2602
1040.916	-2920
1040.978	-2981
1041.040	-2123
1041.102	-2276
1041.164	-2333
1041.225	-2329
1041.287	-2780
1041.349	-1770
1041.411	-2822
1041.472	-2394
1041.534	-3096
1041.596	-2999
1041.657	-2749
1041.719	-2447
1041.781	-3222
1041.842	-2789
1041.904	-3117
1041.965	-2298
1042.027	-2604
1042.088	-2048
1042.150	-3026
1042.211	-2755
1042.272	-1531
1042.334	-2914
1042.395	-3064
1042.456	-2094
1042.518	-2487
1042.579	-1584
1042.640	-3451
1042.701	-2415
1042.763	-3258
1042.824	-2988
1042.885	-3259
1042.946	-2135
1043.007	-3140
1043.068	-1865
1043.129	-2530
1043.190	-2524
1043.251	-2459
1043.312	-2584
1043.373	-2806
1043.434	-2307
1043.495	-2937
1043.556	-2355
1043.616	-2480
1043.677	-2714
1043.738	-2310
1043.799	-2695
1043.859	-2878
1043.920	-2506
1043.981	-3006
1044.041	-2308
1044.102	-2595
1044.162	-2163
1044.223	-3509
1044.284	-2965
1044.344	-2841
1044.405	-3256
1044.465	-2738
1044.525	-2418
1044.586	-2437
1044.646	-1852
1044.707	-2101
1044.767	-1400
1044.827	-2206
1044.887	-2335
1044.948	-3276
1045.008	-2185
1045.068	-2322
1045.128	-2089
1045.188	-2201
1045.249	-1572
1045.309	-2466
1045.369	-1664
1045.429	-2686
1045.489	-3251
1045.549	-2248
1045.609	-1604
1045.669	-2903
1045.729	-2689
1045.789	-2928
1045.848	-2229
1045.908	-2504
1045.968	-1458
1046.028	-1972
1046.088	-1939
1046.147	-2339
1046.207	-1454
1046.267	-2769
1046.326	-1617
1046.386	-1704
1046.446	-1599
1046.505	-1889
1046.565	-1142
1046.624	-1560
1046.684	-1391
1046.743	-1501
1046.803	-1547
1046.862	-1691
1046.922	0
