'Start Wavelength	183.907
'End Wavelength	1046.922
'Gate Delay	5.000
'Gate Width (ms)	1.050
'Laser Output Level	0.000
'X Position	0.000
'Y Position	0.000
'Z Position	0.000
'Grid Point Number	1.000
'Shot Number	100.000
183.907	210.000
183.977	187.000
184.047	-157
184.116	-15
184.186	317
184.256	-232
184.325	-42
184.395	-449
184.465	796
184.534	740
184.604	-523
184.674	246
184.743	-714
184.813	350
184.883	-339
184.952	646
185.022	-186
185.092	-102
185.161	-31
185.231	568
185.301	172
185.370	516
185.440	-49
185.509	81
185.579	-106
185.649	353
185.718	25
185.788	109
185.857	430
185.927	-782
185.996	15
186.066	492
186.136	-391
186.205	-166
186.275	-99
186.344	-397
186.414	-608
186.483	-374
186.553	-147
186.622	443
186.692	-62
186.761	-266
186.831	223
186.900	255
186.970	198
187.039	-23
187.109	563
187.178	1136
187.248	-133
187.317	-553
187.387	-388
187.456	271
187.526	-719
187.595	-334
187.664	364
187.734	-443
187.803	458
187.873	-408
187.942	-343
188.012	149
188.081	-517
188.150	-131
188.220	731
188.289	-301
188.358	167
188.428	-311
188.497	-181
188.567	312
188.636	-359
188.705	-116
188.775	353
188.844	-406
188.913	873
188.983	268
189.052	-445
189.121	646
189.191	698
189.260	-374
189.329	-463
189.399	-794
189.468	735
189.537	575
189.606	102
189.676	-548
189.745	465
189.814	182
189.883	-45
189.953	-652
190.022	179
190.091	167
190.161	-147
190.230	515
190.299	-522
190.368	363
190.437	-190
190.507	193
190.576	48
190.645	-175
190.714	-97
190.783	-543
190.853	90
190.922	90
190.991	-82
191.060	68
191.129	-403
191.198	-537
191.268	-133
191.337	532
191.406	22
191.475	-13
191.544	238
191.613	-304
191.682	286
191.752	-72
191.821	-150
191.890	160
191.959	24
192.028	-87
192.097	-160
192.166	471
192.235	-217
192.304	-41
192.373	250
192.442	-289
192.511	-608
192.580	262
192.650	-498
192.719	61
192.788	-424
192.857	-51
192.926	-366
192.995	82
193.064	-711
193.133	-314
193.202	36
193.271	-168
193.340	453
193.409	286
193.478	-103
193.547	-7
193.615	-311
193.684	31
193.753	-677
193.822	741
193.891	22
193.960	-200
194.029	-392
194.098	-68
194.167	-826
194.236	395
194.305	5
194.374	-173
194.443	-338
194.512	-372
194.580	-121
194.649	-452
194.718	-57
194.787	-321
194.856	-194
194.925	-88
194.994	34
195.062	-282
195.131	-770
195.200	-320
195.269	395
195.338	216
195.407	-284
195.475	-137
195.544	-828
195.613	-1172
195.682	-219
195.751	-427
195.819	-722
195.888	35
195.957	364
196.026	-319
196.094	-193
196.163	-406
196.232	330
196.301	166
196.369	-291
196.438	-209
196.507	570
196.576	626
196.644	45
196.713	-482
196.782	-426
196.850	-336
196.919	-3
196.988	-180
197.056	-183
197.125	-72
197.194	87
197.262	-431
197.331	289
197.400	-376
197.468	168
197.537	211
197.606	-119
197.674	-78
197.743	480
197.812	-27
197.880	-232
197.949	-341
198.017	281
198.086	-345
198.155	-55
198.223	-284
198.292	-177
198.360	41
198.429	112
198.497	-1072
198.566	-308
198.635	335
198.703	670
198.772	-216
198.840	-426
198.909	-549
198.977	144
199.046	-28
199.114	-180
199.183	102
199.251	-370
199.320	-884
199.388	-447
199.457	-1057
199.525	-17
199.594	-261
199.662	-171
199.731	-31
199.799	-383
199.867	-524
199.936	75
200.004	59
200.073	224
200.141	-1123
200.210	-231
200.278	-250
200.346	-318
200.415	-273
200.483	-361
200.552	-380
200.620	-16
200.688	-908
200.757	-517
200.825	-618
200.893	-712
200.962	-91
201.030	-238
201.098	-628
201.167	-123
201.235	108
201.303	-517
201.372	-543
201.440	-509
201.508	416
201.577	-379
201.645	120
201.713	-67
201.781	-198
201.850	444
201.918	578
201.986	98
202.055	534
202.123	-40
202.191	-561
202.259	354
202.327	234
202.396	-557
202.464	330
202.532	-515
202.600	-212
202.669	-579
202.737	-500
202.805	-400
202.873	-216
202.941	188
203.009	249
203.078	-149
203.146	-13
203.214	-662
203.282	-419
203.350	29
203.418	-331
203.487	187
203.555	-536
203.623	-5
203.691	-205
203.759	-109
203.827	-408
203.895	-297
203.963	-446
204.031	-208
204.099	-105
204.168	-100
204.236	-193
204.304	87
204.372	123
204.440	441
204.508	-917
204.576	-738
204.644	157
204.712	-186
204.780	98
204.848	-887
204.916	101
204.984	593
205.052	447
205.120	-315
205.188	-424
205.256	-532
205.324	85
205.392	-133
205.460	295
205.528	-305
205.596	158
205.664	301
205.732	439
205.799	253
205.867	-225
205.935	-509
206.003	-150
206.071	-190
206.139	-672
206.207	548
206.275	-672
206.343	143
206.411	-679
206.478	720
206.546	218
206.614	323
206.682	-629
206.750	-422
206.818	-138
206.885	-90
206.953	-347
207.021	-375
207.089	213
207.157	-199
207.225	-382
207.292	-10
207.360	6
207.428	403
207.496	-319
207.563	-506
207.631	-191
207.699	35
207.767	460
207.834	42
207.902	-109
207.970	-195
208.038	-283
208.105	167
208.173	-433
208.241	-787
208.309	75
208.376	-792
208.444	-353
208.512	-912
208.579	-645
208.647	-47
208.715	-259
208.782	-292
208.850	63
208.918	-1162
208.985	367
209.053	-489
209.120	-814
209.188	-775
209.256	-768
209.323	-58
209.391	-48
209.459	458
209.526	-57
209.594	-697
209.661	-484
209.729	313
209.796	334
209.864	-380
209.932	-522
209.999	386
210.067	269
210.134	137
210.202	-403
210.269	228
210.337	-526
210.404	-208
210.472	-375
210.539	45
210.607	-792
210.674	-567
210.742	387
210.809	-529
210.877	-463
210.944	3
211.012	-107
211.079	672
211.146	-238
211.214	-201
211.281	187
211.349	155
211.416	-1141
211.484	-553
211.551	-637
211.618	-194
211.686	251
211.753	-656
211.821	331
211.888	-566
211.955	-149
212.023	414
212.090	-348
212.157	-827
212.225	-56
212.292	172
212.359	536
212.427	1
212.494	516
212.561	36
212.629	45
212.696	-239
212.763	-609
212.831	-368
212.898	152
212.965	-817
213.032	-450
213.100	-212
213.167	-100
213.234	-264
213.301	297
213.369	286
213.436	-527
213.503	-120
213.570	448
213.638	113
213.705	-610
213.772	-265
213.839	-257
213.906	104
213.973	-172
214.041	-157
214.108	336
214.175	-22
214.242	-649
214.309	-172
214.376	209
214.444	-299
214.511	-210
214.578	-511
214.645	-297
214.712	27
214.779	-635
214.846	-179
214.913	-749
214.980	392
215.048	422
215.115	75
215.182	-22
215.249	-440
215.316	-546
215.383	-563
215.450	283
215.517	1
215.584	172
215.651	-237
215.718	92
215.785	-17
215.852	61
215.919	-181
215.986	-120
216.053	-347
216.120	-900
216.187	2
216.254	-418
216.321	169
216.388	-484
216.455	-70
216.522	601
216.589	-467
216.656	328
216.722	-401
216.789	-189
216.856	-466
216.923	173
216.990	716
217.057	173
217.124	61
217.191	-965
217.258	126
217.324	-116
217.391	14
217.458	-517
217.525	-149
217.592	435
217.659	-855
217.725	333
217.792	-498
217.859	-2
217.926	81
217.993	-440
218.059	950
218.126	-218
218.193	165
218.260	318
218.327	283
218.393	178
218.460	-362
218.527	-323
218.594	-165
218.660	351
218.727	-190
218.794	-103
218.860	-6
218.927	-333
218.994	-292
219.061	-573
219.127	31
219.194	-464
219.261	178
219.327	-399
219.394	355
219.461	104
219.527	607
219.594	-185
219.661	-288
219.727	-890
219.794	310
219.860	-551
219.927	89
219.994	-176
220.060	-598
220.127	13
220.193	44
220.260	44
220.326	-364
220.393	77
220.460	-216
220.526	477
220.593	-659
220.659	386
220.726	144
220.792	-28
220.859	-602
220.925	816
220.992	917
221.058	342
221.125	501
221.191	-169
221.258	282
221.324	-985
221.391	-78
221.457	-8
221.524	-116
221.590	-772
221.657	-69
221.723	432
221.789	190
221.856	-321
221.922	-481
221.989	-25
222.055	399
222.121	-974
222.188	442
222.254	-103
222.321	131
222.387	-580
222.453	-558
222.520	-432
222.586	-808
222.652	28
222.719	-171
222.785	-140
222.851	-768
222.918	-64
222.984	20
223.050	-670
223.116	-1358
223.183	404
223.249	-703
223.315	74
223.382	-246
223.448	-59
223.514	-771
223.580	-269
223.647	-156
223.713	-930
223.779	-452
223.845	-230
223.911	478
223.978	-811
224.044	-183
224.110	-466
224.176	-392
224.242	-246
224.309	-1367
224.375	-129
224.441	-37
224.507	-1062
224.573	-1043
224.639	-470
224.705	-68
224.772	394
224.838	-181
224.904	-270
224.970	-656
225.036	367
225.102	-584
225.168	-259
225.234	-110
225.300	-176
225.366	-201
225.432	89
225.499	412
225.565	-130
225.631	94
225.697	179
225.763	-276
225.829	-683
225.895	-286
225.961	-273
226.027	-309
226.093	-51
226.159	-65
226.225	673
226.291	436
226.357	952
226.423	-101
226.489	138
226.554	-363
226.620	-123
226.686	-36
226.752	66
226.818	327
226.884	1733
226.950	1231
227.016	113
227.082	-14
227.148	-485
227.214	309
227.279	-301
227.345	-690
227.411	-779
227.477	-657
227.543	-223
227.609	65
227.674	-424
227.740	-166
227.806	-697
227.872	-35
227.938	-294
228.003	316
228.069	-326
228.135	-441
228.201	-291
228.267	-709
228.332	-471
228.398	-1494
228.464	-424
228.530	-314
228.595	18
228.661	-409
228.727	247
228.792	454
228.858	-1290
228.924	-1353
228.990	271
229.055	-379
229.121	633
229.187	-488
229.252	-22
229.318	-1278
229.384	-1110
229.449	-398
229.515	-269
229.581	-1002
229.646	931
229.712	-430
229.777	-776
229.843	-450
229.909	-131
229.974	-256
230.040	70
230.105	-658
230.171	-861
230.236	-289
230.302	215
230.368	-187
230.433	-1089
230.499	-712
230.564	-156
230.630	-602
230.695	-391
230.761	-674
230.826	-1060
230.892	231
230.957	-635
231.023	-181
231.088	-823
231.154	-602
231.219	-570
231.284	-732
231.350	-533
231.415	-789
231.481	-488
231.546	40
231.612	-103
231.677	-514
231.742	-977
231.808	1093
231.873	-478
231.939	-1456
232.004	-171
232.069	-348
232.135	-625
232.200	-831
232.265	-176
232.331	-495
232.396	-649
232.461	-874
232.527	-626
232.592	-446
232.657	31
232.723	-310
232.788	-451
232.853	262
232.918	-354
232.984	-1386
233.049	-566
233.114	-783
233.179	-671
233.245	-419
233.310	-286
233.375	-1532
233.440	-754
233.506	-345
233.571	-681
233.636	-399
233.701	-442
233.766	-837
233.832	-472
233.897	-59
233.962	-1147
234.027	-58
234.092	-949
234.157	-513
234.222	-481
234.288	-768
234.353	72
234.418	-160
234.483	136
234.548	-210
234.613	-303
234.678	562
234.743	-967
234.808	272
234.873	-1259
234.938	72
235.004	-289
235.069	-434
235.134	-791
235.199	-625
235.264	-215
235.329	-1232
235.394	-250
235.459	409
235.524	-946
235.589	499
235.654	-671
235.719	-1044
235.784	-299
235.849	-828
235.913	-944
235.978	-567
236.043	-133
236.108	-293
236.173	-977
236.238	-16
236.303	-57
236.368	-1506
236.433	-163
236.498	-294
236.563	135
236.627	91
236.692	903
236.757	1310
236.822	-263
236.887	-857
236.952	-502
237.017	-1208
237.081	46
237.146	9
237.211	600
237.276	1830
237.341	2754
237.405	545
237.470	149
237.535	128
237.600	136
237.664	-956
237.729	-1090
237.794	-1234
237.859	-261
237.923	-158
237.988	23
238.053	119
238.118	-227
238.182	-306
238.247	926
238.312	-575
238.376	-578
238.441	-1200
238.506	489
238.570	-1488
238.635	184
238.700	-611
238.764	-733
238.829	-162
238.893	-575
238.958	257
239.023	-443
239.087	-468
239.152	2
239.216	-1371
239.281	-419
239.346	-467
239.410	-41
239.475	-557
239.539	387
239.604	-878
239.668	271
239.733	-701
239.797	-62
239.862	-51
239.926	-498
239.991	-169
240.055	40
240.120	-1289
240.184	-163
240.249	-593
240.313	-914
240.378	-837
240.442	-341
240.507	-68
240.571	-267
240.635	-1157
240.700	-499
240.764	-542
240.829	-254
240.893	-783
240.957	-552
241.022	-32
241.086	-804
241.151	-1103
241.215	-1102
241.279	331
241.344	-1427
241.408	-294
241.472	-499
241.537	-756
241.601	-532
241.665	-764
241.730	-1127
241.794	-9
241.858	-666
241.922	-823
241.987	-848
242.051	-793
242.115	-1399
242.179	-648
242.244	-1071
242.308	-371
242.372	-128
242.436	-985
242.501	-511
242.565	-874
242.629	-662
242.693	84
242.757	-1232
242.822	-921
242.886	-46
242.950	-410
243.014	-830
243.078	-898
243.142	-537
243.206	-1330
243.271	160
243.335	-877
243.399	-701
243.463	-454
243.527	1010
243.591	-1047
243.655	150
243.719	-367
243.783	682
243.847	-1219
243.911	-1006
243.975	-221
244.040	-1555
244.104	630
244.168	14
244.232	-1340
244.296	-272
244.360	-475
244.424	-1163
244.488	-659
244.552	-87
244.615	-1331
244.679	-662
244.743	-135
244.807	-719
244.871	-49
244.935	-513
244.999	-929
245.063	-628
245.127	88
245.191	-421
245.255	-794
245.319	-403
245.383	-1774
245.446	1292
245.510	-599
245.574	-325
245.638	-654
245.702	-1652
245.766	-494
245.829	73
245.893	-942
245.957	-638
246.021	-47
246.085	-749
246.149	-833
246.212	-36
246.276	-214
246.340	-436
246.404	-61
246.467	643
246.531	-2038
246.595	56
246.659	125
246.722	-947
246.786	-330
246.850	-1564
246.913	-575
246.977	-1369
247.041	-475
247.104	-1397
247.168	452
247.232	149
247.295	-467
247.359	-654
247.423	-493
247.486	-1047
247.550	-976
247.614	-441
247.677	-928
247.741	-499
247.804	-584
247.868	-221
247.932	-189
247.995	617
248.059	-521
248.122	-885
248.186	397
248.249	-563
248.313	1561
248.376	583
248.440	-716
248.503	-1764
248.567	812
248.630	-1050
248.694	-105
248.757	530
248.821	565
248.884	776
248.948	519
249.011	686
249.075	692
249.138	267
249.202	-758
249.265	-651
249.328	527
249.392	-401
249.455	-373
249.519	-694
249.582	-623
249.645	-772
249.709	-1269
249.772	-980
249.835	-642
249.899	-1093
249.962	-188
250.025	-64
250.089	-258
250.152	1116
250.215	-352
250.279	123
250.342	-242
250.405	-5
250.468	-1335
250.532	-534
250.595	711
250.658	253
250.721	2221
250.785	-249
250.848	1297
250.911	-1987
250.974	59
251.038	-617
251.101	646
251.164	-477
251.227	-431
251.290	-496
251.354	351
251.417	1538
251.480	1698
251.543	1040
251.606	4419
251.669	3215
251.732	981
251.795	659
251.859	787
251.922	2176
251.985	1565
252.048	1190
252.111	-150
252.174	-412
252.237	65
252.300	976
252.363	55
252.426	3746
252.489	-38
252.552	168
252.615	-639
252.678	368
252.741	515
252.804	1431
252.867	4141
252.930	1609
252.993	-96
253.056	445
253.119	-310
253.182	-448
253.245	-805
253.308	691
253.371	-811
253.434	-585
253.497	-609
253.559	471
253.622	-386
253.685	-690
253.748	-1020
253.811	-1329
253.874	369
253.937	-1465
254.000	-652
254.062	-474
254.125	-254
254.188	966
254.251	-228
254.314	-1536
254.376	16
254.439	-218
254.502	308
254.565	172
254.628	331
254.690	-947
254.753	-238
254.816	-1438
254.878	-665
254.941	-134
255.004	-512
255.067	-497
255.129	-222
255.192	-75
255.255	-1628
255.317	-83
255.380	474
255.443	-1167
255.505	-758
255.568	-908
255.631	-1117
255.693	-786
255.756	-1535
255.819	736
255.881	-1929
255.944	-106
256.006	-752
256.069	-367
256.132	-1221
256.194	-1637
256.257	243
256.319	-726
256.382	-925
256.444	-314
256.507	-577
256.569	-501
256.632	-1702
256.694	-1487
256.757	1410
256.819	2959
256.882	-188
256.944	-812
257.007	575
257.069	-846
257.132	-1370
257.194	369
257.257	-1160
257.319	-2367
257.381	-1003
257.444	1032
257.506	3732
257.569	2377
257.631	29
257.693	157
257.756	519
257.818	-1615
257.880	-1020
257.943	12
258.005	-1083
258.067	-626
258.130	-906
258.192	-739
258.254	-1156
258.317	-766
258.379	-677
258.441	-650
258.503	199
258.566	-882
258.628	-99
258.690	-749
258.753	91
258.815	-690
258.877	-896
258.939	-346
259.001	-388
259.064	-357
259.126	-1297
259.188	-1076
259.250	-474
259.312	-491
259.375	-905
259.437	-736
259.499	-1305
259.561	-1094
259.623	325
259.685	-1494
259.747	-525
259.809	-664
259.872	-570
259.934	-209
259.996	562
260.058	-528
260.120	-644
260.182	-425
260.244	-1002
260.306	-907
260.368	-377
260.430	-1093
260.492	-422
260.554	530
260.616	-1104
260.678	-448
260.740	12
260.802	-1346
260.864	-509
260.926	-1263
260.988	292
261.050	-907
261.112	-748
261.174	-607
261.236	-823
261.298	-1408
261.359	-627
261.421	-510
261.483	-1184
261.545	-19
261.607	-1249
261.669	-651
261.731	-441
261.793	-749
261.854	-1740
261.916	309
261.978	-994
262.040	-966
262.102	-355
262.164	-1398
262.225	-264
262.287	-591
262.349	-1343
262.411	-1360
262.472	-674
262.534	-1003
262.596	-687
262.658	318
262.719	-531
262.781	-573
262.843	-1741
262.904	-160
262.966	-954
263.028	-1391
263.090	735
263.151	804
263.213	262
263.275	-1264
263.336	-572
263.398	764
263.459	-1185
263.521	-1062
263.583	-451
263.644	-784
263.706	-340
263.767	-1238
263.829	-376
263.891	-1580
263.952	-500
264.014	-938
264.075	-781
264.137	-322
264.198	-120
264.260	-917
264.321	-908
264.383	-910
264.444	240
264.506	-720
264.567	-630
264.629	-69
264.690	-791
264.752	-1564
264.813	-304
264.875	-982
264.936	-84
264.998	-975
265.059	-1037
265.120	-603
265.182	-1065
265.243	688
265.305	467
265.366	-430
265.427	-298
265.489	408
265.550	-1615
265.611	-854
265.673	-575
265.734	-820
265.795	-550
265.857	-1440
265.918	-1171
265.979	263
266.040	1658
266.102	1090
266.163	328
266.224	-519
266.286	-1141
266.347	-539
266.408	-1324
266.469	-1043
266.530	-1383
266.592	-1269
266.653	-501
266.714	-905
266.775	-911
266.836	-1285
266.898	-944
266.959	-1614
267.020	-1452
267.081	121
267.142	-1199
267.203	-1025
267.264	-1538
267.326	-1027
267.387	-735
267.448	-1549
267.509	-692
267.570	-1691
267.631	-1024
267.692	-1671
267.753	-540
267.814	-1742
267.875	-565
267.936	-535
267.997	-835
268.058	-388
268.119	-885
268.180	-920
268.241	-1620
268.302	-1015
268.363	-820
268.424	-765
268.485	-1012
268.546	-1051
268.607	-834
268.668	-418
268.729	-719
268.790	-1499
268.851	-138
268.912	-850
268.972	-492
269.033	-825
269.094	-1512
269.155	-752
269.216	-789
269.277	-793
269.338	-876
269.398	-1145
269.459	-2197
269.520	-1339
269.581	-1293
269.642	-890
269.702	-1307
269.763	-743
269.824	-1498
269.885	-1255
269.945	-1106
270.006	-288
270.067	-1053
270.128	-1123
270.188	-1387
270.249	-1383
270.310	-830
270.370	-225
270.431	-977
270.492	-744
270.553	-363
270.613	-445
270.674	-269
270.734	-1058
270.795	-907
270.856	265
270.916	-1329
270.977	-1309
271.038	-59
271.098	-1232
271.159	-493
271.219	-1314
271.280	-790
271.340	-210
271.401	-819
271.462	-1339
271.522	-808
271.583	-1626
271.643	-1048
271.704	-1192
271.764	-1129
271.825	-1162
271.885	573
271.946	730
272.006	-762
272.066	3
272.127	331
272.187	-552
272.248	-302
272.308	-1288
272.369	493
272.429	-725
272.489	-207
272.550	-1339
272.610	-5
272.671	-569
272.731	-622
272.791	-1195
272.852	-1099
272.912	-587
272.972	-1592
273.033	-896
273.093	-1320
273.153	-194
273.214	-780
273.274	-999
273.334	177
273.394	216
273.455	-1064
273.515	108
273.575	-516
273.635	-141
273.696	138
273.756	521
273.816	14
273.876	-538
273.936	-411
273.997	-730
274.057	-652
274.117	-784
274.177	-731
274.237	795
274.297	336
274.358	245
274.418	460
274.478	-542
274.538	-1363
274.598	-1227
274.658	-728
274.718	-792
274.778	-1010
274.838	-731
274.898	-1007
274.958	-383
275.018	441
275.078	175
275.138	-770
275.198	-1062
275.258	-749
275.318	-1168
275.378	-771
275.438	-187
275.498	-272
275.558	-533
275.618	-1411
275.678	-1150
275.738	-56
275.798	-594
275.858	-685
275.918	-725
275.978	-557
276.038	-387
276.098	-1330
276.157	-1501
276.217	-208
276.277	-1153
276.337	-877
276.397	-1220
276.457	-902
276.517	-421
276.576	-1147
276.636	-1464
276.696	-724
276.756	-1010
276.815	-1439
276.875	-1596
276.935	-621
276.995	-1348
277.055	-944
277.114	-1127
277.174	-634
277.234	-647
277.293	-396
277.353	-1372
277.413	-548
277.472	-1448
277.532	-962
277.592	-1229
277.651	-699
277.711	-820
277.771	-864
277.830	-348
277.890	-372
277.950	-878
278.009	374
278.069	-377
278.128	-180
278.188	-780
278.248	-674
278.307	-307
278.367	-489
278.426	-1482
278.486	-1159
278.545	-947
278.605	-1222
278.664	-994
278.724	-1228
278.783	-534
278.843	335
278.902	-1337
278.962	-1306
279.021	-1062
279.081	-514
279.140	-709
279.199	-1283
279.259	-726
279.318	-825
279.378	-475
279.437	-329
279.496	2068
279.556	5168
279.615	2795
279.675	-10
279.734	-932
279.793	325
279.853	1018
279.912	-293
279.971	-753
280.031	-772
280.090	-198
280.149	626
280.208	5
280.268	2109
280.327	2135
280.386	-632
280.445	-771
280.505	-984
280.564	-696
280.623	-1313
280.682	-1064
280.742	-804
280.801	-1431
280.860	-730
280.919	-1208
280.978	-1163
281.037	-1476
281.097	-1107
281.156	-766
281.215	-1402
281.274	-1606
281.333	621
281.392	-975
281.451	-988
281.510	-1185
281.569	-786
281.628	-1021
281.688	-820
281.747	-454
281.806	-320
281.865	-568
281.924	-1349
281.983	-1432
282.042	-2241
282.101	-1338
282.160	-939
282.219	-1216
282.278	-617
282.337	-1066
282.396	-1208
282.454	-763
282.513	-1615
282.572	-631
282.631	-586
282.690	-1213
282.749	-1701
282.808	-892
282.867	-1886
282.926	-911
282.985	-1054
283.043	-1366
283.102	-880
283.161	-806
283.220	-1190
283.279	-746
283.338	-1794
283.396	-1395
283.455	-1552
283.514	-1301
283.573	-970
283.631	-1109
283.690	-875
283.749	-1060
283.808	-1608
283.866	-1139
283.925	-1234
283.984	-722
284.043	-1123
284.101	-980
284.160	-1558
284.219	-1108
284.277	-923
284.336	-822
284.395	-616
284.453	-586
284.512	-1079
284.570	-474
284.629	-1153
284.688	-1307
284.746	-1467
284.805	-2023
284.863	-850
284.922	-1443
284.981	-1367
285.039	-512
285.098	366
285.156	2460
285.215	10483
285.273	8312
285.332	2195
285.390	540
285.449	169
285.507	-381
285.566	-794
285.624	-614
285.683	-365
285.741	-1849
285.799	-1214
285.858	-840
285.916	-1232
285.975	-1522
286.033	-1528
286.091	-1692
286.150	-816
286.208	-952
286.267	-861
286.325	-992
286.383	-774
286.442	-1747
286.500	-1404
286.558	-1132
286.616	-522
286.675	-965
286.733	-988
286.791	-1872
286.850	-1087
286.908	-793
286.966	-463
287.024	-1539
287.083	-1131
287.141	-1611
287.199	-806
287.257	-658
287.315	-437
287.374	-1698
287.432	-869
287.490	-1010
287.548	-1524
287.606	-1528
287.664	-1261
287.723	-1414
287.781	-413
287.839	-786
287.897	-556
287.955	-1645
288.013	-679
288.071	-252
288.129	2891
288.187	9891
288.245	2760
288.303	-30
288.361	-675
288.419	-1154
288.477	-952
288.535	-935
288.593	-783
288.651	-744
288.709	-1866
288.767	-1471
288.825	-1523
288.883	-969
288.941	-1136
288.999	-1452
289.057	-1086
289.115	-1011
289.173	-1949
289.231	-1144
289.289	-1512
289.346	-1182
289.404	-1649
289.462	-1462
289.520	-1733
289.578	-1145
289.636	-1163
289.694	-1528
289.751	-1199
289.809	-1848
289.867	-1380
289.925	-720
289.983	-1714
290.040	-1278
290.098	-1232
290.156	-1389
290.214	-1100
290.271	-2311
290.329	-1488
290.387	-1623
290.444	-1278
290.502	-1342
290.560	-1508
290.617	-1307
290.675	-1780
290.733	-1080
290.790	-1576
290.848	-1442
290.906	-1636
290.963	-993
291.021	-959
291.078	-1869
291.136	-1839
291.194	-633
291.251	-1103
291.309	-1588
291.366	-1195
291.424	-1185
291.481	-1717
291.539	-2401
291.596	-646
291.654	-1599
291.711	-1456
291.769	-1992
291.826	-1926
291.884	-1551
291.941	-1061
291.999	-1724
292.056	-1272
292.114	-1748
292.171	-2361
292.228	-1307
292.286	-1322
292.343	-1553
292.401	-1459
292.458	-1070
292.515	-2563
292.573	-1279
292.630	-873
292.687	-1902
292.745	-1266
292.802	-1332
292.859	-974
292.917	158
292.974	-358
293.031	-882
293.089	-1498
293.146	-1591
293.203	-1206
293.260	-1744
293.318	-1260
293.375	-1623
293.432	-2002
293.489	-1603
293.546	-1595
293.604	-1604
293.661	-645
293.718	392
293.775	-967
293.832	-1518
293.889	-1642
293.947	-1343
294.004	-1866
294.061	-1475
294.118	-1575
294.175	-304
294.232	369
294.289	-682
294.346	-1563
294.403	-1825
294.460	-1383
294.517	-1544
294.574	-1620
294.631	-1955
294.688	-1589
294.745	-509
294.802	1647
294.859	1072
294.916	-889
294.973	-1737
295.030	-1832
295.087	-1191
295.144	-1893
295.201	-900
295.258	-1313
295.315	-1453
295.372	59
295.429	-24
295.486	-1665
295.542	-1423
295.599	-482
295.656	658
295.713	-16
295.770	-153
295.827	-1668
295.883	-608
295.940	-1788
295.997	-1579
296.054	-1361
296.111	-1077
296.167	-513
296.224	-2036
296.281	-1507
296.338	-2302
296.394	-1013
296.451	-1654
296.508	-1183
296.564	-406
296.621	-38
296.678	-31
296.734	937
296.791	-694
296.848	-1245
296.904	-1661
296.961	-1450
297.018	-367
297.074	-681
297.131	-1540
297.187	-962
297.244	-589
297.301	554
297.357	1997
297.414	-587
297.470	-1073
297.527	-1947
297.583	-689
297.640	-1544
297.696	-1151
297.753	-754
297.809	-929
297.866	-2063
297.922	-1432
297.979	-1404
298.035	-1820
298.092	-723
298.148	-770
298.204	-259
298.261	-1008
298.317	-527
298.374	1634
298.430	-58
298.486	-1422
298.543	-1163
298.599	-1525
298.656	-1825
298.712	-917
298.768	-1203
298.824	-800
298.881	-1382
298.937	-1196
298.993	-1018
299.050	-1665
299.106	-1501
299.162	-1190
299.218	-1078
299.275	-855
299.331	-1964
299.387	-1032
299.443	204
299.500	797
299.556	-156
299.612	-775
299.668	-1161
299.724	-1177
299.780	-208
299.837	-1725
299.893	-1476
299.949	-262
300.005	623
300.061	43
300.117	2208
300.173	125
300.229	-697
300.285	-899
300.341	-1112
300.397	-898
300.453	-1096
300.510	-1136
300.566	-1111
300.622	-988
300.678	632
300.734	753
300.790	617
300.845	17
300.901	-507
300.957	257
301.013	152
301.069	-956
301.125	-1258
301.181	-1108
301.237	-1125
301.293	-2263
301.349	-1095
301.405	-1484
301.461	-2355
301.516	-1287
301.572	-934
301.628	-1593
301.684	-1754
301.740	-508
301.796	-790
301.851	-1046
301.907	-1457
301.963	-252
302.019	342
302.074	4403
302.130	4811
302.186	1194
302.242	12
302.297	-1391
302.353	-1246
302.409	-294
302.464	-94
302.520	-735
302.576	542
302.631	1147
302.687	-529
302.743	-804
302.798	-1359
302.854	-1142
302.910	-1236
302.965	-1498
303.021	-1488
303.076	-528
303.132	-1060
303.187	-488
303.243	-1579
303.299	-934
303.354	-1182
303.410	-1728
303.465	-1730
303.521	-1860
303.576	-1829
303.632	-758
303.687	-908
303.743	1021
303.798	367
303.853	-889
303.909	-1577
303.964	-1202
304.020	-1107
304.075	-877
304.130	-627
304.186	-749
304.241	219
304.297	342
304.352	-1069
304.358	-1053
304.407	-926
304.449	-1031
304.463	-1068
304.518	-1079
304.539	-1421
304.573	-1976
304.629	-535
304.630	-540
304.684	-764
304.720	-513
304.739	-394
304.794	1031
304.811	835
304.850	310
304.902	-842
304.905	-918
304.960	-1596
304.992	-1086
305.015	-689
305.071	-846
305.083	-800
305.126	-657
305.173	-1048
305.181	-1115
305.236	-1678
305.264	-1454
305.292	-1226
305.347	-633
305.354	-734
305.402	-1363
305.445	-896
305.457	-752
305.512	-562
305.535	-658
305.567	-856
305.622	-1228
305.626	-1181
305.678	-43
305.716	509
305.733	645
305.788	2324
305.807	1796
305.843	827
305.897	1565
305.898	1574
305.953	1699
305.988	775
306.008	226
306.063	-467
306.078	-501
306.118	-428
306.168	-824
306.173	-859
306.228	-504
306.259	-556
306.283	-534
306.338	-1043
306.349	-970
306.393	-972
306.440	-930
306.448	-845
306.503	-762
306.530	-349
306.558	114
306.613	376
306.620	458
306.668	1098
306.711	1656
306.723	1599
306.778	1593
306.801	987
306.833	390
306.888	-214
306.892	-278
306.943	-903
306.982	-642
306.997	-504
307.052	-576
307.072	-546
307.107	-499
307.162	-766
307.163	-759
307.217	379
307.253	468
307.272	371
307.327	240
307.343	94
307.381	-242
307.434	-600
307.436	-568
307.491	783
307.524	1436
307.546	1445
307.600	1716
307.614	1576
307.655	1068
307.704	191
307.710	162
307.765	678
307.795	495
307.819	466
307.874	1804
307.885	1815
307.929	1161
307.975	787
307.984	878
308.038	1641
308.065	2447
308.093	5460
308.148	11829
308.156	13214
308.202	21228
308.246	28594
308.257	27790
308.312	14868
308.336	9368
308.366	6393
308.421	3332
308.426	3062
308.475	2094
308.517	1322
308.530	1143
308.585	937
308.607	868
308.639	762
308.694	532
308.697	540
308.748	2013
308.787	3260
308.803	3097
308.857	2035
308.877	1444
308.912	1333
308.967	1700
308.967	1703
309.021	2432
309.058	2914
309.076	3786
309.130	6698
309.148	7928
309.185	17422
309.238	33417
309.239	33567
309.293	37737
309.328	35973
309.348	30627
309.402	13985
309.418	9703
309.457	6761
309.508	3468
309.511	3373
309.566	2192
309.598	1696
309.620	1883
309.674	2882
309.688	3171
309.729	2925
309.778	2130
309.783	2101
309.837	1601
309.868	1646
309.892	2135
309.946	2652
309.959	2975
310.001	4222
310.049	5549
310.055	5408
310.109	3490
310.139	2223
310.163	1627
310.218	857
310.229	667
310.272	602
310.319	520
310.326	475
310.381	279
310.409	165
310.435	119
310.489	61
310.499	51
310.543	225
310.589	230
310.598	282
310.652	720
310.679	936
310.706	781
310.760	378
310.769	323
310.814	430
310.859	519
310.868	509
310.923	286
310.948	190
310.977	329
311.031	578
311.038	643
311.085	680
311.128	413
311.139	474
311.193	853
311.218	1043
311.247	996
311.301	783
311.308	765
311.356	667
311.398	476
311.410	518
311.464	694
311.488	795
311.518	798
311.572	681
311.578	671
311.626	779
311.668	843
311.680	889
311.734	1036
311.758	1086
311.788	830
311.842	403
311.847	353
311.896	1135
311.937	1807
311.950	1730
312.004	1366
312.027	1197
312.058	961
312.112	532
312.117	488
312.165	831
312.207	1121
312.297	1652
312.386	789
312.476	977
312.566	653
312.656	697
312.745	578
312.835	1445
312.925	215
313.015	669
313.104	649
313.194	708
313.284	-258
313.374	1028
313.463	872
313.553	1406
313.643	211
313.732	518
313.822	94
313.912	775
314.001	588
314.091	1247
314.180	1262
314.270	1445
314.360	1391
314.449	900
314.539	464
314.628	1290
314.718	768
314.808	1450
314.897	79
314.987	443
315.076	1693
315.166	665
315.255	1382
315.345	1233
315.434	605
315.524	852
315.613	1044
315.703	942
315.792	2391
315.881	4054
315.971	1325
316.060	1093
316.150	2200
316.239	2463
316.328	821
316.418	528
316.507	126
316.597	731
316.686	695
316.775	948
316.865	3666
316.954	1065
317.043	680
317.133	690
317.222	378
317.311	642
317.400	-405
317.490	1774
317.579	1178
317.668	1113
317.757	746
317.847	2390
317.936	7006
318.025	3426
318.114	1605
318.203	1226
318.293	1279
318.382	2754
318.471	1992
318.560	3894
318.649	9666
318.738	2336
318.828	362
318.917	1336
319.006	1087
319.095	2628
319.184	12334
319.273	5620
319.362	1552
319.451	256
319.540	675
319.629	1880
319.718	2275
319.807	1656
319.896	2188
319.985	15028
320.074	4740
320.163	654
320.252	926
320.341	2025
320.430	1157
320.519	1051
320.608	159
320.697	652
320.786	125
320.875	1252
320.964	590
321.053	1226
321.142	1513
321.230	2263
321.319	2253
321.408	4590
321.497	1866
321.586	1886
321.675	2780
321.764	2133
321.852	1443
321.941	2181
322.030	1449
322.119	964
322.207	3987
322.296	3599
322.385	1804
322.474	2481
322.562	4991
322.651	3469
322.740	1755
322.829	2665
322.917	2589
323.006	1801
323.095	764
323.183	627
323.272	2022
323.361	2089
323.449	11248
323.538	3719
323.626	7285
323.715	4499
323.804	926
323.892	5457
323.981	3021
324.069	983
324.158	3059
324.246	3636
324.335	761
324.424	1464
324.512	837
324.601	853
324.689	1407
324.778	3398
324.866	1389
324.954	602
325.043	190
325.131	696
325.220	2596
325.308	3013
325.397	2080
325.485	917
325.574	509
325.662	295
325.750	-472
325.839	674
325.927	23
326.015	235
326.104	655
326.192	1615
326.280	-189
326.369	1051
326.457	-42
326.545	1106
326.634	76
326.722	-19
326.810	407
326.898	287
326.987	-453
327.075	83
327.163	1403
327.251	-113
327.340	233
327.428	1839
327.516	423
327.604	-183
327.692	-258
327.781	-21
327.869	581
327.957	497
328.045	-254
328.133	-58
328.221	121
328.309	-28
328.397	336
328.485	629
328.574	252
328.662	1785
328.750	1378
328.838	1041
328.926	147
329.014	-72
329.102	197
329.190	2234
329.278	937
329.366	692
329.454	145
329.542	-14
329.630	-204
329.718	694
329.806	181
329.893	895
329.981	12
330.069	2155
330.157	6331
330.245	20976
330.333	11451
330.421	1656
330.509	581
330.597	2761
330.684	1354
330.772	1439
330.860	813
330.948	2274
331.036	979
331.123	53
331.211	-72
331.299	675
331.387	1798
331.475	2699
331.562	199
331.650	-241
331.738	-242
331.825	675
331.913	101
332.001	-186
332.089	953
332.176	966
332.264	2859
332.352	1985
332.439	344
332.527	924
332.614	-389
332.702	438
332.790	-15
332.877	408
332.965	2021
333.052	624
333.140	797
333.228	968
333.315	574
333.403	1025
333.490	1809
333.578	1063
333.665	1160
333.753	546
333.840	-653
333.928	554
334.015	2521
334.103	3517
334.190	14918
334.278	3972
334.365	1999
334.452	1939
334.540	923
334.627	1068
334.715	900
334.802	2201
334.889	11884
334.977	15221
335.064	3236
335.151	1249
335.239	925
335.326	1410
335.413	7266
335.501	11935
335.588	1420
335.675	1047
335.762	731
335.850	2416
335.937	1438
336.024	3644
336.111	16303
336.199	10369
336.286	2427
336.373	547
336.460	428
336.547	517
336.635	858
336.722	400
336.809	1179
336.896	1133
336.983	3206
337.070	10479
337.157	17175
337.245	9204
337.332	6428
337.419	330
337.506	823
337.593	621
337.680	2683
337.767	11390
337.854	2682
337.941	2525
338.028	3228
338.115	1641
338.202	1180
338.289	1972
338.376	7974
338.463	2890
338.550	4738
338.637	7268
338.724	1313
338.811	2597
338.898	467
338.984	-164
339.071	49
339.158	-144
339.245	768
339.332	1517
339.419	922
339.506	1843
339.593	-466
339.679	121
339.766	84
339.853	166
339.940	959
340.027	267
340.113	234
340.200	400
340.287	156
340.374	596
340.460	541
340.547	-452
340.634	402
340.720	2537
340.807	1416
340.894	257
340.980	223
341.067	-371
341.154	249
341.240	-18
341.327	887
341.414	533
341.500	-364
341.587	87
341.674	300
341.760	716
341.847	337
341.933	227
342.020	-233
342.106	-207
342.193	90
342.279	76
342.366	-182
342.452	936
342.539	775
342.625	292
342.712	1985
342.798	5
342.885	191
342.971	-53
343.058	-483
343.144	169
343.230	333
343.317	866
343.403	-513
343.490	-234
343.576	-702
343.662	-178
343.749	97
343.835	607
343.921	592
344.008	7328
344.094	21694
344.180	4529
344.267	284
344.353	4362
344.439	5130
344.525	974
344.612	594
344.698	-266
344.784	-480
344.870	268
344.957	-323
345.043	502
345.129	-277
345.215	555
345.301	119
345.387	625
345.474	-151
345.560	229
345.646	-468
345.732	-163
345.818	-315
345.904	-473
345.990	-344
346.076	233
346.162	459
346.249	274
346.335	-198
346.421	18
346.507	449
346.593	7780
346.679	755
346.765	418
346.851	-154
346.937	170
347.023	298
347.108	1062
347.194	-210
347.280	-78
347.366	797
347.452	2440
347.538	9098
347.624	6394
347.710	3847
347.796	-13
347.882	-164
347.967	150
348.053	143
348.139	-4
348.225	-676
348.311	-597
348.397	-278
348.482	-30
348.568	-2
348.654	-23
348.740	57
348.825	-321
348.911	985
348.997	3250
349.083	8705
349.168	1198
349.254	-188
349.340	306
349.425	-593
349.511	-573
349.597	-482
349.682	177
349.768	3755
349.854	1745
349.939	-51
350.025	-344
350.110	-35
350.196	-222
350.282	-577
350.367	130
350.453	-176
350.538	33
350.624	-1142
350.709	421
350.795	-1125
350.880	-315
350.966	653
351.051	-205
351.137	-287
351.222	-601
351.308	760
351.393	1949
351.479	-651
351.564	-286
351.649	513
351.735	459
351.820	-251
351.906	-911
351.991	-731
352.076	1195
352.162	2698
352.247	445
352.332	313
352.418	-182
352.503	449
352.588	4825
352.673	3027
352.759	91
352.844	-819
352.929	-596
353.014	-417
353.100	484
353.185	-304
353.270	166
353.355	69
353.441	-646
353.526	-501
353.611	-24
353.696	120
353.781	162
353.866	-1297
353.952	730
354.037	-92
354.122	906
354.207	1059
354.292	110
354.377	-275
354.462	176
354.547	-982
354.632	86
354.717	391
354.802	785
354.887	-341
354.972	-417
355.057	-199
355.142	-9
355.227	-688
355.312	142
355.397	278
355.482	1723
355.567	1007
355.652	455
355.737	798
355.822	3430
355.907	3585
355.991	607
356.076	-780
356.161	-300
356.246	-594
356.331	-17
356.416	-385
356.501	8843
356.585	10842
356.670	599
356.755	972
356.840	234
356.924	5087
357.009	21880
357.094	9252
357.179	497
357.263	-74
357.348	749
357.433	26
357.517	-149
357.602	146
357.687	-321
357.771	593
357.856	3773
357.941	1065
358.025	3941
358.110	22284
358.195	10867
358.279	774
358.364	-45
358.448	2498
358.533	8070
358.617	5858
358.702	5392
358.787	1863
358.871	-576
358.956	25
359.040	-1170
359.125	-1157
359.209	-267
359.294	560
359.378	2305
359.462	628
359.547	815
359.631	-529
359.716	-1151
359.800	-829
359.885	456
359.969	-1292
360.053	566
360.138	-148
360.222	-189
360.306	-236
360.391	670
360.475	938
360.559	2818
360.644	2780
360.728	814
360.812	4038
360.896	15323
360.981	5268
361.065	1814
361.149	131
361.233	278
361.318	-836
361.402	239
361.486	253
361.570	-305
361.654	-253
361.739	583
361.823	7600
361.907	16327
361.991	2267
362.075	835
362.159	583
362.243	2134
362.327	2000
362.411	5360
362.495	1719
362.580	622
362.664	573
362.748	199
362.832	-133
362.916	574
363.000	8085
363.084	20876
363.168	20831
363.252	4492
363.336	1420
363.420	1049
363.503	9893
363.587	14490
363.671	1292
363.755	488
363.839	529
363.923	-263
364.007	177
364.091	1223
364.175	2338
364.258	20435
364.342	14048
364.426	22586
364.510	11948
364.594	3968
364.677	2894
364.761	12281
364.845	10117
364.929	1543
365.013	1012
365.096	893
365.180	365
365.264	3930
365.347	17872
365.431	7578
365.515	1150
365.598	-371
365.682	316
365.766	-59
365.849	1236
365.933	-206
366.017	946
366.100	862
366.184	-1026
366.267	138
366.351	-544
366.435	-136
366.518	-955
366.602	-237
366.685	-442
366.769	-1019
366.852	268
366.936	1554
367.019	19
367.103	-556
367.186	1904
367.270	-35
367.353	-1061
367.436	-21
367.520	-429
367.603	-757
367.687	-1174
367.770	20
367.853	174
367.937	2840
368.020	5019
368.104	-32
368.187	589
368.270	-30
368.353	482
368.437	995
368.520	4367
368.603	1258
368.687	1574
368.770	6230
368.853	997
368.936	954
369.020	1455
369.103	174
369.186	-436
369.269	-363
369.352	27
369.436	62
369.519	-146
369.602	-1171
369.685	130
369.768	-486
369.851	342
369.934	-618
370.018	-636
370.101	-109
370.184	785
370.267	540
370.350	164
370.433	842
370.516	4984
370.599	9811
370.682	80
370.765	2396
370.848	3558
370.931	8723
371.014	3775
371.097	-234
371.180	-420
371.263	-130
371.346	-1310
371.429	198
371.511	-1351
371.594	32
371.677	932
371.760	2096
371.843	1113
371.926	6453
372.009	18002
372.091	6316
372.174	2256
372.257	10839
372.340	3901
372.423	1873
372.505	3793
372.588	532
372.671	1420
372.754	8033
372.836	4382
372.919	3990
373.002	10236
373.085	1777
373.167	969
373.250	2060
373.332	8278
373.415	10846
373.498	26859
373.580	9671
373.663	11274
373.746	18543
373.828	2637
373.911	1321
373.993	702
374.076	9331
374.159	9330
374.241	2055
374.324	6023
374.406	4525
374.489	6382
374.571	23494
374.654	9527
374.736	3546
374.819	12976
374.901	19795
374.983	20886
375.066	3488
375.148	698
375.231	6487
375.313	16996
375.395	5241
375.478	263
375.560	1048
375.643	47
375.725	2937
375.807	15348
375.890	14168
375.972	3768
376.054	1801
376.136	3325
376.219	1103
376.301	3850
376.383	14099
376.465	5301
376.548	1648
376.630	2593
376.712	10120
376.794	4631
376.877	284
376.959	-1264
377.041	1119
377.123	1021
377.205	1521
377.287	-339
377.369	192
377.452	-725
377.534	-476
377.616	-303
377.698	-907
377.780	-1058
377.862	-77
377.944	-324
378.026	-1065
378.108	312
378.190	-396
378.272	-261
378.354	-146
378.436	-339
378.518	-15
378.600	2814
378.682	1937
378.764	3503
378.846	3136
378.928	-96
379.010	-77
379.091	-319
379.173	-357
379.255	-797
379.337	-485
379.419	1012
379.501	5606
379.583	1873
379.664	-30
379.746	84
379.828	3929
379.910	4892
379.991	5256
380.073	-131
380.155	-352
380.237	-882
380.318	-894
380.400	-687
380.482	348
380.564	239
380.645	220
380.727	378
380.809	-92
380.890	-378
380.972	-881
381.053	-621
381.135	48
381.217	1138
381.298	4215
381.380	1459
381.461	644
381.543	9037
381.624	13980
381.706	1591
381.787	140
381.869	461
381.951	3742
382.032	19439
382.113	14715
382.195	684
382.276	1408
382.358	2398
382.439	9991
382.521	11437
382.602	19923
382.684	8199
382.765	11357
382.846	9252
382.928	10088
383.009	4800
383.090	2910
383.172	12400
383.253	23880
383.334	9355
383.416	14005
383.497	7770
383.578	1249
383.659	1538
383.741	9335
383.822	36618
383.903	19276
383.984	6637
384.066	17105
384.147	9074
384.228	1419
384.309	-158
384.390	521
384.471	-625
384.553	-296
384.634	464
384.715	789
384.796	-832
384.877	342
384.958	3189
385.039	4552
385.120	4
385.201	851
385.282	-513
385.363	1120
385.444	-1072
385.525	531
385.606	7416
385.687	7870
385.768	1219
385.849	1059
385.930	7445
386.011	17414
386.092	3568
386.173	75
386.254	7
386.335	1488
386.416	-204
386.496	1658
386.577	3961
386.658	1396
386.739	1
386.820	534
386.901	-787
386.981	616
387.062	-1202
387.143	-600
387.224	3170
387.304	4280
387.385	1263
387.466	94
387.547	1367
387.627	741
387.708	1172
387.789	7897
387.869	10776
387.950	3420
388.031	-272
388.111	-1890
388.192	1804
388.273	3409
388.353	1242
388.434	-8
388.514	332
388.595	8505
388.676	13262
388.756	4463
388.837	3101
388.917	1581
388.998	-1063
389.078	432
389.159	-288
389.239	-1914
389.320	540
389.400	-1198
389.480	1729
389.561	3974
389.641	2948
389.722	-294
389.802	-34
389.883	1670
389.963	6541
390.043	4059
390.124	-541
390.204	870
390.284	3798
390.365	1597
390.445	4605
390.525	9833
390.605	6731
390.686	1327
390.766	1005
390.846	761
390.927	-384
391.007	-1027
391.087	-327
391.167	-288
391.247	-1614
391.328	882
391.408	1679
391.488	1447
391.568	-1643
391.648	-482
391.728	-76
391.808	769
391.888	-54
391.969	1689
392.049	3722
392.129	1880
392.209	1870
392.289	6837
392.369	2619
392.449	3988
392.529	1161
392.609	1306
392.689	1078
392.769	6382
392.849	5921
392.929	5292
393.009	9842
393.089	8449
393.169	7766
393.248	24055
393.328	109168
393.408	134705
393.488	37200
393.568	8438
393.648	3223
393.728	1467
393.807	748
393.887	1706
393.967	540
394.047	649
394.127	1000
394.206	2938
394.286	10403
394.366	58291
394.446	72831
394.525	15769
394.605	3406
394.685	1898
394.764	5327
394.844	9786
394.924	7803
395.003	1125
395.083	362
395.163	319
395.242	338
395.322	422
395.402	-577
395.481	1549
395.561	2119
395.640	11905
395.720	9538
395.799	13111
395.879	10407
395.958	4394
396.038	16931
396.117	76545
396.197	95880
396.276	28018
396.356	6856
396.435	4749
396.515	2951
396.594	2532
396.673	6338
396.753	26812
396.832	103771
396.912	83406
396.991	16966
397.070	4312
397.150	525
397.229	1433
397.308	2304
397.388	5986
397.467	3144
397.546	828
397.625	-1563
397.705	960
397.784	279
397.863	-546
397.942	-219
398.022	-647
398.101	1532
398.180	11867
398.259	5790
398.338	686
398.417	-324
398.497	-443
398.576	218
398.655	-1546
398.734	-489
398.813	-325
398.892	1918
398.971	11709
399.050	6167
399.129	-211
399.208	-696
399.287	-190
399.366	-796
399.445	-106
399.524	-726
399.603	-1453
399.682	-310
399.761	632
399.840	12297
399.919	11410
399.998	-6
400.077	-1574
400.156	-1920
400.235	643
400.313	-965
400.392	-890
400.471	1599
400.550	2939
400.629	-763
400.708	-178
400.786	-869
400.865	1803
400.944	984
401.023	1171
401.102	-1652
401.180	-80
401.259	-991
401.338	-783
401.416	-621
401.495	-842
401.574	-201
401.652	-994
401.731	-355
401.810	-1341
401.888	-1201
401.967	-1329
402.046	-456
402.124	-30
402.203	-1513
402.281	260
402.360	-496
402.438	1987
402.517	459
402.596	-788
402.674	-595
402.753	-22
402.831	-458
402.910	-290
402.988	933
403.066	11185
403.145	7650
403.223	2517
403.302	8573
403.380	6445
403.459	6836
403.537	1530
403.615	-768
403.694	-1498
403.772	20
403.850	-1051
403.929	-901
404.007	-1092
404.085	23
404.164	-370
404.242	-804
404.320	864
404.398	3487
404.477	3803
404.555	13055
404.633	13409
404.711	3136
404.789	1013
404.868	-91
404.946	-1040
405.024	-917
405.102	-1007
405.180	-890
405.258	-2295
405.336	-232
405.415	-1168
405.493	-687
405.571	97
405.649	-1790
405.727	-1812
405.805	-43
405.883	-189
405.961	-883
406.039	-1331
406.117	-1726
406.195	229
406.273	132
406.351	10168
406.429	7378
406.507	2
406.585	-471
406.663	358
406.740	-507
406.818	-1140
406.896	-1231
406.974	122
407.052	-1804
407.130	4350
407.208	7415
407.285	683
407.363	-1663
407.441	-1167
407.519	-1585
407.596	-233
407.674	240
407.752	6852
407.830	6406
407.907	1780
407.985	-796
408.063	-636
408.141	-1666
408.218	20
408.296	-1454
408.373	-1132
408.451	-676
408.529	-1071
408.606	-1042
408.684	-1325
408.762	-929
408.839	-1765
408.917	-1814
408.994	-881
409.072	-1562
409.149	-364
409.227	-429
409.304	-522
409.382	26
409.459	-419
409.537	430
409.614	66
409.692	-223
409.769	-786
409.846	237
409.924	1672
410.001	-1047
410.079	-110
410.156	899
410.233	-717
410.311	-1355
410.388	-907
410.465	-399
410.543	-1033
410.620	-778
410.697	-248
410.775	-1316
410.852	-1928
410.929	-261
411.006	-200
411.083	-357
411.161	-358
411.238	557
411.315	-26
411.392	-1019
411.469	-512
411.547	-1016
411.624	-1147
411.701	-1500
411.778	-1761
411.855	-932
411.932	-1828
412.009	-916
412.086	-298
412.163	-1065
412.240	-530
412.317	-270
412.394	-933
412.471	-372
412.548	-1470
412.625	-1318
412.702	-1462
412.779	-452
412.856	-681
412.933	-1342
413.010	-981
413.087	-796
413.164	641
413.241	1613
413.318	-598
413.395	-259
413.471	-1603
413.548	-572
413.625	-328
413.702	-1886
413.779	-912
413.855	-970
413.932	-1092
414.009	-1305
414.086	-652
414.162	-1265
414.239	-836
414.316	660
414.393	3762
414.469	-389
414.546	-1231
414.623	-911
414.699	-1491
414.776	-946
414.853	-2175
414.929	-783
415.006	-864
415.082	-1375
415.159	-938
415.236	-709
415.312	-593
415.389	-558
415.465	-1376
415.542	-869
415.618	-1798
415.695	-380
415.771	-1268
415.848	-1192
415.924	-473
416.000	-881
416.077	-71
416.153	-1662
416.230	-1691
416.306	-1542
416.383	-1152
416.459	-498
416.535	-1766
416.612	-1491
416.688	-726
416.764	-1251
416.841	-1619
416.917	-988
416.993	-1340
417.069	-1037
417.146	-1727
417.222	-911
417.298	-1062
417.374	-1497
417.451	195
417.527	-1275
417.603	-1739
417.679	-750
417.755	-869
417.831	-2044
417.908	-710
417.984	-1400
418.060	-1510
418.136	-502
418.212	-536
418.288	-922
418.364	-748
418.440	-1786
418.516	-318
418.592	-1043
418.668	281
418.744	-813
418.820	523
418.896	-1662
418.972	-1685
419.048	-1861
419.124	-334
419.200	-1946
419.276	-1310
419.352	-1378
419.428	-988
419.504	-2228
419.579	-210
419.655	-1128
419.731	-950
419.807	-347
419.883	-958
419.959	-791
420.034	-560
420.110	-603
420.186	1336
420.262	1412
420.337	-703
420.413	-1028
420.489	-1446
420.565	78
420.640	-1020
420.716	-427
420.792	-1646
420.867	-146
420.943	-1649
421.019	-733
421.094	-1542
421.170	-501
421.245	-1502
421.321	-1317
421.397	-1088
421.472	682
421.548	2628
421.623	2598
421.699	753
421.774	-812
421.850	-895
421.925	-223
422.001	450
422.076	733
422.152	234
422.227	1870
422.302	3528
422.378	4504
422.453	10132
422.529	24727
422.604	61930
422.679	100406
422.755	78940
422.830	33253
422.905	13549
422.981	6340
423.056	3699
423.131	2865
423.207	1301
423.282	421
423.357	1857
423.432	239
423.508	1155
423.583	217
423.658	386
423.733	327
423.808	-149
423.883	-229
423.959	-365
424.034	-399
424.109	558
424.184	-660
424.259	-1202
424.334	-355
424.409	-1655
424.484	-790
424.559	-511
424.634	-1187
424.709	-198
424.784	-329
424.859	-931
424.934	-1105
425.009	992
425.084	1729
425.159	286
425.234	-597
425.309	-935
425.384	-39
425.459	-14
425.534	-672
425.609	-1794
425.683	-1557
425.758	-741
425.833	-202
425.908	3
425.983	-772
426.058	1879
426.132	761
426.207	-758
426.282	453
426.357	-1218
426.431	-1109
426.506	-656
426.581	-1446
426.655	-557
426.730	-1175
426.805	-1013
426.879	-834
426.954	-292
427.029	-916
427.103	967
427.178	7574
427.253	4059
427.327	-490
427.402	-587
427.476	361
427.551	-914
427.625	-392
427.700	-295
427.774	-1525
427.849	-318
427.923	-1639
427.998	-1423
428.072	-1474
428.147	375
428.221	4457
428.296	20454
428.370	12672
428.444	447
428.519	-532
428.593	1201
428.667	1510
428.742	693
428.816	2049
428.890	11431
428.965	21518
429.039	5729
429.113	2027
429.188	-28
429.262	-1594
429.336	-114
429.410	338
429.485	138
429.559	1293
429.633	532
429.707	-607
429.781	-48
429.855	10365
429.930	21000
430.004	8886
430.078	10906
430.152	11457
430.226	24339
430.300	31594
430.374	4629
430.448	861
430.522	1211
430.596	9408
430.670	7146
430.744	16265
430.818	26754
430.892	4938
430.966	-1315
431.040	-359
431.114	-1370
431.188	-2048
431.262	-1204
431.336	-1494
431.410	-35
431.484	380
431.557	605
431.631	-1807
431.705	-767
431.779	1060
431.853	16709
431.927	15671
432.000	1166
432.074	-675
432.148	-819
432.222	-684
432.295	-839
432.369	-577
432.443	-806
432.516	2147
432.590	9164
432.664	3912
432.737	-778
432.811	-1580
432.885	-971
432.958	-687
433.032	-1971
433.106	-2325
433.179	-1159
433.253	-1347
433.326	-1483
433.400	-1498
433.473	-780
433.547	-1115
433.620	-1456
433.694	-1737
433.767	-578
433.841	-1483
433.914	-1150
433.988	-1855
434.061	-516
434.134	-2003
434.208	-1703
434.281	-1529
434.355	-1481
434.428	-1099
434.501	-2041
434.575	-1346
434.648	-1549
434.721	-1433
434.795	-1696
434.868	-1727
434.941	-2022
435.014	-1596
435.088	-1143
435.161	-1157
435.234	-1048
435.307	-642
435.381	-959
435.454	-1306
435.527	-575
435.600	-338
435.673	-465
435.746	-1408
435.819	-898
435.892	-876
435.966	-1230
436.039	-895
436.112	-952
436.185	-1334
436.258	-1186
436.331	-1585
436.404	-1406
436.477	-2171
436.550	-1179
436.623	-963
436.696	-1444
436.769	-1422
436.842	-2052
436.915	-1092
436.987	-958
437.060	-695
437.133	-969
437.206	-1994
437.279	-523
437.352	-1614
437.425	-1540
437.498	-794
437.570	-480
437.643	-1190
437.716	-1602
437.789	-1593
437.861	-1169
437.934	810
438.007	-314
438.080	-1862
438.152	-1016
438.225	-932
438.298	3585
438.370	16322
438.443	7733
438.516	-263
438.588	-448
438.661	-1892
438.734	-1423
438.806	-1655
438.879	-874
438.951	-1480
439.024	-262
439.096	-1242
439.169	-1076
439.241	-1131
439.314	-1348
439.386	-1212
439.459	55
439.531	-1065
439.604	-807
439.676	-1764
439.749	-1042
439.821	-2169
439.893	-1031
439.966	-1009
440.038	-1723
440.110	-1213
440.183	-1428
440.255	-1826
440.327	-848
440.400	550
440.472	7542
440.544	6382
440.617	401
440.689	-329
440.761	-200
440.833	-588
440.905	-584
440.978	-913
441.050	-1380
441.122	-1372
441.194	-1445
441.266	-1322
441.338	-1019
441.411	-777
441.483	705
441.555	1976
441.627	-336
441.699	-247
441.771	-339
441.843	-1482
441.915	-917
441.987	-1231
442.059	-838
442.131	-1081
442.203	-131
442.275	-734
442.347	42
442.419	566
442.491	8171
442.563	30048
442.635	16164
442.706	2837
442.778	1600
442.850	-145
442.922	-1133
442.994	-581
443.066	-1149
443.137	664
443.209	-185
443.281	-509
443.353	1413
443.425	11603
443.496	48952
443.568	59101
443.640	23832
443.711	4397
443.783	660
443.855	-585
443.926	-539
443.998	-1034
444.070	-619
444.141	-1051
444.213	-610
444.285	-389
444.356	-836
444.428	-400
444.499	-1138
444.571	-936
444.642	-1290
444.714	-976
444.785	-710
444.857	-83
444.928	265
445.000	975
445.071	425
445.143	1527
445.214	1253
445.285	2202
445.357	7749
445.428	27112
445.500	77390
445.571	57999
445.642	32198
445.714	10547
445.785	4900
445.856	583
445.928	347
445.999	-337
446.070	-1163
446.141	-665
446.213	-82
446.284	-441
446.355	-1216
446.426	-668
446.497	-1125
446.569	-602
446.640	-478
446.711	-227
446.782	-504
446.853	-912
446.924	-494
446.995	-754
447.066	-540
447.138	-911
447.209	-1078
447.280	-1566
447.351	-1159
447.422	-1762
447.493	-640
447.564	-934
447.635	-932
447.706	-2015
447.777	-779
447.847	-775
447.918	-1477
447.989	-495
448.060	-552
448.131	-79
448.202	-386
448.273	-395
448.344	-898
448.414	-1177
448.485	-1005
448.556	-943
448.627	-1460
448.698	-662
448.768	-1720
448.839	-2213
448.910	-1064
448.981	-77
449.051	-1122
449.122	-1546
449.193	-1660
449.263	-1048
449.334	-1469
449.405	-984
449.475	-1542
449.546	-561
449.616	-383
449.687	-485
449.758	-365
449.828	-1508
449.899	-869
449.969	-1678
450.040	-306
450.110	-934
450.181	-1085
450.251	-1220
450.322	-607
450.392	-888
450.463	-336
450.533	-1024
450.604	-1019
450.674	-1619
450.744	-255
450.815	-1131
450.885	-805
450.955	-1667
451.026	-1198
451.096	-909
451.166	-1109
451.237	-642
451.307	2354
451.377	102
451.447	-1264
451.518	-1466
451.588	-950
451.658	-810
451.728	-1417
451.799	1649
451.869	3601
451.939	524
452.009	-838
452.079	-992
452.149	-945
452.219	-554
452.289	2515
452.360	3215
452.430	-74
452.500	-1283
452.570	-611
452.640	1043
452.710	2974
452.780	5065
452.850	2751
452.920	562
452.990	706
453.060	-261
453.129	-1174
453.199	35
453.269	3183
453.339	9284
453.409	15435
453.479	13234
453.549	20753
453.619	23368
453.688	9049
453.758	465
453.828	-813
453.898	-627
453.968	-540
454.037	-1093
454.087	-890
454.107	-813
454.168	-1062
454.177	-1103
454.247	-592
454.249	-597
454.316	-903
454.330	-867
454.386	-759
454.411	-468
454.456	23
454.492	1364
454.525	2573
454.574	818
454.595	28
454.655	-252
454.665	-286
454.734	-1761
454.736	-1734
454.804	-981
454.817	-377
454.873	2205
454.898	2690
454.943	3533
454.979	1832
455.013	309
455.060	-629
455.082	-1055
455.141	-935
455.152	-943
455.221	1004
455.222	1032
455.291	3442
455.303	3410
455.360	3322
455.384	5261
455.430	8855
455.465	7172
455.499	5541
455.546	3451
455.569	2489
455.627	1659
455.638	1494
455.707	-413
455.708	-410
455.777	-768
455.789	-759
455.846	-498
455.869	-649
455.916	-1131
455.950	-1118
455.985	-1003
456.031	-933
456.054	-960
456.112	-669
456.124	-592
456.193	-626
456.193	-631
456.262	-829
456.274	-736
456.332	-335
456.355	-481
456.401	-697
456.436	-794
456.470	-1004
456.516	-695
456.540	-468
456.597	-1240
456.609	-1422
456.678	-1113
456.678	-1116
456.747	-588
456.759	-674
456.817	-1073
456.840	-1041
456.886	-1110
456.920	-1159
456.955	-1155
457.001	-1189
457.024	-1233
457.082	-947
457.093	-884
457.162	-1179
457.163	-1175
457.232	-1073
457.243	-988
457.301	-535
457.324	-715
457.370	-1115
457.405	-553
457.439	-57
457.485	-419
457.508	-611
457.566	-379
457.577	-291
457.646	-457
457.647	-449
457.715	-236
457.727	-167
457.784	584
457.808	1407
457.853	2775
457.889	3974
457.922	4789
457.969	3417
457.991	3078
458.050	1855
458.060	1616
458.129	3883
458.130	3972
458.198	8056
458.211	7569
458.267	5008
458.292	3450
458.336	1385
458.372	995
458.405	695
458.453	851
458.474	1079
458.533	2626
458.543	2814
458.611	9457
458.614	9537
458.680	10221
458.694	8720
458.749	3582
458.775	2327
458.818	404
458.855	200
458.887	201
458.936	-68
458.955	-283
459.016	-702
459.024	-699
459.093	-22
459.097	-33
459.162	-734
459.177	-667
459.230	-316
459.257	-606
459.299	-1118
459.338	-576
459.368	23
459.418	324
459.437	247
459.499	-245
459.505	-233
459.574	184
459.579	172
459.643	-421
459.659	-446
459.711	-271
459.740	-139
459.780	-205
459.820	-169
459.849	-102
459.900	-85
459.917	-46
459.981	-364
459.986	-397
460.054	-392
460.061	-400
460.123	-739
460.141	-817
460.191	-347
460.222	-188
460.260	-459
460.302	-305
460.328	3
460.382	-80
460.397	-220
460.462	-314
460.465	-278
460.534	827
460.543	893
460.602	1734
460.623	2458
460.671	5002
460.703	9179
460.739	11729
460.783	12224
460.808	12221
460.864	4560
460.876	3156
460.944	-627
460.945	-658
461.013	-61
461.024	-24
461.081	-351
461.104	-266
461.150	366
461.184	550
461.218	230
461.264	-343
461.286	-395
461.345	-286
461.355	-314
461.423	-78
461.425	-93
461.491	-264
461.505	-109
461.559	89
461.585	-90
461.628	141
461.665	702
461.696	1073
461.745	2180
461.764	2214
461.825	868
461.832	835
461.901	33
461.905	45
461.969	-356
461.985	-367
462.037	295
462.065	453
462.105	109
462.145	-241
462.173	-169
462.225	174
462.241	222
462.305	596
462.310	622
462.378	943
462.385	873
462.446	-81
462.465	-213
462.514	-500
462.545	-662
462.582	-552
462.625	-320
462.650	-271
462.705	-149
462.718	-61
462.785	209
462.786	205
462.854	-316
462.865	-326
462.922	-209
462.945	-141
462.990	258
463.025	463
463.058	453
463.104	366
463.126	185
463.184	-388
463.194	-356
463.262	64
463.264	76
463.330	-30
463.344	-38
463.398	477
463.424	652
463.466	-62
463.504	-504
463.533	-315
463.583	-336
463.601	-339
463.663	-98
463.669	-106
463.737	-328
463.743	-321
463.805	372
463.823	555
463.873	849
463.903	982
463.940	1143
463.982	1622
464.008	1599
464.062	1054
464.076	1126
464.142	1031
464.144	985
464.211	-459
464.221	-636
464.279	81
464.301	318
464.347	67
464.381	-30
464.414	-59
464.461	49
464.482	235
464.540	339
464.550	292
464.617	32
464.620	27
464.685	411
464.699	508
464.753	736
464.779	798
464.820	620
464.859	489
464.888	499
464.938	378
464.956	527
465.018	1200
465.023	1190
465.091	1030
465.098	1015
465.158	580
465.177	428
465.226	364
465.257	253
465.293	351
465.336	577
465.361	587
465.416	607
465.428	711
465.495	1397
465.496	1400
465.563	1367
465.575	1422
465.631	1707
465.654	1904
465.698	1602
465.734	994
465.765	959
465.813	908
465.833	914
465.893	1163
465.900	1072
465.968	268
465.972	213
466.035	124
466.052	79
466.102	779
466.131	1214
466.170	895
466.210	518
466.237	813
466.290	1429
466.304	1294
466.369	592
466.372	606
466.439	1091
466.449	1157
466.506	813
466.528	650
466.573	1412
466.607	2026
466.641	2274
466.687	2659
466.708	2806
466.766	3210
466.775	3006
466.842	1504
466.845	1431
466.909	1283
466.925	1277
466.977	959
467.004	820
467.044	929
467.083	1042
467.111	1191
467.163	1471
467.178	1537
467.242	1829
467.245	1816
467.312	1578
467.321	1550
467.379	1028
467.400	837
467.446	1133
467.480	1353
467.559	1763
467.638	859
467.717	344
467.796	734
467.875	434
467.955	1322
468.034	857
468.113	2645
468.192	3442
468.271	1620
468.350	1092
468.429	-277
468.508	1713
468.588	1422
468.667	497
468.746	667
468.825	747
468.904	1454
468.983	1006
469.062	830
469.141	1599
469.220	1026
469.299	1363
469.378	863
469.456	1362
469.535	466
469.614	176
469.693	297
469.772	1134
469.851	974
469.930	1219
470.009	1330
470.088	970
470.166	32
470.245	822
470.324	801
470.403	1495
470.482	409
470.560	728
470.639	506
470.718	958
470.797	808
470.875	1308
470.954	579
471.033	816
471.111	1279
471.190	559
471.269	-266
471.347	28
471.426	668
471.505	751
471.583	515
471.662	981
471.740	39
471.819	681
471.898	400
471.976	931
472.055	336
472.133	378
472.212	1386
472.290	670
472.369	132
472.447	590
472.526	363
472.604	1229
472.683	214
472.761	957
472.839	94
472.918	1249
472.996	433
473.075	926
473.153	470
473.231	1206
473.310	390
473.388	966
473.466	855
473.545	281
473.623	1376
473.701	869
473.780	-86
473.858	-329
473.936	742
474.014	899
474.093	-97
474.171	1525
474.249	1020
474.327	434
474.405	-81
474.484	1033
474.562	448
474.640	56
474.718	1407
474.796	157
474.874	384
474.952	146
475.030	153
475.108	249
475.187	286
475.265	742
475.343	1283
475.421	1267
475.499	510
475.577	350
475.655	888
475.733	1170
475.811	1807
475.889	1704
475.966	944
476.044	-324
476.122	351
476.200	1530
476.278	301
476.356	-164
476.434	781
476.512	870
476.590	95
476.667	564
476.745	17
476.823	768
476.901	627
476.979	1474
477.056	737
477.134	304
477.212	353
477.290	860
477.367	216
477.445	43
477.523	-214
477.601	33
477.678	501
477.756	260
477.834	304
477.911	-65
477.989	126
478.066	316
478.144	-148
478.222	756
478.299	792
478.377	546
478.454	370
478.532	738
478.609	-612
478.687	512
478.764	46
478.842	52
478.919	-122
478.997	174
479.074	-183
479.152	-87
479.229	321
479.307	406
479.384	115
479.461	527
479.539	78
479.616	781
479.694	265
479.771	669
479.848	-154
479.926	-385
480.003	765
480.080	759
480.157	531
480.235	-259
480.312	13
480.389	215
480.467	507
480.544	289
480.621	409
480.698	963
480.775	-190
480.853	514
480.930	-258
481.007	214
481.084	17
481.161	301
481.238	951
481.315	427
481.392	-133
481.470	792
481.547	-290
481.624	157
481.701	263
481.778	320
481.855	121
481.932	567
482.009	849
482.086	103
482.163	183
482.240	673
482.317	1201
482.393	1571
482.470	-118
482.547	48
482.624	218
482.701	1029
482.778	232
482.855	-508
482.932	40
483.009	-585
483.085	327
483.162	-42
483.239	542
483.316	-335
483.393	952
483.469	689
483.546	-101
483.623	51
483.699	606
483.776	65
483.853	-29
483.930	1155
484.006	1285
484.083	2989
484.160	2606
484.236	3946
484.313	2050
484.389	1608
484.466	1959
484.543	1113
484.619	1652
484.696	1616
484.772	2202
484.849	2127
484.925	1196
485.002	979
485.078	1379
485.155	1366
485.231	1263
485.308	1500
485.384	920
485.461	1857
485.537	1721
485.614	2722
485.690	1393
485.766	1313
485.843	1382
485.919	1460
485.995	1098
486.072	1597
486.148	994
486.224	556
486.301	1931
486.377	1662
486.453	1020
486.530	1152
486.606	1841
486.682	1620
486.758	2007
486.835	3027
486.911	1173
486.987	2902
487.063	2763
487.139	2461
487.215	2030
487.292	2069
487.368	1067
487.444	707
487.520	1837
487.596	1074
487.672	3406
487.748	6988
487.824	11519
487.900	6141
487.976	2161
488.052	999
488.128	2219
488.204	360
488.280	1338
488.356	933
488.432	2334
488.508	2775
488.584	1480
488.660	696
488.736	283
488.812	13
488.888	1013
488.964	793
489.039	689
489.115	2536
489.191	2423
489.267	154
489.343	474
489.418	1326
489.494	534
489.570	-208
489.646	1810
489.722	1195
489.797	967
489.873	1390
489.949	2184
490.024	2203
490.100	731
490.176	982
490.251	50
490.327	821
490.403	323
490.478	758
490.554	302
490.629	655
490.705	141
490.781	808
490.856	541
490.932	246
491.007	223
491.083	258
491.158	511
491.234	791
491.309	1287
491.385	1360
491.460	274
491.536	849
491.611	48
491.686	555
491.762	370
491.837	893
491.913	1490
491.988	3247
492.063	2574
492.139	919
492.214	1042
492.289	715
492.365	404
492.440	319
492.515	173
492.590	552
492.666	-20
492.741	790
492.816	1184
492.891	-27
492.967	824
493.042	442
493.117	-518
493.192	1211
493.267	953
493.342	2638
493.418	5068
493.493	1100
493.568	-404
493.643	366
493.718	36
493.793	282
493.868	96
493.943	326
494.018	1170
494.093	222
494.168	443
494.243	-161
494.318	118
494.393	-326
494.468	375
494.543	-376
494.618	355
494.693	-239
494.768	-574
494.842	226
494.917	908
494.992	-65
495.067	428
495.142	-522
495.217	213
495.292	-101
495.366	-687
495.441	-75
495.516	429
495.591	37
495.665	1467
495.740	4489
495.815	2554
495.890	46
495.964	-535
496.039	1300
496.114	-135
496.188	177
496.263	1176
496.338	519
496.412	-387
496.487	636
496.561	762
496.636	436
496.710	-57
496.785	281
496.860	1007
496.934	274
497.009	924
497.083	-99
497.158	869
497.232	277
497.307	1171
497.381	1475
497.455	412
497.530	932
497.604	1147
497.679	1749
497.753	1552
497.827	2017
497.902	2091
497.976	2771
498.050	3895
498.125	13427
498.199	18154
498.273	4860
498.348	2418
498.422	2446
498.496	1364
498.570	1248
498.645	862
498.719	687
498.793	790
498.867	1050
498.941	1743
499.016	3717
499.090	14484
499.164	7890
499.238	487
499.312	564
499.386	719
499.460	1257
499.534	343
499.609	914
499.683	905
499.757	1351
499.831	1738
499.905	9234
499.979	11186
500.053	1605
500.127	1147
500.201	1005
500.275	43
500.349	756
500.422	273
500.496	1319
500.570	975
500.644	4270
500.718	11185
500.792	3510
500.866	1381
500.940	211
501.013	860
501.087	461
501.161	-12
501.235	478
501.309	3901
501.382	8403
501.456	9845
501.530	1412
501.603	2042
501.677	1842
501.751	-406
501.825	722
501.898	713
501.972	3830
502.046	2639
502.119	-879
502.193	738
502.266	3702
502.340	2445
502.413	908
502.487	4104
502.561	1247
502.634	-249
502.708	-3
502.781	-662
502.855	533
502.928	-521
503.002	156
503.075	258
503.149	-204
503.222	592
503.295	-190
503.369	151
503.442	-135
503.516	1366
503.589	6013
503.662	4834
503.736	1009
503.809	3259
503.882	2618
503.956	2863
504.029	3563
504.102	2685
504.175	5691
504.249	1176
504.322	1358
504.395	-354
504.468	173
504.542	-709
504.615	-561
504.688	-120
504.761	-1516
504.834	1309
504.907	-747
504.980	272
505.053	-346
505.127	-1177
505.200	585
505.273	-48
505.346	-86
505.419	-725
505.492	1103
505.565	-285
505.638	825
505.711	-936
505.784	-673
505.857	-368
505.930	-342
506.003	-1344
506.076	1482
506.149	-474
506.221	-1196
506.294	1352
506.367	-122
506.440	4249
506.513	3320
506.586	-79
506.659	-454
506.731	-1127
506.804	-920
506.877	-803
506.950	-74
507.022	-65
507.095	-604
507.168	182
507.241	89
507.313	-370
507.386	-1247
507.459	422
507.531	-835
507.604	-1284
507.677	-485
507.749	-1523
507.822	189
507.894	801
507.967	827
508.040	-148
508.112	-233
508.185	-438
508.257	-226
508.330	670
508.402	278
508.475	-568
508.547	724
508.620	428
508.692	348
508.765	471
508.837	-665
508.909	-573
508.982	-656
509.054	774
509.127	-1354
509.199	-1362
509.271	-28
509.344	-773
509.416	56
509.488	-1173
509.560	-455
509.633	-818
509.705	-1207
509.777	-700
509.849	-177
509.922	-1356
509.994	-515
510.066	65
510.138	-1501
510.210	1757
510.283	-243
510.355	-64
510.427	-482
510.499	178
510.571	496
510.643	-548
510.715	1026
510.787	-1109
510.859	1137
510.931	-398
511.003	-313
511.076	832
511.148	-631
511.219	-1263
511.291	303
511.363	758
511.435	216
511.507	-534
511.579	68
511.651	239
511.723	-204
511.795	-197
511.867	-841
511.939	-534
512.010	172
512.082	150
512.154	-619
512.226	-335
512.298	743
512.369	28
512.441	598
512.513	-299
512.585	-907
512.656	754
512.728	-318
512.800	-57
512.871	-650
512.943	56
513.015	-816
513.086	8
513.158	-493
513.230	-956
513.301	-383
513.373	-1114
513.444	-415
513.516	-345
513.588	-830
513.659	-776
513.731	-682
513.802	-1882
513.874	864
513.945	672
514.016	-140
514.088	-823
514.159	-586
514.231	135
514.302	728
514.374	367
514.445	-1629
514.516	1051
514.588	516
514.659	-511
514.730	-330
514.802	175
514.873	-686
514.944	1672
515.016	128
515.087	-523
515.158	353
515.229	1298
515.301	-466
515.372	1109
515.443	275
515.514	-165
515.585	-641
515.656	-174
515.728	93
515.799	-1196
515.870	-8
515.941	-1300
516.012	-1123
516.083	526
516.154	-682
516.225	455
516.296	832
516.367	-630
516.438	-500
516.509	-205
516.580	-170
516.651	2150
516.722	4934
516.793	4663
516.864	758
516.935	593
517.006	300
517.077	1108
517.148	2079
517.219	5272
517.289	12221
517.360	5250
517.431	2937
517.502	-774
517.573	128
517.643	-183
517.714	-805
517.785	345
517.856	-371
517.926	383
517.997	438
518.068	-372
518.138	877
518.209	885
518.280	3208
518.350	17582
518.421	8971
518.492	1532
518.562	468
518.633	697
518.703	-505
518.774	3071
518.845	5758
518.915	7374
518.986	1682
519.056	612
519.127	909
519.197	1243
519.268	4354
519.338	5040
519.408	729
519.479	-37
519.549	20
519.620	684
519.690	-389
519.760	-304
519.831	-173
519.901	-524
519.971	599
520.042	-371
520.112	-23
520.182	837
520.253	-24
520.323	150
520.393	-416
520.463	1440
520.534	-1232
520.604	2575
520.674	478
520.744	376
520.814	579
520.885	686
520.955	593
521.025	5592
521.095	3183
521.165	482
521.235	-505
521.305	-601
521.375	104
521.445	396
521.515	-594
521.585	-123
521.655	-1162
521.725	247
521.795	-326
521.865	-1736
521.935	1306
522.005	-211
522.075	5
522.145	250
522.215	-395
522.285	193
522.355	-125
522.424	297
522.494	-364
522.564	862
522.634	-184
522.704	2760
522.774	-90
522.843	-299
522.913	-593
522.983	-518
523.053	-1144
523.122	274
523.192	-1161
523.262	96
523.331	260
523.401	-681
523.471	-702
523.540	-12
523.610	-2196
523.680	95
523.749	-675
523.819	-685
523.888	-902
523.958	-511
524.027	-518
524.097	-180
524.166	-284
524.236	-1917
524.305	371
524.375	-984
524.444	-1522
524.514	751
524.583	-878
524.653	-1180
524.722	90
524.791	-1069
524.861	697
524.930	-1663
524.999	-359
525.069	13
525.138	-12
525.207	-1100
525.277	-662
525.346	-1246
525.415	-108
525.484	-207
525.554	-930
525.623	15
525.692	234
525.761	-622
525.830	-2
525.900	-1029
525.969	758
526.038	2725
526.107	2781
526.176	14611
526.245	12604
526.314	4412
526.383	6356
526.452	9962
526.522	16271
526.591	20133
526.660	2500
526.729	1094
526.797	2358
526.867	1509
526.935	11955
527.004	30990
527.073	24841
527.142	1596
527.211	170
527.280	53
527.349	436
527.418	-34
527.487	-273
527.555	-1110
527.624	-579
527.693	-1502
527.762	616
527.831	-1978
527.899	-636
527.968	-73
528.037	-1860
528.106	-116
528.174	289
528.243	476
528.312	-624
528.380	-832
528.449	-1042
528.518	439
528.586	-2205
528.655	446
528.723	11
528.792	-639
528.861	-897
528.929	-2347
528.998	579
529.066	-649
529.135	26
529.203	-844
529.272	-1693
529.340	252
529.409	1215
529.477	-1064
529.545	-1355
529.614	1549
529.682	-1367
529.751	443
529.819	1339
529.887	302
529.956	-413
530.024	498
530.092	78
530.161	1235
530.229	167
530.297	49
530.365	1886
530.434	5
530.502	-443
530.570	41
530.638	-1076
530.707	446
530.775	1417
530.843	-525
530.911	-338
530.979	-94
531.047	-436
531.115	-131
531.183	-86
531.252	933
531.320	-101
531.388	-120
531.456	1077
531.524	-1350
531.592	1023
531.660	983
531.728	588
531.796	-304
531.864	812
531.932	-179
532.000	-95
532.067	-404
532.135	718
532.203	422
532.271	65
532.339	956
532.407	1075
532.475	1256
532.542	722
532.610	1160
532.678	-795
532.746	2894
532.814	6527
532.881	1275
532.949	525
533.017	908
533.084	728
533.152	21
533.220	-145
533.287	-666
533.355	-116
533.423	-106
533.490	-238
533.558	-53
533.625	492
533.693	-86
533.761	160
533.828	921
533.896	-1266
533.963	712
534.031	819
534.098	878
534.166	586
534.233	-369
534.300	874
534.368	375
534.435	100
534.503	816
534.570	198
534.637	445
534.705	848
534.772	1299
534.840	560
534.907	5832
534.974	10499
535.041	1834
535.109	521
535.176	-47
535.243	626
535.310	-216
535.378	-703
535.445	259
535.512	-139
535.579	-17
535.646	-15
535.714	-463
535.781	371
535.848	772
535.915	748
535.982	-559
536.049	14
536.116	1444
536.183	799
536.250	-554
536.317	-1036
536.384	247
536.451	567
536.518	47
536.585	-778
536.652	719
536.719	939
536.786	-1582
536.853	-845
536.920	-142
536.987	-14
537.053	-1295
537.120	2869
537.187	3013
537.254	273
537.321	-130
537.388	1398
537.454	-1125
537.521	-1241
537.588	-1029
537.654	-319
537.721	-287
537.788	533
537.855	-599
537.921	766
537.988	-304
538.055	-90
538.121	-309
538.188	-685
538.254	-227
538.321	251
538.388	366
538.454	-725
538.521	-25
538.587	202
538.654	-494
538.720	475
538.787	388
538.853	-594
538.920	329
538.986	-218
539.053	-546
539.119	-181
539.185	-819
539.252	1551
539.318	-591
539.385	392
539.451	-1306
539.517	328
539.583	846
539.650	14
539.716	2138
539.782	563
539.849	-320
539.915	-7
539.981	-935
540.047	-359
540.114	-632
540.180	1483
540.246	-721
540.312	-425
540.378	239
540.444	1599
540.510	401
540.576	1355
540.643	46
540.709	-1252
540.775	133
540.841	-874
540.907	144
540.973	-32
541.039	-161
541.105	-103
541.171	-487
541.237	-818
541.303	183
541.369	1776
541.435	233
541.500	450
541.566	-1494
541.632	-89
541.698	-221
541.764	-176
541.830	-1183
541.896	-257
541.961	115
542.027	-405
542.093	-104
542.159	376
542.224	-825
542.290	-431
542.356	-37
542.421	420
542.487	146
542.553	-336
542.618	-224
542.684	638
542.750	-1061
542.815	370
542.881	-446
542.947	1164
543.012	2437
543.078	-91
543.143	-110
543.209	-405
543.274	-1045
543.340	-129
543.405	358
543.471	419
543.536	368
543.602	470
543.667	-1285
543.732	936
543.798	-664
543.863	-614
543.928	-464
543.994	-308
544.059	-439
544.124	129
544.190	-720
544.255	463
544.320	287
544.386	-444
544.451	724
544.516	82
544.581	179
544.646	943
544.712	2657
544.777	374
544.842	402
544.907	-317
544.972	32
545.037	903
545.102	-361
545.168	-361
545.233	303
545.298	1000
545.363	243
545.428	-323
545.493	1584
545.558	848
545.623	859
545.688	-107
545.753	539
545.818	-59
545.883	1012
545.947	-402
546.012	312
546.077	942
546.142	622
546.207	-576
546.272	408
546.337	55
546.401	621
546.466	368
546.531	163
546.596	1628
546.661	637
546.725	1436
546.790	613
546.855	1247
546.919	245
546.984	1668
547.049	439
547.113	2224
547.178	1134
547.243	2907
547.307	2530
547.372	3170
547.436	3206
547.501	2763
547.565	3351
547.630	3005
547.695	3127
547.759	3912
547.823	2686
547.888	3533
547.952	3633
548.017	3628
548.081	3650
548.146	3740
548.210	4328
548.274	3335
548.339	3400
548.403	3746
548.468	2825
548.532	3928
548.596	3561
548.660	3509
548.725	4415
548.789	3309
548.853	4462
548.917	3822
548.982	3652
549.046	4386
549.110	2661
549.174	3488
549.238	4258
549.303	4091
549.367	4278
549.431	3627
549.495	3788
549.559	3974
549.623	5151
549.687	5122
549.751	5483
549.815	5659
549.879	7567
549.943	4651
550.007	6692
550.071	5945
550.135	4892
550.199	4449
550.263	5186
550.327	5376
550.391	4666
550.455	6055
550.519	6194
550.582	6667
550.646	7085
550.710	8105
550.774	6799
550.838	7464
550.901	7210
550.965	8387
551.029	7611
551.093	9687
551.156	9594
551.220	10807
551.284	11904
551.347	9169
551.411	10480
551.475	10633
551.538	9258
551.602	8510
551.666	7664
551.729	6577
551.793	6686
551.856	6776
551.920	6093
551.983	6442
552.047	6155
552.110	6952
552.174	5917
552.237	7284
552.301	6562
552.364	6111
552.428	5932
552.491	5934
552.554	6890
552.618	6173
552.681	6278
552.745	4708
552.808	6062
552.871	6640
552.934	7116
552.998	6271
553.061	5490
553.124	6332
553.187	7009
553.251	6141
553.314	6847
553.377	6735
553.440	8988
553.503	12038
553.567	18832
553.630	9202
553.693	7009
553.756	7329
553.819	7163
553.882	6717
553.945	6766
554.008	6512
554.071	6565
554.134	6583
554.197	5548
554.260	6063
554.323	7913
554.386	6866
554.449	6161
554.512	7383
554.575	5707
554.638	6734
554.701	6164
554.764	6623
554.827	6234
554.889	5400
554.952	5814
555.015	5521
555.078	5038
555.141	6320
555.203	6258
555.266	6179
555.329	5576
555.391	5356
555.454	5113
555.517	5574
555.580	4733
555.642	5085
555.705	4589
555.768	5127
555.830	4347
555.893	4373
555.955	5744
556.018	4304
556.080	4154
556.143	4625
556.206	4301
556.268	4973
556.330	5100
556.393	4474
556.455	4395
556.518	3681
556.580	3702
556.643	4230
556.705	3953
556.767	3223
556.830	4339
556.892	2973
556.955	3098
557.017	4611
557.079	3688
557.142	2699
557.204	2789
557.266	4105
557.328	3860
557.391	2708
557.453	2652
557.515	3176
557.577	2902
557.639	3396
557.701	3954
557.764	2764
557.826	4081
557.888	4434
557.950	4333
558.012	4508
558.074	5661
558.136	9342
558.198	23246
558.260	12169
558.322	3978
558.384	4465
558.446	5478
558.508	6108
558.570	8033
558.632	9192
558.694	11470
558.756	16202
558.818	33958
558.880	87809
558.942	42749
559.003	26391
559.065	17697
559.127	7109
559.189	6874
559.251	7803
559.312	11412
559.374	20396
559.436	59424
559.498	44290
559.559	8977
559.621	7571
559.683	8257
559.744	12012
559.806	29452
559.868	53057
559.929	15469
559.991	8367
560.052	9851
560.114	25536
560.176	21483
560.237	13362
560.299	24850
560.360	8196
560.422	2887
560.483	2925
560.545	2998
560.606	2601
560.667	2632
560.729	2699
560.790	2658
560.852	2059
560.913	1796
560.974	2492
561.036	1940
561.097	2674
561.158	2342
561.220	3213
561.281	2448
561.342	2152
561.403	3071
561.465	2240
561.526	2799
561.587	5538
561.648	1705
561.709	1724
561.771	1896
561.832	1532
561.893	2395
561.954	2045
562.015	2222
562.076	2634
562.137	1422
562.198	1952
562.259	2710
562.320	2085
562.381	2116
562.442	2335
562.503	2747
562.564	2822
562.625	2193
562.686	2015
562.747	2205
562.808	2181
562.869	1854
562.930	3410
562.991	2674
563.051	3224
563.112	2367
563.173	3568
563.234	1746
563.294	2640
563.355	2237
563.416	2124
563.477	2314
563.537	2783
563.598	3025
563.659	3150
563.720	2339
563.780	2914
563.841	2659
563.901	2541
563.962	2141
564.023	2643
564.083	2748
564.144	2865
564.204	2194
564.265	2756
564.325	3484
564.386	4809
564.446	4570
564.507	2815
564.567	2343
564.628	2570
564.688	3016
564.749	2735
564.809	3069
564.869	3371
564.930	2770
564.990	3645
565.050	2405
565.111	2616
565.171	2278
565.231	2199
565.292	3420
565.352	3161
565.412	3636
565.472	2087
565.532	2358
565.593	2847
565.653	2946
565.713	2098
565.773	3683
565.833	2742
565.893	4507
565.953	2627
566.013	3098
566.074	3185
566.134	4412
566.194	4942
566.254	6224
566.314	4565
566.374	3885
566.434	4337
566.494	4386
566.554	3457
566.614	3743
566.673	4482
566.733	5346
566.793	6102
566.853	5996
566.913	5882
566.973	5786
567.033	6043
567.092	5491
567.152	6141
567.212	6044
567.272	6403
567.331	6753
567.391	6483
567.451	7000
567.511	8271
567.570	8026
567.630	6828
567.690	6566
567.749	7088
567.809	7454
567.868	8377
567.928	9507
567.988	11909
568.047	12746
568.107	15124
568.166	18059
568.226	24887
568.285	33865
568.345	33474
568.404	29870
568.464	27358
568.523	27168
568.582	26565
568.642	27425
568.701	32980
568.761	40698
568.820	54673
568.879	60102
568.939	51751
568.998	42246
569.057	33983
569.116	28841
569.176	23654
569.235	19348
569.294	17222
569.353	14220
569.413	13414
569.472	12057
569.531	10910
569.590	9916
569.649	9810
569.708	8066
569.767	9250
569.827	7581
569.886	7064
569.945	6168
570.004	7317
570.063	5864
570.122	6583
570.181	6465
570.240	6310
570.299	6292
570.358	6950
570.417	5081
570.475	6079
570.534	6150
570.593	5412
570.652	5543
570.711	4771
570.770	4864
570.829	5259
570.887	4567
570.946	4942
571.005	4563
571.064	5115
571.122	5070
571.181	4979
571.240	4725
571.299	5317
571.357	5329
571.416	4696
571.475	5787
571.533	5267
571.592	4252
571.650	5136
571.709	4918
571.768	4648
571.826	4975
571.885	4642
571.943	4315
572.002	4486
572.060	4407
572.119	4593
572.177	4465
572.236	4261
572.294	4325
572.352	5849
572.411	4755
572.469	4741
572.528	4267
572.586	4406
572.644	4155
572.703	5234
572.761	4397
572.819	4331
572.877	4449
572.936	4114
572.994	4278
573.052	5115
573.110	4776
573.169	4035
573.227	3926
573.285	4676
573.343	4212
573.401	4437
573.459	4386
573.517	4299
573.576	3915
573.634	4783
573.692	4623
573.750	4303
573.808	3919
573.866	4842
573.924	5155
573.982	5204
574.040	4248
574.098	5033
574.155	4472
574.213	4860
574.271	3092
574.329	5123
574.387	4627
574.445	4874
574.503	4862
574.560	3745
574.618	4000
574.676	4372
574.734	4531
574.792	4676
574.849	4265
574.907	4832
574.965	4273
575.022	4271
575.080	4167
575.138	4446
575.195	4555
575.253	4362
575.311	4337
575.368	4647
575.426	4233
575.483	5545
575.541	3996
575.598	4242
575.656	4078
575.713	4809
575.771	4134
575.828	4325
575.886	4787
575.943	5475
576.001	5207
576.058	4953
576.115	5088
576.173	5044
576.230	5980
576.287	4989
576.345	5772
576.402	4896
576.459	5421
576.517	5426
576.574	5344
576.631	5491
576.688	5354
576.746	4893
576.803	4944
576.860	4842
576.917	5788
576.974	4662
577.031	5565
577.089	5692
577.146	5091
577.203	5402
577.260	6189
577.317	5779
577.374	5594
577.431	5134
577.488	5596
577.545	4896
577.602	6103
577.659	6249
577.716	6201
577.773	5849
577.830	5741
577.886	6603
577.943	5843
578.000	6748
578.057	6186
578.114	6899
578.171	6404
578.227	7827
578.284	8162
578.341	8045
578.398	7122
578.454	6676
578.511	6898
578.568	7315
578.625	6329
578.681	5974
578.738	6644
578.794	6177
578.851	7554
578.908	6088
578.964	5504
579.021	6021
579.077	5549
579.134	5649
579.190	5913
579.247	6426
579.303	6064
579.360	5559
579.416	5707
579.473	5486
579.529	6100
579.586	6452
579.642	6816
579.698	6607
579.755	7462
579.811	7016
579.867	7010
579.924	7099
579.980	7416
580.036	8921
580.093	9585
580.149	10713
580.205	12304
580.261	11792
580.317	9574
580.374	9274
580.430	9099
580.486	9160
580.542	8250
580.598	8431
580.619	8361
580.654	8247
580.692	8262
580.710	8283
580.765	7090
580.767	7060
580.823	8174
580.838	8262
580.879	8520
580.911	8228
580.935	8024
580.984	7432
580.991	7362
581.047	8338
581.057	8389
581.103	8648
581.130	8771
581.159	8913
581.203	9164
581.215	9241
581.270	9972
581.276	9850
581.326	8767
581.349	8970
581.382	9274
581.422	9113
581.438	9077
581.494	9687
581.494	9677
581.550	9236
581.567	9360
581.606	9664
581.640	9592
581.661	9586
581.713	10698
581.717	10786
581.773	9324
581.786	9352
581.829	9539
581.859	9872
581.885	10145
581.932	10233
581.940	10259
581.996	10457
582.004	10446
582.052	10358
582.077	10073
582.107	9766
582.150	9989
582.163	10062
582.219	10940
582.223	10901
582.274	10578
582.296	10600
582.330	10553
582.368	10513
582.386	10579
582.441	11119
582.441	11122
582.497	10865
582.514	10726
582.552	10653
582.587	11179
582.608	11394
582.659	11846
582.663	11891
582.719	12390
582.732	12120
582.774	11303
582.805	11731
582.830	12110
582.877	12538
582.885	12610
582.941	12916
582.950	13067
582.996	13857
583.023	14326
583.052	14810
583.095	15394
583.107	15593
583.162	15491
583.168	15488
583.218	15203
583.240	14996
583.273	14698
583.313	13669
583.328	13325
583.384	13810
583.385	13774
583.439	12584
583.458	12742
583.494	13072
583.531	12708
583.549	12570
583.603	12663
583.605	12657
583.660	12417
583.676	12455
583.715	12678
583.748	12687
583.770	12711
583.820	13159
583.825	13191
583.881	12659
583.893	12598
583.936	12336
583.965	12252
583.991	12287
584.038	13199
584.046	13313
584.101	12883
584.110	12974
584.156	13498
584.183	13323
584.211	13184
584.255	13854
584.266	14031
584.321	13338
584.328	13444
584.376	14095
584.400	14128
584.431	14299
584.472	14240
584.486	14063
584.541	14104
584.545	14087
584.596	14444
584.617	14511
584.651	14469
584.689	15390
584.706	15747
584.761	15731
584.762	15739
584.816	15912
584.834	15920
584.871	16098
584.906	16602
584.926	16811
584.978	16971
584.980	16974
585.035	17400
585.051	17510
585.090	17714
585.123	18366
585.145	18874
585.195	19336
585.200	19398
585.254	20681
585.267	21147
585.309	22889
585.340	24190
585.364	25083
585.412	26368
585.419	26528
585.473	29391
585.484	29837
585.528	32893
585.556	36080
585.583	43740
585.628	61638
585.637	69921
585.692	130230
585.700	141807
585.747	196884
585.772	200224
585.801	151175
585.845	65835
585.856	55139
585.910	32062
585.917	29838
585.965	26591
585.989	25625
586.019	25038
586.061	24183
586.074	23979
586.128	23855
586.133	23792
586.183	23204
586.205	23476
586.237	23986
586.277	24193
586.292	24243
586.346	25036
586.349	25040
586.401	24502
586.421	24631
586.455	25097
586.493	25906
586.509	26642
586.564	29439
586.565	29551
586.618	35824
586.637	37287
586.672	35557
586.709	31921
586.727	30905
586.781	31193
586.781	31174
586.835	29720
586.853	29508
586.889	29506
586.925	29027
586.944	28925
586.996	29990
586.998	30003
587.052	31626
587.068	31973
587.106	32554
587.140	33452
587.161	33961
587.212	34688
587.215	34695
587.269	36404
587.284	36921
587.323	37994
587.356	38864
587.377	39464
587.427	41189
587.431	41296
587.485	43947
587.499	44667
587.539	46041
587.571	47291
587.593	48285
587.643	50849
587.648	51080
587.702	54575
587.715	55465
587.755	57838
587.786	60295
587.810	62154
587.858	66114
587.864	66468
587.917	71489
587.930	72905
587.971	77983
588.001	81959
588.025	85414
588.073	93629
588.079	94554
588.133	103485
588.145	105955
588.187	114958
588.217	122313
588.241	128635
588.288	141913
588.295	143881
588.348	163184
588.360	167637
588.402	185023
588.431	199024
588.456	212396
588.503	239026
588.510	243510
588.564	283428
588.575	292671
588.617	339286
588.646	371536
588.671	411091
588.718	487066
588.725	504435
588.778	635865
588.789	659640
588.832	770978
588.861	834454
588.886	818140
588.932	773724
588.939	755111
588.993	608724
589.004	585699
589.047	758715
589.075	879248
589.100	862726
589.147	804963
589.154	789127
589.207	635552
589.218	602444
589.261	547775
589.290	512186
589.314	516971
589.361	529478
589.368	541069
589.421	639295
589.433	658119
589.475	757598
589.504	815936
589.528	784807
589.576	712043
589.582	715373
589.635	767257
589.647	779466
589.689	730567
589.718	677325
589.742	599702
589.790	427346
589.795	416846
589.849	318490
589.861	296425
589.902	254729
589.932	225297
589.955	207746
590.004	173235
590.009	170495
590.062	145644
590.075	140104
590.115	126834
590.146	117393
590.168	112178
590.218	102023
590.222	101118
590.275	92148
590.289	90158
590.328	84518
590.360	80308
590.381	77623
590.431	72096
590.435	71624
590.488	66012
590.503	64645
590.541	61472
590.574	58935
590.594	57781
590.645	55420
590.647	55193
590.700	52165
590.716	51272
590.753	49615
590.787	48477
590.806	47484
590.859	45084
590.859	44976
590.912	43475
590.930	43129
590.965	41773
591.001	40691
591.018	40055
591.071	38308
591.072	38359
591.124	37676
591.143	37576
591.177	36580
591.214	35648
591.230	35279
591.283	34345
591.285	34358
591.336	33926
591.356	33915
591.389	33629
591.427	33222
591.442	32692
591.495	31092
591.498	31008
591.547	30531
591.569	30468
591.600	30187
591.640	29814
591.653	29563
591.706	28744
591.711	28689
591.759	29103
591.782	29434
591.811	29847
591.853	30484
591.864	30148
591.917	28539
591.924	28343
591.969	27474
591.995	27038
592.022	26833
592.066	26560
592.075	26654
592.127	27473
592.137	27663
592.180	29878
592.208	31337
592.233	29923
592.279	27261
592.285	27139
592.338	26363
592.350	26222
592.390	25842
592.421	25581
592.443	25428
592.491	25216
592.495	25124
592.548	24221
592.562	24005
592.600	24459
592.633	24913
592.653	24578
592.704	23657
592.705	23808
592.775	24685
592.846	24497
592.916	24359
592.987	24567
593.058	25063
593.128	24197
593.199	23827
593.270	23131
593.341	23626
593.411	23828
593.482	23573
593.553	24044
593.623	23754
593.694	24998
593.764	24156
593.835	24660
593.906	25096
593.976	23833
594.047	25446
594.117	27126
594.188	28990
594.258	24631
594.329	25153
594.399	24880
594.470	25781
594.540	24790
594.611	26767
594.681	25942
594.751	26263
594.822	27818
594.892	27898
594.963	28553
595.033	28789
595.103	29206
595.174	30685
595.244	34331
595.314	40231
595.384	32982
595.455	31525
595.525	32005
595.595	32253
595.665	33424
595.736	31934
595.806	32909
595.876	33076
595.946	31960
596.016	33755
596.087	34673
596.157	34830
596.227	34431
596.297	36220
596.367	36651
596.437	40837
596.507	42476
596.577	48746
596.647	41524
596.717	42671
596.787	42458
596.857	42178
596.927	42431
596.997	42893
597.067	43014
597.137	46756
597.207	45557
597.277	45784
597.347	42620
597.417	42151
597.487	41632
597.557	42599
597.626	43501
597.696	45315
597.766	46508
597.836	49632
597.906	42659
597.975	40161
598.045	40116
598.115	41086
598.185	42407
598.254	47658
598.324	51888
598.394	52831
598.464	50784
598.533	50684
598.603	47828
598.672	45748
598.742	48142
598.812	48389
598.881	48782
598.951	48201
599.020	48854
599.090	50784
599.159	51990
599.229	50488
599.299	48399
599.368	50800
599.437	50300
599.507	47416
599.576	46858
599.646	46744
599.715	47196
599.785	46171
599.854	45144
599.924	45813
599.993	44812
600.062	45161
600.132	46175
600.201	47961
600.270	53182
600.340	56808
600.409	55796
600.478	55986
600.547	56859
600.617	55435
600.686	46935
600.755	41473
600.824	40119
600.894	40545
600.963	40882
601.032	40108
601.101	41520
601.170	38775
601.239	38796
601.308	40560
601.378	40050
601.447	39732
601.516	39857
601.585	40736
601.654	42654
601.723	42504
601.792	42803
601.861	44368
601.930	47751
601.999	48605
602.068	46489
602.137	48782
602.206	49119
602.275	47995
602.343	48476
602.412	49881
602.481	47651
602.550	48960
602.619	49449
602.688	50700
602.756	50684
602.825	51745
602.894	51751
602.963	51689
603.032	53297
603.100	54215
603.169	52574
603.238	53748
603.307	52405
603.375	53103
603.444	55667
603.513	54083
603.581	54567
603.650	56994
603.719	52408
603.787	51613
603.856	52006
603.924	53817
603.993	54786
604.061	56259
604.130	59666
604.198	60622
604.267	62172
604.335	62537
604.404	61309
604.472	64070
604.541	64670
604.609	65113
604.678	65891
604.746	67130
604.815	70620
604.883	69970
604.951	68519
605.020	69927
605.088	69448
605.156	69774
605.225	69275
605.293	69515
605.361	68582
605.429	68874
605.498	70191
605.566	71882
605.634	74721
605.702	76557
605.771	78459
605.839	81414
605.907	77501
605.975	74419
606.043	74065
606.111	72897
606.180	74613
606.248	74447
606.316	74659
606.384	73658
606.452	71535
606.520	66948
606.588	68924
606.656	68738
606.724	67212
606.792	65098
606.860	57934
606.928	53626
606.996	51146
607.064	49851
607.132	51075
607.200	53315
607.267	54779
607.335	57436
607.403	57706
607.471	57005
607.539	54713
607.607	55821
607.674	48938
607.742	48665
607.810	48714
607.878	48592
607.946	49730
608.013	52848
608.081	52306
608.149	53536
608.216	53496
608.284	56531
608.352	56126
608.419	56187
608.487	58556
608.555	55222
608.622	55503
608.690	57566
608.757	63788
608.825	66668
608.893	64711
608.960	60705
609.028	60751
609.095	62520
609.163	58799
609.230	53307
609.298	46649
609.365	48373
609.432	52573
609.500	57389
609.567	64634
609.635	74775
609.702	79442
609.769	78242
609.837	64228
609.904	53130
609.971	53419
610.039	61071
610.106	80864
610.173	156237
610.241	387874
610.308	321760
610.375	103823
610.442	64216
610.509	54845
610.577	54352
610.644	54052
610.711	54755
610.778	57483
610.845	59571
610.912	63866
610.980	66845
611.047	71147
611.114	68541
611.181	62405
611.248	61173
611.315	64305
611.382	65417
611.449	68511
611.516	70812
611.583	68944
611.650	69617
611.717	71097
611.784	71553
611.851	76058
611.918	81463
611.984	96105
612.051	137874
612.118	287026
612.185	730283
612.252	666239
612.319	150144
612.386	100223
612.452	88163
612.519	84270
612.586	83834
612.653	82528
612.719	82707
612.786	79744
612.853	75321
612.919	70752
612.986	73704
613.053	69029
613.120	64787
613.186	61371
613.253	63550
613.319	62631
613.386	63333
613.453	63452
613.519	65283
613.586	64121
613.652	68695
613.719	65599
613.785	66895
613.852	66804
613.918	64411
613.985	65100
614.051	73282
614.118	88037
614.184	93888
614.250	66294
614.317	66714
614.383	63923
614.449	66123
614.516	65184
614.582	65842
614.648	64991
614.715	63056
614.781	63464
614.847	63563
614.914	63450
614.980	61685
615.046	61046
615.112	62454
615.179	63464
615.245	65333
615.311	69737
615.377	81661
615.443	93859
615.509	74007
615.575	70116
615.642	68703
615.708	71088
615.774	74336
615.840	79887
615.906	92854
615.972	116968
616.038	197966
616.104	387746
616.170	844527
616.236	984938
616.302	242677
616.368	140880
616.434	101006
616.500	86563
616.565	91629
616.631	120417
616.697	104126
616.763	97193
616.829	138526
616.895	265676
616.961	302059
617.026	132727
617.092	76447
617.158	68745
617.224	67821
617.289	62682
617.355	59341
617.421	57670
617.487	59128
617.552	54534
617.618	53174
617.684	54182
617.749	56248
617.815	51613
617.880	50985
617.946	51152
618.012	52162
618.077	53399
618.143	51420
618.208	50062
618.274	53988
618.339	56150
618.405	48081
618.470	46333
618.536	46162
618.601	47690
618.667	43853
618.732	40935
618.798	41049
618.863	40453
618.928	39975
618.994	40737
619.059	42041
619.124	43376
619.190	40925
619.255	40047
619.320	40242
619.386	41350
619.451	39320
619.516	38242
619.581	38123
619.647	40006
619.712	40926
619.777	39042
619.842	38844
619.907	39995
619.972	40247
620.038	40113
620.103	40383
620.168	38395
620.233	39920
620.298	38830
620.363	39551
620.428	40678
620.493	42331
620.558	41183
620.623	42087
620.688	42878
620.753	43499
620.818	43303
620.883	42818
620.948	42396
621.013	42704
621.078	41812
621.143	41349
621.207	45165
621.272	42795
621.337	41659
621.402	43630
621.467	43573
621.532	46521
621.596	44404
621.661	41980
621.726	39477
621.791	40351
621.855	40400
621.920	41086
621.985	42328
622.049	45492
622.114	43853
622.179	44219
622.243	43842
622.308	45021
622.373	47667
622.437	47116
622.502	43998
622.566	42616
622.631	41761
622.695	44320
622.760	42330
622.824	43610
622.889	43684
622.953	43451
623.018	47460
623.082	50686
623.147	46050
623.211	44016
623.276	44930
623.340	42428
623.404	41141
623.469	42461
623.533	41297
623.597	40424
623.662	40846
623.726	38195
623.790	35834
623.854	34885
623.919	36225
623.983	36116
624.047	36771
624.111	36545
624.176	37594
624.240	38948
624.304	39820
624.368	36754
624.432	36972
624.496	37779
624.560	40125
624.625	42719
624.689	39758
624.753	41849
624.817	39341
624.881	38186
624.945	35987
625.009	35298
625.073	34889
625.137	36221
625.201	38300
625.265	39198
625.329	37632
625.393	37319
625.456	35818
625.520	37775
625.584	39834
625.648	41886
625.712	47383
625.776	71533
625.839	84084
625.903	50788
625.967	32821
626.031	40210
626.095	57811
626.158	41721
626.222	28464
626.286	27097
626.349	25728
626.413	23490
626.477	24807
626.540	24491
626.604	24380
626.668	23810
626.731	21949
626.795	24358
626.858	24228
626.922	22432
626.986	22757
627.049	22419
627.113	23558
627.176	24022
627.240	21926
627.303	22206
627.366	22076
627.430	22123
627.493	23033
627.557	22155
627.620	22876
627.684	23077
627.747	23325
627.810	21311
627.874	21298
627.937	18988
628.000	20854
628.064	20094
628.127	17390
628.190	17391
628.253	17456
628.317	17810
628.380	16455
628.443	16112
628.506	15808
628.569	15342
628.632	14621
628.696	14965
628.759	13716
628.822	13028
628.885	13339
628.948	14204
629.011	13185
629.074	13023
629.137	13626
629.200	12576
629.263	13785
629.326	11670
629.389	12019
629.452	12295
629.515	13242
629.578	12768
629.641	13606
629.704	12629
629.767	12798
629.830	12399
629.892	11954
629.955	11592
630.018	13043
630.081	12074
630.144	13230
630.207	11430
630.269	12798
630.332	12821
630.395	12091
630.458	11947
630.520	10778
630.583	11804
630.646	11372
630.708	10459
630.771	10961
630.834	12625
630.896	11122
630.959	10634
631.021	10319
631.084	11370
631.146	11742
631.209	13648
631.272	10633
631.334	11195
631.397	11376
631.459	11153
631.522	10642
631.584	12364
631.646	13796
631.709	13756
631.771	14613
631.834	13908
631.896	13233
631.958	11458
632.021	12095
632.083	10790
632.145	11723
632.208	10790
632.270	11531
632.332	11578
632.395	9324
632.457	11047
632.519	10346
632.581	10678
632.643	9321
632.706	10834
632.768	10146
632.830	9821
632.892	9985
632.954	10127
633.016	11469
633.078	10125
633.141	10373
633.203	11045
633.265	10461
633.327	10720
633.389	9691
633.451	11342
633.513	11047
633.575	12124
633.637	11479
633.698	10528
633.760	12186
633.822	11159
633.884	11704
633.946	11269
634.008	11510
634.070	12673
634.132	14330
634.193	15815
634.255	15851
634.317	15792
634.379	16526
634.441	13495
634.502	12410
634.564	12845
634.626	11170
634.687	11114
634.749	10368
634.811	10162
634.873	8721
634.934	10094
634.996	10205
635.057	9480
635.119	9956
635.181	10725
635.242	10894
635.304	9268
635.365	11125
635.427	10206
635.488	10711
635.550	10440
635.611	10416
635.673	8673
635.734	11957
635.796	11473
635.857	13088
635.918	12678
635.980	15431
636.041	15769
636.102	16823
636.164	16885
636.225	16579
636.286	14127
636.348	13235
636.409	11774
636.470	9748
636.531	9675
636.593	9994
636.654	10275
636.715	9448
636.776	7949
636.838	8883
636.899	9302
636.960	8430
637.021	8177
637.082	7573
637.143	8300
637.204	7423
637.265	7652
637.326	9060
637.387	8192
637.448	7785
637.509	9219
637.570	7820
637.631	8095
637.692	7938
637.753	7044
637.814	7425
637.875	7563
637.936	9006
637.997	7716
638.058	7035
638.119	8674
638.179	7410
638.240	7029
638.301	8293
638.362	6875
638.423	7557
638.483	8121
638.544	5898
638.605	7630
638.666	6148
638.726	7828
638.787	7273
638.848	7582
638.908	6664
638.969	6619
639.030	6885
639.090	6543
639.151	6586
639.211	7212
639.272	7694
639.332	9280
639.393	8688
639.453	6699
639.514	8136
639.574	7303
639.635	6323
639.695	6120
639.756	5272
639.816	6683
639.877	5683
639.937	8442
639.997	9313
640.058	6767
640.118	5459
640.178	7597
640.239	5648
640.299	6761
640.359	5359
640.420	7000
640.480	8029
640.540	7586
640.600	8689
640.661	8243
640.721	6528
640.781	9792
640.841	9074
640.901	7832
640.961	6788
641.021	7233
641.082	6675
641.142	7691
641.202	7015
641.262	4677
641.322	6252
641.382	5675
641.442	5683
641.502	5977
641.562	7369
641.622	6043
641.682	7018
641.742	7541
641.802	7530
641.861	6462
641.921	5925
641.981	6143
642.041	6118
642.101	6272
642.161	4519
642.221	5341
642.280	6028
642.340	5100
642.400	5527
642.460	5926
642.519	5242
642.579	5699
642.639	5741
642.698	4017
642.758	7704
642.818	5784
642.877	4396
642.937	5433
642.997	5829
643.056	7113
643.116	4985
643.175	6751
643.235	6006
643.294	6852
643.354	7262
643.414	7876
643.473	9334
643.532	11568
643.592	15310
643.651	24848
643.711	46180
643.770	90185
643.830	209694
643.889	556449
643.948	211315
644.008	27668
644.067	14559
644.126	9568
644.186	8327
644.245	8028
644.304	5905
644.363	7780
644.423	5342
644.482	6177
644.541	6283
644.600	5514
644.659	9595
644.719	10145
644.778	16168
644.837	27295
644.896	56698
644.955	155303
645.014	78980
645.073	13522
645.132	8102
645.191	7740
645.250	6420
645.309	8203
645.368	6900
645.427	9808
645.486	14547
645.545	33188
645.604	12789
645.663	5900
645.722	6378
645.781	7281
645.840	7623
645.898	9835
645.957	14314
646.016	21909
646.075	44008
646.134	89029
646.192	217017
646.251	457864
646.310	98235
646.369	17999
646.427	13281
646.486	8991
646.545	8000
646.603	7358
646.662	6118
646.721	6285
646.779	4276
646.838	5131
646.896	7341
646.955	10298
647.014	17376
647.072	30947
647.131	89937
647.189	70882
647.248	8233
647.306	6409
647.365	5389
647.423	3630
647.481	5686
647.540	3259
647.598	4640
647.657	3987
647.715	4539
647.773	3065
647.832	4341
647.890	3764
647.948	3497
648.007	4506
648.065	3020
648.123	2836
648.181	4940
648.240	4475
648.298	5391
648.356	3963
648.414	4233
648.472	4397
648.531	3782
648.589	3197
648.647	3003
648.705	4014
648.763	3581
648.821	3329
648.879	3300
648.937	4502
648.995	5576
649.053	6710
649.111	10420
649.169	19992
649.227	36844
649.285	72980
649.343	234258
649.401	180864
649.459	22502
649.516	13790
649.574	8965
649.632	14626
649.690	21878
649.748	12531
649.806	14869
649.863	28699
649.921	61798
649.979	63785
650.037	9542
650.094	3487
650.152	3972
650.210	2566
650.268	3645
650.325	4397
650.383	4962
650.440	2749
650.498	3284
650.556	2195
650.613	2538
650.671	2963
650.728	3228
650.786	3853
650.843	3981
650.901	2695
650.958	3200
651.016	2301
651.073	2209
651.131	2218
651.188	1469
651.246	2921
651.303	1393
651.360	2802
651.418	1841
651.475	2287
651.532	1466
651.590	2380
651.647	1434
651.704	2381
651.762	2809
651.819	3078
651.876	1659
651.933	1800
651.990	3513
652.048	600
652.105	1914
652.162	2500
652.219	1715
652.276	2391
652.333	2624
652.390	327
652.448	2034
652.505	1663
652.562	1871
652.619	2140
652.676	2972
652.733	6101
652.790	2102
652.847	1120
652.904	1571
652.961	436
653.017	933
653.074	2171
653.131	1600
653.188	628
653.245	2477
653.302	1556
653.359	884
653.415	2708
653.472	931
653.529	1336
653.586	1544
653.642	1565
653.699	2179
653.756	1104
653.813	1440
653.869	2725
653.926	395
653.983	1251
654.039	2016
654.096	2243
654.152	2218
654.209	1099
654.266	2443
654.322	1145
654.379	2208
654.435	2032
654.492	1990
654.548	2573
654.605	4006
654.661	3598
654.717	2119
654.774	2795
654.830	2129
654.887	1493
654.943	1437
655.000	2085
655.056	1403
655.112	2275
655.168	895
655.225	1718
655.281	2491
655.337	2961
655.394	4377
655.450	4064
655.506	2690
655.562	4404
655.618	5189
655.675	744
655.731	1465
655.787	1306
655.843	2018
655.899	1325
655.955	1902
656.011	1626
656.067	788
656.123	1953
656.179	1304
656.235	3060
656.291	412
656.347	2273
656.403	-174
656.459	1424
656.515	2008
656.571	2153
656.627	1413
656.683	1346
656.739	2163
656.795	1050
656.850	1897
656.906	2319
656.962	2475
657.018	1098
657.074	2036
657.129	2379
657.185	4312
657.241	8515
657.297	5305
657.352	2522
657.408	852
657.464	2941
657.519	907
657.575	1318
657.630	844
657.686	1343
657.742	387
657.797	644
657.853	1807
657.908	2345
657.964	672
658.019	1636
658.075	1729
658.130	2247
658.186	571
658.241	2224
658.297	779
658.352	1427
658.407	1700
658.463	1324
658.518	1606
658.573	937
658.629	957
658.684	1391
658.739	1309
658.795	1
658.850	1485
658.905	833
658.960	1117
659.016	775
659.071	1298
659.126	1273
659.181	1466
659.236	2634
659.291	3254
659.346	2120
659.401	2411
659.457	2950
659.512	3258
659.567	3483
659.622	1028
659.677	1062
659.732	423
659.787	1410
659.842	757
659.897	2824
659.952	2182
660.007	1297
660.061	1770
660.116	227
660.171	510
660.226	1385
660.281	1075
660.336	897
660.391	2069
660.445	437
660.500	1471
660.555	717
660.610	673
660.664	1379
660.719	546
660.774	1445
660.828	1094
660.883	1445
660.938	1730
660.992	753
661.047	1767
661.101	1042
661.156	658
661.211	959
661.265	1038
661.320	1950
661.374	981
661.429	952
661.483	1616
661.538	290
661.592	960
661.647	1429
661.701	2422
661.755	1705
661.810	1702
661.864	1175
661.919	839
661.973	1229
662.027	573
662.081	390
662.136	681
662.190	726
662.244	1496
662.299	881
662.353	1761
662.407	745
662.461	916
662.515	1655
662.569	758
662.624	1099
662.678	1242
662.732	-64
662.786	1042
662.840	1188
662.894	1638
662.948	1210
663.002	1359
663.056	896
663.110	-316
663.164	894
663.218	794
663.272	1068
663.326	1186
663.380	1042
663.434	1160
663.488	1039
663.542	1053
663.595	1002
663.649	613
663.703	1551
663.757	525
663.811	840
663.864	851
663.918	1137
663.972	665
664.026	1517
664.079	1434
664.133	2043
664.187	1307
664.240	817
664.294	742
664.348	1578
664.401	1140
664.455	1441
664.508	442
664.562	1177
664.615	934
664.669	518
664.722	1577
664.776	649
664.829	-252
664.883	1557
664.936	597
664.990	910
665.043	1648
665.097	1081
665.150	2225
665.203	1331
665.257	1141
665.310	1183
665.363	838
665.417	1786
665.470	893
665.523	1360
665.576	1731
665.630	1218
665.683	852
665.736	1416
665.789	1831
665.842	1297
665.895	780
665.949	1648
666.002	230
666.055	1299
666.108	844
666.161	727
666.214	1143
666.267	1089
666.320	1363
666.373	2244
666.426	1250
666.479	641
666.532	1595
666.585	820
666.638	2038
666.691	2185
666.744	1997
666.796	1980
666.849	1370
666.902	1910
666.955	2015
667.008	834
667.060	594
667.113	852
667.166	545
667.219	772
667.271	1120
667.324	1116
667.377	1178
667.430	592
667.482	1774
667.535	988
667.587	1641
667.640	1315
667.693	777
667.745	2293
667.798	2511
667.850	1243
667.903	1085
667.955	1045
668.008	871
668.060	2258
668.113	1105
668.165	1799
668.218	1704
668.270	1478
668.322	1103
668.375	1213
668.427	1728
668.479	1358
668.532	942
668.584	1291
668.636	1032
668.689	1847
668.741	1021
668.793	1364
668.845	1075
668.898	1511
668.950	1068
669.002	1069
669.054	638
669.106	-149
669.158	1998
669.211	1434
669.263	1344
669.315	2317
669.367	1870
669.419	1020
669.471	1638
669.523	1450
669.575	2794
669.627	2100
669.679	1173
669.731	842
669.783	1822
669.835	1998
669.886	1470
669.938	1631
669.990	1296
670.042	611
670.094	1354
670.146	1137
670.197	1749
670.249	2688
670.301	2395
670.353	3773
670.404	4609
670.456	8026
670.508	11046
670.560	21285
670.611	37241
670.663	67639
670.715	145494
670.766	298073
670.818	115133
670.869	16803
670.921	7552
670.972	4850
671.024	4048
671.075	3316
671.127	2706
671.178	1578
671.230	2353
671.281	2072
671.333	1456
671.384	1719
671.436	3494
671.487	3829
671.538	4019
671.590	7358
671.641	11437
671.692	19833
671.744	39231
671.795	36338
671.846	11915
671.897	4435
671.949	3108
672.000	2418
672.051	2325
672.102	1814
672.153	1115
672.204	1913
672.256	2310
672.307	1207
672.358	1591
672.409	931
672.460	1720
672.511	483
672.562	446
672.613	1636
672.664	670
672.715	1291
672.766	594
672.817	799
672.868	1103
672.919	376
672.970	1150
673.021	1305
673.071	710
673.122	610
673.173	870
673.224	931
673.275	927
673.326	1235
673.376	692
673.427	487
673.478	664
673.528	1326
673.579	837
673.630	537
673.680	1159
673.731	1587
673.782	991
673.832	1146
673.883	396
673.934	260
673.984	1276
674.035	1067
674.085	169
674.136	1137
674.186	624
674.237	2161
674.287	1597
674.338	2330
674.388	347
674.438	200
674.489	317
674.539	1265
674.589	493
674.640	1205
674.690	832
674.740	792
674.791	1293
674.841	1407
674.891	1406
674.942	1672
674.992	401
675.042	-338
675.092	650
675.142	940
675.193	841
675.243	540
675.293	1401
675.343	613
675.393	426
675.443	1377
675.493	572
675.543	606
675.593	423
675.643	751
675.693	367
675.743	595
675.793	1331
675.843	328
675.893	790
675.943	1522
675.993	168
676.043	-120
676.093	1494
676.142	841
676.192	628
676.242	986
676.292	121
676.341	173
676.391	619
676.441	541
676.491	452
676.540	591
676.590	989
676.640	275
676.689	236
676.739	20
676.789	403
676.838	121
676.888	414
676.937	158
676.987	367
677.037	662
677.086	-914
677.136	555
677.185	348
677.235	-358
677.284	-316
677.333	-161
677.383	-938
677.432	718
677.482	193
677.531	439
677.580	65
677.630	673
677.679	438
677.728	-12
677.778	41
677.827	436
677.876	206
677.925	-74
677.975	-334
678.024	740
678.073	26
678.122	475
678.171	494
678.220	309
678.269	478
678.319	865
678.368	337
678.417	282
678.466	916
678.515	797
678.564	612
678.613	452
678.662	-53
678.711	427
678.760	385
678.809	-344
678.857	384
678.906	713
678.955	448
679.004	806
679.053	536
679.102	-25
679.151	-102
679.199	330
679.248	-242
679.297	208
679.346	-175
679.394	156
679.443	-208
679.492	813
679.540	-275
679.589	-453
679.638	-436
679.686	1
679.735	564
679.784	200
679.832	191
679.881	218
679.929	-99
679.978	67
680.026	270
680.075	-117
680.123	-339
680.172	-222
680.220	386
680.268	-767
680.317	-531
680.365	61
680.414	-209
680.462	115
680.510	894
680.559	-107
680.607	-61
680.655	-174
680.703	583
680.752	-229
680.800	-313
680.848	-389
680.896	38
680.945	487
680.993	-843
681.041	111
681.089	76
681.137	645
681.185	-348
681.233	-39
681.258	149
681.281	297
681.329	31
681.377	60
681.380	124
681.425	717
681.473	174
681.502	347
681.521	410
681.569	651
681.617	767
681.624	771
681.665	546
681.713	781
681.745	678
681.761	586
681.809	233
681.857	1409
681.867	1215
681.904	411
681.952	1024
681.989	719
682.000	591
682.048	391
682.096	1039
682.111	1222
682.143	1531
682.191	1773
682.233	1784
682.239	1755
682.286	737
682.334	766
682.354	783
682.382	737
682.430	1325
682.476	1309
682.477	1283
682.525	836
682.572	1356
682.598	1467
682.620	1517
682.667	1399
682.715	2413
682.720	2404
682.763	2035
682.810	2034
682.841	1544
682.857	1231
682.905	1499
682.952	1622
682.963	1699
683.000	1929
683.047	2280
683.085	2588
683.095	2620
683.142	2409
683.190	2291
683.206	2173
683.237	1951
683.284	1752
683.328	2977
683.332	3049
683.379	2984
683.426	2370
683.449	2255
683.473	2123
683.521	2830
683.568	3068
683.571	3058
683.615	2568
683.662	2834
683.693	2724
683.709	2639
683.757	2610
683.804	3186
683.814	3130
683.851	2817
683.898	3223
683.936	3135
683.945	3109
683.992	3498
684.039	3478
684.057	3402
684.086	3240
684.133	4193
684.179	3842
684.180	3808
684.227	4218
684.274	4188
684.300	4000
684.321	3800
684.368	4094
684.415	4106
684.422	4195
684.462	4744
684.509	4310
684.543	4661
684.556	4742
684.603	3845
684.649	4643
684.665	4548
684.696	4350
684.743	4476
684.786	4434
684.790	4421
684.837	4658
684.883	5340
684.908	5366
684.930	5350
684.977	4843
685.023	5341
685.029	5315
685.070	4865
685.117	5244
685.150	5018
685.164	4936
685.210	5212
685.257	5508
685.272	5618
685.303	5759
685.350	5767
685.393	5487
685.396	5455
685.443	5633
685.490	5715
685.514	5628
685.536	5545
685.583	5702
685.629	5903
685.636	5891
685.675	5607
685.722	5304
685.757	5371
685.768	5453
685.815	5455
685.861	5671
685.878	5897
685.908	6189
685.954	5699
686.000	6484
686.000	6489
686.047	6427
686.093	6670
686.121	6940
686.139	7047
686.185	6237
686.232	6339
686.242	6314
686.278	6251
686.324	6526
686.363	6296
686.370	6239
686.416	6861
686.463	6658
686.484	6686
686.509	6828
686.555	6660
686.601	6657
686.606	6760
686.647	7496
686.693	7380
686.727	6866
686.739	6630
686.785	7277
686.831	6700
686.848	6771
686.877	7041
686.923	7411
686.969	7135
686.969	7131
687.015	6830
687.061	7266
687.090	7388
687.107	7469
687.153	7744
687.199	7148
687.211	7248
687.245	7466
687.291	7446
687.332	7364
687.336	7371
687.382	7766
687.428	7291
687.453	7557
687.474	7723
687.520	7956
687.565	8604
687.574	8404
687.611	7681
687.657	8097
687.695	8623
687.702	8809
687.748	9515
687.794	10346
687.816	10400
687.839	9877
687.885	9251
687.931	8784
687.937	8809
687.976	9145
688.022	8145
688.058	8486
688.067	8620
688.113	8191
688.158	8115
688.179	8072
688.204	8123
688.249	8315
688.295	8000
688.300	8053
688.340	8670
688.386	8703
688.421	9233
688.431	9303
688.477	9007
688.522	9291
688.542	9350
688.567	9584
688.613	9396
688.658	9853
688.663	9848
688.703	9513
688.749	9344
688.784	9042
688.794	9027
688.839	9324
688.884	9313
688.905	9304
688.930	9155
688.975	9160
689.020	8579
689.026	8505
689.065	8686
689.110	9452
689.146	9947
689.155	9974
689.201	9655
689.246	10011
689.267	9678
689.291	9376
689.336	9988
689.381	9692
689.388	9687
689.426	9725
689.471	9770
689.509	9698
689.516	9700
689.561	9485
689.606	9627
689.630	9624
689.651	9725
689.696	9685
689.741	10078
689.750	10154
689.785	10329
689.830	9998
689.871	9908
689.875	9911
689.920	9632
689.965	9858
689.992	9642
690.010	9635
690.054	10237
690.099	10026
690.112	10096
690.144	9993
690.189	9825
690.233	9375
690.233	9390
690.278	9515
690.323	10512
690.354	10559
690.367	10512
690.412	10728
690.457	10564
690.474	10742
690.501	11158
690.546	11300
690.590	11325
690.595	11336
690.635	11336
690.680	11328
690.716	11130
690.724	11292
690.769	12645
690.813	13902
690.836	14228
690.857	15097
690.902	16964
690.946	19361
690.957	19803
690.991	24935
691.035	32155
691.077	38887
691.080	39082
691.124	41062
691.168	42779
691.198	43874
691.213	41031
691.257	32752
691.301	24210
691.318	20980
691.346	19644
691.390	17194
691.434	14865
691.439	14542
691.478	13706
691.522	13279
691.559	12632
691.567	12649
691.611	12755
691.655	12431
691.680	12392
691.699	12416
691.743	12365
691.787	12406
691.800	12339
691.831	12267
691.875	12392
691.919	12006
691.921	11987
691.964	12438
692.008	12758
692.041	12914
692.052	12921
692.096	12713
692.139	12491
692.162	12461
692.183	12495
692.227	12563
692.271	12617
692.282	12545
692.315	12390
692.359	12189
692.402	12324
692.403	12351
692.447	11986
692.490	12324
692.523	12372
692.534	12373
692.578	12412
692.622	12530
692.643	12265
692.666	12208
692.709	12670
692.753	12867
692.763	12970
692.797	13199
692.840	12755
692.884	12960
692.884	12991
692.928	12856
692.971	13163
693.004	13176
693.015	13220
693.059	13297
693.102	13167
693.124	13158
693.146	13262
693.189	13336
693.233	13848
693.245	13851
693.276	14208
693.320	14940
693.363	14993
693.365	14982
693.407	16143
693.450	17325
693.485	17947
693.493	18257
693.537	20107
693.580	21489
693.605	22382
693.624	24631
693.667	30025
693.710	35194
693.725	37023
693.753	47941
693.797	64908
693.840	82059
693.845	83939
693.883	87098
693.926	90033
693.966	93209
693.970	91476
694.013	71139
694.056	50785
694.086	36540
694.099	34856
694.142	29482
694.185	24185
694.206	21400
694.229	20524
694.272	19286
694.315	17719
694.326	17308
694.358	16878
694.401	16173
694.444	15554
694.446	15474
694.487	15059
694.530	14853
694.566	14658
694.573	14691
694.616	14397
694.659	14232
694.686	14133
694.702	14111
694.745	13899
694.787	13838
694.806	13658
694.830	13735
694.873	13915
694.916	14250
694.926	14269
694.959	14140
695.002	13827
695.044	13760
695.046	13712
695.087	13885
695.130	14018
695.166	14249
695.172	14238
695.215	13729
695.258	13373
695.286	13107
695.301	13314
695.343	13764
695.386	14281
695.406	14413
695.428	14386
695.471	14521
695.514	14347
695.526	14322
695.556	14772
695.599	15308
695.641	15785
695.646	15797
695.684	15359
695.726	14974
695.766	14478
695.769	14527
695.811	14442
695.854	14733
695.886	14848
695.896	14844
695.938	14573
695.981	14380
696.005	14182
696.023	14373
696.065	14803
696.108	15279
696.125	15382
696.150	15608
696.192	16021
696.235	16431
696.245	16493
696.277	16473
696.319	16339
696.361	16084
696.365	16042
696.404	16217
696.446	16099
696.485	16116
696.488	16175
696.530	16253
696.572	16420
696.604	16463
696.614	16427
696.656	16189
696.698	15808
696.724	15596
696.740	15720
696.783	15866
696.825	16059
696.844	16086
696.867	16009
696.909	15860
696.951	15571
696.964	15490
696.992	15615
697.034	15577
697.076	15625
697.083	15583
697.118	15645
697.160	15806
697.202	15791
697.203	15747
697.244	15697
697.286	15724
697.323	15616
697.327	15672
697.369	15796
697.411	15915
697.442	16008
697.453	16126
697.494	16346
697.536	16584
697.562	16790
697.578	16757
697.620	16308
697.661	15928
697.682	15692
697.703	15786
697.744	15997
697.786	16108
697.801	16114
697.828	16304
697.869	16507
697.911	16718
697.921	16720
697.952	16709
697.994	16676
698.035	16574
698.040	16517
698.077	16436
698.118	16373
698.160	16190
698.160	16143
698.201	16154
698.243	16135
698.279	16058
698.284	16099
698.325	16093
698.367	16060
698.399	15962
698.408	16050
698.449	16240
698.491	16476
698.518	16566
698.532	16709
698.573	17030
698.614	17322
698.638	17449
698.656	17546
698.697	17647
698.738	17768
698.757	17776
698.779	17806
698.820	17752
698.862	17696
698.877	17630
698.903	17722
698.944	17785
698.985	17851
698.996	17820
699.026	17813
699.067	17737
699.116	17598
699.235	19034
699.354	17791
699.474	17624
699.593	17452
699.713	18100
699.832	17155
699.951	17379
700.070	17303
700.190	16369
700.309	16336
700.428	16275
700.547	15682
700.667	15662
700.786	16467
700.905	15568
701.024	15116
701.143	15561
701.262	15444
701.381	15857
701.500	15922
701.619	16061
701.738	15733
701.857	15720
701.976	14877
702.095	14741
702.214	16130
702.333	14928
702.452	14219
702.571	15380
702.690	15935
702.809	15645
702.928	14703
703.047	14481
703.165	14105
703.284	14027
703.403	14268
703.522	15519
703.640	15142
703.759	14787
703.878	16366
703.997	15236
704.115	13647
704.234	14540
704.353	14156
704.471	12867
704.590	13480
704.708	13331
704.827	13564
704.946	13316
705.064	14090
705.183	13397
705.301	14493
705.420	18641
705.538	17549
705.656	16295
705.775	16106
705.893	24271
706.012	35793
706.130	17297
706.249	16987
706.367	15840
706.485	15707
706.604	15859
706.722	15348
706.840	17341
706.958	20516
707.077	19125
707.195	14024
707.313	14082
707.431	14661
707.549	14357
707.668	14297
707.786	14944
707.904	14383
708.022	13746
708.140	13568
708.258	13811
708.376	14361
708.494	12929
708.612	14634
708.730	18390
708.848	17872
708.966	16414
709.084	16196
709.202	15713
709.320	15366
709.438	15925
709.556	14685
709.674	15908
709.791	14917
709.909	14767
710.027	14654
710.145	15458
710.263	15133
710.380	14906
710.498	14530
710.616	14428
710.733	13770
710.851	15085
710.969	14789
711.086	14256
711.204	14107
711.322	14106
711.439	13531
711.557	13467
711.674	14812
711.792	14622
711.909	14400
712.027	15590
712.144	13078
712.262	13395
712.379	13992
712.497	18567
712.614	19512
712.732	16710
712.849	15148
712.966	15739
713.084	16830
713.201	17150
713.318	15342
713.436	15772
713.553	16343
713.670	15797
713.787	16722
713.905	16920
714.022	16457
714.139	15951
714.256	17594
714.373	21670
714.490	31217
714.608	59469
714.725	240294
714.842	405194
714.959	43862
715.076	19624
715.193	15975
715.310	17149
715.427	14275
715.544	14058
715.661	14696
715.778	13595
715.895	14023
716.011	14475
716.128	14453
716.245	13732
716.362	14240
716.479	14110
716.596	13920
716.713	13788
716.829	13002
716.946	13756
717.063	11994
717.180	12040
717.296	12120
717.413	13034
717.530	11693
717.646	12137
717.763	12075
717.880	12348
717.996	11895
718.113	12938
718.229	11735
718.346	10935
718.462	10427
718.579	11712
718.695	13770
718.812	13220
718.928	13081
719.045	12530
719.161	10854
719.277	11861
719.394	11764
719.510	12681
719.626	12274
719.743	14777
719.859	15806
719.975	25397
720.092	72663
720.208	225858
720.324	48579
720.440	14874
720.557	12800
720.673	13648
720.789	15619
720.905	24153
721.021	16333
721.137	11076
721.253	11231
721.369	10980
721.486	12029
721.602	13151
721.718	10964
721.834	10047
721.950	9900
722.066	9594
722.181	9591
722.297	9860
722.413	9733
722.529	10238
722.645	9720
722.761	9975
722.877	9714
722.993	9682
723.108	10210
723.224	9908
723.340	9947
723.456	9216
723.571	9361
723.687	9398
723.803	8904
723.918	8538
724.034	8923
724.150	9075
724.265	8934
724.381	11815
724.497	15695
724.612	9687
724.728	8228
724.843	8789
724.959	7993
725.074	10866
725.190	14376
725.305	9809
725.421	8186
725.536	8485
725.651	7979
725.767	8499
725.882	7855
725.997	7939
726.113	8095
726.228	7836
726.343	7642
726.459	7582
726.574	7729
726.689	7946
726.804	7752
726.920	7889
727.035	8236
727.150	7758
727.265	7813
727.380	8589
727.495	7536
727.610	7007
727.725	7881
727.841	8967
727.956	14032
728.071	14414
728.186	8096
728.301	7304
728.416	7148
728.531	7395
728.645	6820
728.760	6846
728.875	6439
728.990	7676
729.105	7725
729.220	7425
729.335	6950
729.449	8135
729.564	5992
729.679	6401
729.794	6480
729.908	7414
730.023	7008
730.138	7257
730.253	7242
730.367	7416
730.482	6629
730.596	6758
730.711	7179
730.826	7639
730.940	8494
731.055	8722
731.169	6570
731.284	7273
731.398	6816
731.513	7217
731.627	8009
731.742	8671
731.856	9070
731.970	8391
732.085	10001
732.199	11376
732.313	16479
732.428	35901
732.542	102183
732.656	86936
732.771	19396
732.885	10913
732.999	9180
733.113	9385
733.227	9225
733.342	8635
733.456	7596
733.570	8146
733.684	7877
733.798	7898
733.912	6736
734.026	7884
734.140	6682
734.254	7398
734.368	8641
734.482	11289
734.596	7472
734.710	7439
734.824	7504
734.938	7525
735.052	7411
735.166	7198
735.280	7437
735.393	7095
735.507	6550
735.621	7312
735.735	9986
735.849	7820
735.962	7197
736.076	6636
736.190	7344
736.303	7651
736.417	9274
736.531	6490
736.644	6794
736.758	6771
736.872	6379
736.985	6082
737.099	6946
737.212	5807
737.326	6003
737.439	6328
737.553	6662
737.666	6181
737.780	5874
737.893	6281
738.007	6734
738.120	7404
738.233	5095
738.347	7119
738.460	6107
738.573	6751
738.687	6040
738.800	6039
738.913	6164
739.026	6789
739.140	6061
739.253	6976
739.366	5737
739.479	5811
739.592	6045
739.705	5521
739.818	5661
739.932	6079
740.045	5145
740.158	6365
740.271	5344
740.384	6172
740.497	5833
740.610	6235
740.723	5976
740.836	6070
740.949	5907
741.062	6355
741.174	6409
741.287	6251
741.400	5461
741.513	5516
741.626	5466
741.739	6181
741.851	5046
741.964	5333
742.077	5099
742.189	5375
742.302	5680
742.415	5883
742.527	5026
742.640	5945
742.753	4983
742.865	5428
742.978	4606
743.090	5666
743.203	5748
743.316	5994
743.428	5128
743.541	4874
743.653	4701
743.766	4719
743.878	5136
743.990	5708
744.103	6191
744.215	5291
744.327	4862
744.440	5594
744.552	5462
744.664	4784
744.777	4559
744.889	4501
745.001	4831
745.113	4116
745.226	4672
745.338	5149
745.450	4625
745.562	4530
745.674	5056
745.786	4869
745.898	4498
746.010	4905
746.122	4805
746.234	5340
746.347	4538
746.459	5324
746.570	3458
746.682	4786
746.794	4456
746.906	4306
747.018	4681
747.130	4747
747.242	4665
747.354	4562
747.466	5273
747.577	4830
747.689	4291
747.801	4457
747.913	4171
748.024	4821
748.136	3747
748.248	4177
748.359	4206
748.471	5128
748.583	4776
748.694	4257
748.806	6305
748.918	5602
749.029	5182
749.141	5499
749.252	5086
749.364	4745
749.475	5417
749.587	5510
749.698	3931
749.809	5268
749.921	4456
750.032	4038
750.144	4313
750.255	4647
750.366	4331
750.478	5087
750.589	3848
750.700	4679
750.811	4553
750.923	4836
751.034	5235
751.145	5848
751.256	5081
751.367	5279
751.479	4517
751.590	4467
751.701	3252
751.812	5000
751.923	4628
752.034	4287
752.145	4850
752.256	4510
752.367	4154
752.478	4728
752.589	4905
752.700	4128
752.811	4485
752.922	4469
753.032	3725
753.143	5239
753.254	4404
753.365	4429
753.476	3814
753.586	4284
753.697	4565
753.808	4677
753.919	3857
754.029	4029
754.140	3675
754.251	4484
754.361	4109
754.472	4618
754.582	4352
754.693	4035
754.804	4437
754.914	4923
755.025	3795
755.135	4369
755.246	4819
755.356	3693
755.466	3455
755.577	4481
755.687	4489
755.798	3585
755.908	3969
756.018	4845
756.129	3992
756.239	4818
756.349	5249
756.460	4773
756.570	5056
756.680	4662
756.790	4856
756.900	4838
757.011	4130
757.121	4357
757.231	4485
757.341	4672
757.451	3836
757.561	4217
757.671	4314
757.781	4631
757.891	4892
758.001	4553
758.111	5202
758.221	5139
758.331	5402
758.441	5447
758.551	4535
758.661	4888
758.771	4426
758.880	5388
758.990	4968
759.100	4898
759.210	4637
759.320	6473
759.429	4678
759.539	5182
759.649	5401
759.758	6125
759.868	5551
759.978	5987
760.087	5596
760.197	6458
760.307	6301
760.416	6084
760.526	5737
760.635	6436
760.745	6593
760.854	6474
760.964	6714
761.073	7107
761.182	7373
761.292	7566
761.401	6750
761.511	6999
761.620	6259
761.729	6222
761.839	6308
761.948	6784
762.057	6800
762.166	7682
762.276	6205
762.385	8627
762.494	7697
762.603	7842
762.712	8982
762.822	8353
762.931	8709
763.040	8886
763.149	8673
763.258	9382
763.367	9866
763.476	10469
763.585	10301
763.694	11883
763.803	11629
763.912	12789
764.021	12733
764.130	13823
764.238	13639
764.347	14372
764.456	16166
764.565	17083
764.674	18301
764.783	20100
764.891	22393
765.000	24460
765.109	27711
765.217	32133
765.326	37065
765.435	43975
765.543	52362
765.652	66024
765.761	81984
765.869	112825
765.978	156425
766.086	229474
766.195	345524
766.303	497983
766.412	464480
766.520	340517
766.629	521164
766.737	397112
766.846	255033
766.954	172979
767.062	122181
767.171	93609
767.279	72044
767.387	56700
767.496	46599
767.604	41419
767.712	34217
767.820	30751
767.928	27851
768.037	26162
768.145	24029
768.253	24242
768.361	22727
768.469	23145
768.577	22253
768.685	25095
768.793	25094
768.901	27720
769.009	30875
769.117	37899
769.225	48024
769.333	63746
769.441	93323
769.549	149725
769.657	257929
769.765	422832
769.873	382610
769.981	423282
770.088	324027
770.196	181499
770.304	112418
770.412	78418
770.519	57238
770.627	46128
770.735	37491
770.842	31513
770.950	27167
771.058	22709
771.165	20845
771.273	18948
771.380	17450
771.488	16898
771.595	16398
771.703	14880
771.810	13264
771.918	12616
772.025	11599
772.133	11258
772.240	11379
772.348	11440
772.455	11625
772.562	9812
772.670	9770
772.777	9676
772.884	9769
772.991	8875
773.099	8489
773.206	8380
773.313	8169
773.420	8097
773.528	7172
773.635	6902
773.742	8063
773.849	7324
773.956	6976
774.063	7381
774.170	6298
774.277	7151
774.384	6539
774.491	6997
774.598	6063
774.705	7008
774.812	6231
774.919	6922
775.026	5984
775.133	6150
775.239	5805
775.346	6294
775.453	5731
775.560	6128
775.667	5056
775.773	6273
775.880	5830
775.987	5852
776.093	4966
776.200	5383
776.307	4760
776.413	5561
776.520	4534
776.627	5896
776.733	4968
776.840	4118
776.946	5234
777.053	5266
777.159	4798
777.266	3910
777.372	5090
777.478	5204
777.585	4947
777.691	4961
777.798	5101
777.904	4822
778.010	5560
778.117	5181
778.223	4522
778.329	4317
778.435	3789
778.542	5006
778.648	4868
778.754	4162
778.860	3887
778.966	4513
779.072	3387
779.178	4937
779.284	4890
779.391	4293
779.497	3576
779.603	7415
779.708	6666
779.815	14071
779.920	39663
780.026	119206
780.132	33913
780.238	6116
780.344	5303
780.450	5431
780.556	4120
780.661	4570
780.767	3330
780.873	3799
780.979	3183
781.085	3590
781.190	3885
781.296	3014
781.402	2947
781.507	3485
781.613	2869
781.719	3085
781.824	3939
781.930	4258
782.035	2471
782.141	3766
782.246	2636
782.352	3631
782.457	2214
782.563	3248
782.668	2579
782.773	2735
782.879	3136
782.984	3394
783.090	4011
783.195	2812
783.300	3369
783.405	2991
783.511	2290
783.616	3428
783.721	2863
783.826	3319
783.932	3005
784.037	3231
784.142	3114
784.247	2916
784.352	3400
784.457	2716
784.562	3824
784.667	3465
784.772	2252
784.877	2843
784.982	3192
785.087	2438
785.192	2714
785.297	2762
785.402	2600
785.507	3133
785.611	2809
785.716	2201
785.821	1328
785.926	2828
786.031	2684
786.135	3168
786.240	3245
786.345	2229
786.450	2945
786.554	3310
786.659	2963
786.763	2071
786.868	2298
786.973	3152
787.077	1640
787.182	2020
787.286	2841
787.391	2143
787.495	1979
787.600	1499
787.704	1650
787.809	2926
787.913	3279
788.017	2734
788.122	2283
788.226	3108
788.330	2477
788.435	2389
788.539	2185
788.643	1896
788.747	2075
788.852	2698
788.956	1800
789.060	2597
789.164	1990
789.268	1800
789.372	2819
789.476	2437
789.580	1321
789.684	1546
789.788	2599
789.892	2355
789.996	1857
790.100	2364
790.204	2014
790.308	2425
790.412	1467
790.516	2260
790.620	1665
790.724	2075
790.828	1933
790.931	1746
791.035	2722
791.139	2590
791.242	1722
791.346	3515
791.450	2362
791.554	1861
791.657	1052
791.761	2476
791.864	2181
791.968	1968
792.072	1730
792.175	1733
792.279	1553
792.382	2114
792.486	1633
792.589	1615
792.693	1857
792.796	1387
792.899	3342
793.003	2687
793.106	631
793.209	2174
793.313	2531
793.416	894
793.519	1768
793.623	2624
793.726	2400
793.829	2526
793.932	1849
794.035	1177
794.138	1712
794.242	2965
794.345	1856
794.448	4089
794.551	6597
794.654	21805
794.757	68706
794.860	22543
794.963	3851
795.066	1925
795.169	2677
795.272	1999
795.375	2614
795.477	1861
795.580	2066
795.683	1658
795.786	1434
795.889	1290
795.991	2034
796.094	2333
796.197	577
796.300	1980
796.402	1408
796.505	1525
796.608	1029
796.710	1626
796.813	2220
796.915	1580
797.018	2327
797.120	1737
797.223	470
797.326	2116
797.428	1256
797.530	1507
797.633	1341
797.735	1991
797.838	1733
797.940	3437
798.042	503
798.145	2049
798.247	1522
798.349	1136
798.452	1909
798.554	1121
798.656	1015
798.758	1797
798.860	1155
798.962	1693
799.065	561
799.167	1516
799.269	1839
799.371	1832
799.473	1674
799.575	1470
799.677	1695
799.779	2724
799.881	727
799.983	2142
800.085	1272
800.187	1609
800.289	342
800.390	1565
800.492	1855
800.594	1846
800.696	576
800.798	1366
800.899	639
801.001	1685
801.103	720
801.205	919
801.306	1404
801.408	1282
801.509	1814
801.611	1416
801.713	810
801.814	910
801.916	657
802.017	1337
802.119	1223
802.220	1786
802.322	-288
802.423	2859
802.525	636
802.626	1508
802.727	810
802.829	1487
802.930	-335
803.031	2000
803.133	793
803.234	1048
803.335	1260
803.436	949
803.538	621
803.639	1333
803.740	1511
803.841	711
803.942	654
804.043	1933
804.144	661
804.245	1278
804.346	727
804.447	1026
804.548	129
804.649	1757
804.750	1064
804.851	1659
804.952	825
805.053	1086
805.154	285
805.255	1699
805.355	420
805.456	1210
805.557	176
805.658	493
805.758	1259
805.859	1252
805.960	878
806.061	231
806.161	797
806.262	585
806.362	518
806.463	375
806.564	928
806.664	1322
806.765	1237
806.865	1419
806.966	1120
807.066	389
807.166	1092
807.267	1973
807.367	892
807.468	1491
807.568	362
807.668	1566
807.769	959
807.869	1072
807.969	1503
808.069	1007
808.170	545
808.270	943
808.370	957
808.470	832
808.570	165
808.670	659
808.770	1423
808.870	411
808.970	1238
809.070	960
809.170	656
809.271	689
809.370	789
809.470	1372
809.570	111
809.670	674
809.770	791
809.870	1367
809.970	1350
810.070	1049
810.169	633
810.269	117
810.369	883
810.469	1065
810.568	1076
810.668	30
810.768	546
810.867	1589
810.967	431
811.066	701
811.166	1121
811.265	1434
811.365	501
811.464	704
811.564	529
811.663	1387
811.763	1040
811.862	1642
811.962	1825
812.061	825
812.160	64
812.260	671
812.359	1086
812.458	1328
812.557	2284
812.657	4245
812.756	2315
812.855	1120
812.954	901
813.053	2260
813.153	1423
813.252	544
813.351	1510
813.450	1448
813.549	1188
813.648	1236
813.747	573
813.846	1675
813.945	752
814.044	980
814.143	834
814.242	820
814.341	1008
814.439	1735
814.538	921
814.637	1283
814.736	1511
814.835	1770
814.933	1049
815.032	1863
815.131	1204
815.229	2030
815.328	3219
815.427	2368
815.525	1648
815.624	2818
815.722	2210
815.821	2655
815.919	2473
816.018	2462
816.116	2682
816.215	2464
816.313	2317
816.412	3763
816.510	3372
816.609	4482
816.707	3445
816.805	4700
816.904	4212
817.002	5118
817.100	4430
817.198	5835
817.296	5892
817.395	6470
817.493	8456
817.591	9259
817.689	11794
817.787	15854
817.885	22620
817.983	38592
818.081	69625
818.179	143093
818.277	295475
818.375	350842
818.473	179543
818.571	76554
818.669	45220
818.767	36436
818.865	32488
818.963	36891
819.061	47526
819.158	72148
819.256	125042
819.354	234012
819.452	387232
819.549	379891
819.647	219377
819.745	106104
819.842	59498
819.940	40561
820.038	28295
820.135	21989
820.233	17273
820.330	13152
820.428	11129
820.525	10286
820.623	8074
820.720	7466
820.818	6750
820.915	6208
821.012	5800
821.110	4964
821.207	4920
821.304	3409
821.402	3933
821.499	4491
821.596	3304
821.693	3240
821.791	4667
821.888	3699
821.985	3619
822.082	3611
822.179	3897
822.276	2844
822.373	3062
822.470	1836
822.567	2384
822.664	1742
822.761	1928
822.858	1970
822.955	2276
823.052	1913
823.149	1218
823.246	2127
823.343	1554
823.440	2190
823.536	1263
823.633	1726
823.730	1189
823.827	2302
823.923	1420
824.020	2502
824.117	1151
824.213	433
824.310	1750
824.407	944
824.503	1379
824.600	2060
824.696	1660
824.793	661
824.889	912
824.986	1571
825.082	1562
825.179	2046
825.275	506
825.371	940
825.468	1433
825.564	167
825.660	844
825.757	2035
825.853	1591
825.949	580
826.045	628
826.142	1200
826.238	623
826.334	1198
826.430	20
826.526	1790
826.622	926
826.718	939
826.814	362
826.910	2275
827.006	60
827.102	804
827.198	1099
827.294	509
827.390	435
827.486	1479
827.582	397
827.678	-172
827.774	1482
827.869	161
827.965	1428
828.061	775
828.157	55
828.252	1788
828.348	81
828.444	1109
828.539	-1038
828.635	1358
828.731	628
828.826	-238
828.922	1208
829.017	272
829.113	497
829.208	193
829.304	-126
829.399	1708
829.495	683
829.590	1741
829.685	340
829.781	854
829.876	1073
829.971	481
830.066	-356
830.162	512
830.257	288
830.352	369
830.447	1140
830.543	1307
830.638	-462
830.733	1304
830.828	209
830.923	1409
831.018	728
831.113	643
831.208	79
831.303	544
831.398	418
831.493	934
831.588	74
831.683	994
831.778	884
831.873	618
831.967	1028
832.062	234
832.157	-506
832.252	2006
832.346	245
832.441	430
832.536	832
832.631	1860
832.725	2199
832.820	599
832.914	258
833.009	740
833.104	766
833.198	511
833.293	206
833.387	1093
833.482	331
833.576	488
833.670	182
833.765	1205
833.859	154
833.954	989
834.048	718
834.142	637
834.237	-72
834.331	237
834.425	435
834.519	693
834.613	1466
834.708	202
834.802	69
834.896	-302
834.990	196
835.084	856
835.178	477
835.272	448
835.366	-210
835.460	952
835.554	150
835.648	-135
835.742	171
835.836	1007
835.930	-978
836.024	382
836.117	835
836.211	874
836.305	349
836.399	768
836.493	-218
836.586	1292
836.680	241
836.774	548
836.867	460
836.961	75
837.055	-154
837.148	400
837.242	-91
837.335	-23
837.429	236
837.522	1162
837.616	1016
837.709	662
837.803	751
837.896	878
837.989	49
838.083	1062
838.176	742
838.269	1641
838.363	807
838.456	428
838.549	500
838.642	922
838.735	1559
838.829	1635
838.922	320
839.015	-329
839.108	-12
839.201	703
839.294	434
839.387	568
839.480	-294
839.573	-200
839.666	47
839.759	223
839.852	-765
839.945	1287
840.038	-547
840.131	-328
840.223	26
840.316	641
840.409	905
840.502	-85
840.594	1087
840.687	-172
840.780	375
840.873	100
840.965	80
841.058	1047
841.150	1183
841.243	120
841.336	349
841.428	227
841.521	-873
841.613	-661
841.706	723
841.798	-64
841.890	-271
841.983	-511
842.075	708
842.167	866
842.260	-353
842.352	585
842.444	83
842.537	1152
842.629	2528
842.721	514
842.813	26
842.905	-154
842.997	308
843.090	867
843.182	479
843.274	955
843.366	2648
843.458	5663
843.550	4447
843.642	915
843.734	282
843.826	436
843.918	360
844.009	1107
844.101	-1168
844.193	-276
844.285	-492
844.377	284
844.469	723
844.560	330
844.652	105
844.744	338
844.835	758
844.927	527
845.019	134
845.110	464
845.202	-463
845.293	-162
845.385	-469
845.476	13
845.568	246
845.659	152
845.751	327
845.842	656
845.934	97
846.025	236
846.116	744
846.208	-359
846.299	-173
846.390	975
846.482	153
846.573	345
846.664	659
846.755	146
846.846	426
846.937	-1129
847.029	370
847.120	91
847.211	-576
847.302	813
847.393	-351
847.484	243
847.575	-620
847.666	806
847.757	196
847.847	79
847.938	-161
848.029	508
848.120	-1104
848.211	-153
848.302	-1611
848.392	-48
848.483	250
848.574	-73
848.664	-76
848.755	-68
848.846	-271
848.936	-355
849.027	-378
849.118	686
849.208	-1067
849.299	-66
849.389	-58
849.480	1306
849.570	2327
849.661	4722
849.751	9695
849.841	6156
849.932	1203
850.022	-89
850.112	495
850.203	71
850.293	-15
850.383	13
850.474	-1055
850.564	-337
850.654	216
850.744	-403
850.834	116
850.924	-452
851.014	330
851.104	-542
851.194	-188
851.284	29
851.374	-140
851.464	-202
851.554	-107
851.644	501
851.734	609
851.824	1344
851.914	1007
852.004	3931
852.094	4999
852.183	767
852.273	324
852.363	695
852.452	64
852.542	-769
852.632	-633
852.721	337
852.811	-657
852.901	183
852.990	47
853.080	-325
853.169	214
853.259	346
853.348	-678
853.438	145
853.527	1016
853.617	250
853.706	2915
853.795	2726
853.885	8454
853.974	18395
854.063	32037
854.152	60839
854.242	33619
854.331	5611
854.420	1519
854.509	346
854.598	1402
854.687	-50
854.777	380
854.866	513
854.955	962
855.044	-437
855.133	-607
855.222	426
855.311	-259
855.400	740
855.488	-1072
855.577	-185
855.666	-616
855.755	1159
855.844	668
855.933	365
856.021	99
856.110	-284
856.199	-368
856.288	-135
856.376	-870
856.465	-24
856.554	-349
856.642	-224
856.731	186
856.819	150
856.908	-880
856.996	250
857.085	-754
857.173	-325
857.262	-898
857.350	-354
857.438	-732
857.527	317
857.615	-486
857.703	-46
857.792	-561
857.880	-364
857.968	-254
858.056	-565
858.145	-743
858.233	-463
858.321	-788
858.409	151
858.497	-662
858.585	-759
858.673	-280
858.761	-220
858.849	-646
858.937	-575
859.025	-384
859.113	-770
859.201	-234
859.289	-23
859.377	-651
859.465	-2
859.552	-834
859.640	-577
859.728	194
859.816	15
859.903	6
859.991	-293
860.079	-719
860.166	-328
860.254	-529
860.342	37
860.429	-705
860.517	-528
860.604	-539
860.692	-79
860.779	-593
860.867	-122
860.954	-154
861.042	-159
861.129	207
861.216	-158
861.304	-1053
861.391	-23
861.478	-217
861.565	-221
861.653	142
861.740	-462
861.827	23
861.914	-274
862.001	384
862.089	-35
862.176	-630
862.263	-285
862.350	461
862.437	-340
862.524	-836
862.611	-763
862.698	-839
862.785	-104
862.871	-605
862.958	-563
863.045	-773
863.132	-491
863.219	-238
863.306	-1267
863.392	231
863.479	-503
863.566	-533
863.652	522
863.739	-424
863.826	-287
863.912	-476
863.999	-103
864.086	-1090
864.172	-232
864.259	-768
864.345	-167
864.432	-559
864.518	-265
864.604	-661
864.691	-163
864.777	514
864.863	-387
864.950	345
865.036	239
865.122	993
865.209	1855
865.295	1020
865.381	1538
865.467	1042
865.553	1614
865.639	173
865.726	2713
865.812	4702
865.898	9864
865.984	14617
866.070	24021
866.156	35283
866.242	14404
866.328	3519
866.414	1386
866.499	500
866.585	1303
866.671	783
866.757	1435
866.843	452
866.928	948
867.014	342
867.100	1099
867.186	875
867.271	576
867.357	935
867.442	1101
867.528	571
867.614	542
867.699	232
867.785	966
867.870	-128
867.956	240
868.041	1481
868.127	704
868.212	-194
868.297	856
868.383	944
868.468	1153
868.553	707
868.639	1148
868.724	915
868.809	1484
868.894	589
868.979	724
869.065	941
869.150	583
869.235	390
869.320	435
869.405	-79
869.490	192
869.575	357
869.660	-130
869.745	548
869.830	-181
869.915	-407
870.000	693
870.085	-232
870.169	508
870.254	584
870.339	-142
870.424	-217
870.509	229
870.593	-108
870.678	266
870.763	-1025
870.847	-6
870.932	129
871.016	271
871.101	-752
871.186	-187
871.270	124
871.355	-389
871.439	-436
871.523	32
871.608	118
871.692	25
871.777	145
871.861	980
871.945	-303
872.030	1096
872.114	-331
872.198	239
872.282	-949
872.367	82
872.451	-446
872.535	-330
872.619	-68
872.703	321
872.787	-401
872.871	125
872.955	104
873.039	-235
873.123	-279
873.207	-142
873.291	403
873.375	-495
873.459	-397
873.543	-404
873.627	-489
873.711	-429
873.794	-502
873.878	130
873.962	-693
874.045	-371
874.129	-255
874.137	-257
874.213	-273
874.245	-519
874.296	-917
874.352	-333
874.380	-51
874.460	-483
874.464	-501
874.547	-267
874.568	-182
874.631	83
874.676	303
874.714	485
874.784	331
874.798	299
874.881	686
874.892	508
874.965	-751
874.999	-215
875.048	560
875.107	-531
875.131	-981
875.215	-123
875.215	-122
875.298	-313
875.323	-367
875.381	-452
875.430	-480
875.465	-502
875.538	-443
875.548	-439
875.631	-899
875.646	-767
875.714	-77
875.753	-143
875.798	-215
875.861	-205
875.881	-219
875.964	-214
875.968	-236
876.047	-694
876.076	-646
876.130	-484
876.183	-316
876.213	-199
876.291	71
876.296	81
876.379	-242
876.398	-300
876.462	-498
876.506	-499
876.545	-442
876.613	-169
876.628	-121
876.711	-611
876.721	-519
876.794	163
876.828	168
876.877	129
876.935	-213
876.960	-304
877.043	-159
877.043	-159
877.125	-207
877.150	-51
877.208	341
877.258	-182
877.291	-553
877.365	-672
877.374	-667
877.456	-566
877.472	-408
877.539	226
877.579	76
877.622	-181
877.687	-51
877.704	2
877.787	-951
877.794	-889
877.869	-91
877.901	-153
877.952	-414
878.008	-130
878.034	36
878.115	-395
878.117	-403
878.199	-438
878.222	-560
878.282	-823
878.329	-164
878.364	279
878.437	-300
878.447	-390
878.529	-740
878.544	-708
878.611	-515
878.651	-499
878.694	-440
878.758	-458
878.776	-505
878.858	-251
878.865	-299
878.941	-639
878.972	-460
879.023	-291
879.078	-224
879.105	-131
879.185	32
879.187	30
879.269	-570
879.292	-708
879.351	-972
879.399	-727
879.433	-512
879.506	-132
879.516	-74
879.598	-7
879.613	-67
879.680	-599
879.720	-597
879.762	-368
879.827	-1
879.844	-25
879.926	-516
879.933	-543
880.007	-353
880.040	-254
880.089	-152
880.147	101
880.171	132
880.253	-290
880.254	-293
880.335	-832
880.360	-738
880.417	-164
880.467	84
880.499	82
880.574	473
880.580	527
880.662	431
880.680	327
880.744	-3
880.787	32
880.825	-223
880.893	-454
880.907	-464
880.989	-220
881.000	-344
881.070	-783
881.106	-538
881.152	-444
881.213	-552
881.233	-497
881.315	-43
881.319	-55
881.396	-258
881.426	-164
881.478	-323
881.532	-421
881.559	-263
881.639	-425
881.641	-435
881.722	35
881.745	-20
881.803	-194
881.852	-481
881.885	-616
881.958	-276
881.966	-252
882.047	-149
882.064	-190
882.129	-376
882.171	-500
882.210	-542
882.277	-160
882.291	-16
882.372	15
882.383	64
882.454	-188
882.489	-382
882.535	-321
882.596	43
882.616	52
882.697	-583
882.702	-574
882.778	124
882.808	144
882.859	-146
882.914	-54
882.940	-13
883.020	-406
883.021	-406
883.102	-80
883.127	-91
883.183	-205
883.233	-50
883.264	82
883.339	135
883.345	127
883.426	-137
883.445	-146
883.507	-102
883.551	-305
883.587	-483
883.657	-482
883.668	-465
883.749	-128
883.763	-161
883.830	-427
883.869	-542
883.910	-572
883.975	-470
883.991	-418
884.072	154
884.081	157
884.152	-8
884.187	2
884.233	-42
884.292	-36
884.314	-88
884.394	-687
884.398	-696
884.475	-263
884.504	-75
884.555	-65
884.610	-505
884.636	-651
884.716	-502
884.716	-500
884.797	-265
884.821	-254
884.877	-344
884.927	-650
884.958	-711
885.033	-177
885.038	-144
885.118	171
885.139	185
885.199	-103
885.244	-284
885.279	-207
885.350	93
885.359	87
885.439	-166
885.456	-194
885.520	-287
885.561	-457
885.600	-416
885.667	8
885.680	52
885.760	-21
885.773	-21
885.840	-298
885.878	-441
885.920	-430
885.984	-396
886.000	-390
886.080	-464
886.089	-466
886.160	-225
886.195	-148
886.240	-8
886.300	278
886.320	133
886.400	-687
886.406	-716
886.480	-142
886.511	-79
886.560	-148
886.616	64
886.640	6
886.720	-508
886.722	-519
886.800	-614
886.827	-674
886.879	-278
886.932	179
886.959	182
887.038	196
887.039	195
887.119	-31
887.143	-216
887.198	-1
887.248	535
887.278	415
887.354	-475
887.358	-473
887.437	-46
887.459	-9
887.517	-186
887.564	-190
887.596	-336
887.669	-831
887.676	-776
887.755	-28
887.774	146
887.835	105
887.880	118
887.914	-7
887.985	-495
887.994	-491
888.073	-194
888.090	-156
888.153	-343
888.195	-507
888.232	-418
888.300	-154
888.311	-166
888.391	-278
888.405	-312
888.470	-775
888.510	-1055
888.549	-767
888.615	-232
888.628	-224
888.708	-213
888.720	-205
888.787	-314
888.825	-396
888.866	-210
888.930	63
888.945	136
889.024	530
889.035	585
889.103	-85
889.140	-464
889.182	-335
889.245	-105
889.261	-112
889.340	-177
889.349	-179
889.419	-228
889.454	-253
889.498	-271
889.559	-288
889.577	-387
889.656	-803
889.664	-838
889.735	-905
889.768	-928
889.814	-497
889.873	83
889.978	-427
890.083	-125
890.187	-243
890.292	114
890.397	-84
890.501	-135
890.606	72
890.710	-298
890.815	-65
890.919	-440
891.024	-538
891.128	272
891.233	-154
891.337	-100
891.442	-1126
891.546	-721
891.650	-62
891.755	-215
891.859	113
891.963	-107
892.068	-81
892.172	-446
892.276	-147
892.380	-582
892.484	-9
892.589	185
892.693	-908
892.797	-1066
892.901	-363
893.005	-34
893.109	-1001
893.213	-324
893.317	127
893.421	-685
893.525	-449
893.629	-942
893.733	-379
893.837	-683
893.941	-187
894.045	89
894.148	-75
894.252	-105
894.356	311
894.460	1
894.564	-1
894.667	-457
894.771	108
894.875	-26
894.978	-141
895.082	-651
895.186	-329
895.289	-94
895.393	76
895.496	-581
895.600	2
895.703	-856
895.807	32
895.910	-343
896.014	-195
896.117	-1110
896.221	-162
896.324	-640
896.427	-641
896.531	2
896.634	-591
896.737	-566
896.840	-429
896.944	-344
897.047	-288
897.150	-305
897.253	-513
897.356	-1059
897.460	-202
897.563	-751
897.666	-282
897.769	-44
897.872	-585
897.975	-1240
898.078	-852
898.181	-473
898.284	62
898.387	-268
898.490	-250
898.593	219
898.695	-774
898.798	-1134
898.901	34
899.004	-383
899.107	-62
899.209	-101
899.312	-679
899.415	-1134
899.518	-568
899.620	-195
899.723	-562
899.826	-262
899.928	-152
900.031	-1566
900.133	-185
900.236	-268
900.338	-371
900.441	-590
900.543	-585
900.646	-200
900.748	-992
900.851	-209
900.953	-897
901.055	-1110
901.158	-792
901.260	-695
901.362	443
901.465	-265
901.567	-483
901.669	152
901.771	-342
901.873	-136
901.976	-189
902.078	58
902.180	-594
902.282	-850
902.384	-834
902.486	-146
902.588	-276
902.690	-1039
902.792	-552
902.894	-395
902.996	-105
903.098	-508
903.200	-602
903.302	-246
903.404	-144
903.505	-812
903.607	-600
903.709	-495
903.811	-373
903.913	-949
904.014	-362
904.116	-1327
904.218	-318
904.319	-30
904.421	-369
904.523	-953
904.624	-803
904.726	-640
904.827	-197
904.929	-459
905.030	361
905.132	-541
905.233	-549
905.335	-1196
905.436	-256
905.537	-1149
905.639	-249
905.740	-512
905.841	-1015
905.943	-355
906.044	-650
906.145	127
906.247	-28
906.348	-216
906.449	-386
906.550	54
906.651	-359
906.752	-567
906.854	-444
906.955	-1015
907.056	-677
907.157	-1092
907.258	-50
907.359	-144
907.460	-303
907.561	-839
907.662	-262
907.762	-600
907.863	-572
907.964	-450
908.065	-663
908.166	-1060
908.267	-495
908.367	-716
908.468	-1310
908.569	-436
908.670	138
908.770	-252
908.871	-574
908.971	-523
909.072	-387
909.173	-686
909.273	111
909.374	-764
909.474	-572
909.575	-925
909.675	-1302
909.776	-341
909.876	203
909.977	-469
910.077	384
910.177	-1060
910.278	-514
910.378	-316
910.478	-894
910.579	-535
910.679	-1061
910.779	-781
910.879	-841
910.980	-508
911.080	-605
911.180	-981
911.280	-914
911.380	-98
911.480	-1
911.580	-649
911.680	-735
911.780	-610
911.880	-851
911.980	-941
912.080	-401
912.180	-601
912.280	28
912.380	-1109
912.480	-316
912.580	-1152
912.679	-607
912.779	-1061
912.879	-754
912.979	-831
913.078	-295
913.178	-849
913.278	-1079
913.377	-176
913.477	-457
913.577	-837
913.676	131
913.776	-765
913.875	-314
913.975	-945
914.074	-795
914.174	-660
914.273	-370
914.373	-58
914.472	-340
914.572	-786
914.671	-410
914.770	-182
914.870	-169
914.969	-161
915.068	-25
915.167	-448
915.267	115
915.366	-487
915.465	-329
915.564	-709
915.663	-221
915.763	-1026
915.862	-862
915.961	-888
916.060	-568
916.159	-580
916.258	-711
916.357	-610
916.456	-366
916.555	-749
916.654	-179
916.752	-650
916.851	-1299
916.950	-748
917.049	234
917.148	-297
917.247	-398
917.345	-449
917.444	-389
917.543	-590
917.642	318
917.740	-614
917.839	-649
917.937	-1197
918.036	-404
918.135	-951
918.233	-595
918.332	-488
918.430	-904
918.529	-650
918.627	-1581
918.726	-254
918.824	-600
918.923	-1058
919.021	-449
919.119	-417
919.218	-1381
919.316	-716
919.414	-727
919.512	-1027
919.611	-1643
919.709	-300
919.807	-510
919.905	-1307
920.003	-236
920.102	-1165
920.200	-335
920.298	-114
920.396	-991
920.494	-758
920.592	-1108
920.690	-901
920.788	-1208
920.886	-760
920.984	213
921.082	-899
921.180	-284
921.277	-631
921.375	-548
921.473	-1075
921.571	-329
921.669	-328
921.766	-420
921.864	-1039
921.962	564
922.060	-588
922.157	-975
922.255	-149
922.352	-703
922.450	-482
922.548	-475
922.645	-569
922.743	-253
922.840	-742
922.938	-211
923.035	-252
923.133	-385
923.230	-515
923.327	-953
923.425	-564
923.522	90
923.619	-669
923.717	-85
923.814	-526
923.911	-806
924.008	228
924.106	-833
924.203	-514
924.300	-1023
924.397	-453
924.494	-774
924.591	-947
924.688	-485
924.786	-322
924.883	-928
924.979	-841
925.077	-1013
925.173	-611
925.270	-324
925.367	-896
925.464	-156
925.561	-753
925.658	-408
925.755	-996
925.852	-1352
925.948	-1596
926.045	-712
926.142	-859
926.239	-856
926.335	-812
926.432	-388
926.529	-794
926.625	-847
926.722	-174
926.818	-943
926.915	-564
927.011	-1054
927.108	-956
927.204	-878
927.301	-1107
927.397	-306
927.494	-1013
927.590	-430
927.687	-893
927.783	-43
927.879	-684
927.976	-956
928.072	-638
928.168	-949
928.264	-1045
928.361	-1177
928.457	-1202
928.553	-324
928.649	-1184
928.745	-602
928.841	-54
928.937	-424
929.033	-343
929.129	-505
929.225	-469
929.321	-851
929.417	-825
929.513	-1171
929.609	-1075
929.705	-1490
929.801	-495
929.897	-1117
929.993	-374
930.089	-1224
930.184	-1617
930.280	-192
930.376	-721
930.471	-1228
930.567	-291
930.663	-858
930.758	-1213
930.854	-1211
930.950	-1810
931.045	-1199
931.141	-543
931.236	-924
931.332	-397
931.427	-1341
931.523	-230
931.618	-811
931.714	-1174
931.809	-1178
931.905	-1524
932.000	-1027
932.095	-684
932.191	-626
932.286	-658
932.381	-713
932.476	-1173
932.572	-880
932.667	-1825
932.762	-694
932.857	-853
932.952	-757
933.047	-530
933.142	-1003
933.237	-850
933.332	-1039
933.427	-960
933.522	-959
933.617	-418
933.712	-1007
933.807	-729
933.902	-541
933.997	-369
934.092	236
934.187	-606
934.282	-1063
934.376	-565
934.471	-314
934.566	-557
934.661	-697
934.755	-1060
934.850	-446
934.945	-495
935.039	-1055
935.134	-1218
935.228	-493
935.323	-697
935.417	-618
935.512	-869
935.606	-944
935.701	-601
935.795	-364
935.890	-962
935.984	-266
936.079	-480
936.173	-1056
936.267	-687
936.362	-373
936.456	-475
936.550	-1361
936.644	-742
936.738	-515
936.833	-1188
936.927	-444
937.021	-1284
937.115	-490
937.209	-1712
937.303	-349
937.397	-1820
937.491	-315
937.585	-1138
937.679	-660
937.773	-161
937.867	-1024
937.961	-1722
938.055	-1256
938.149	-190
938.243	-527
938.337	-1
938.430	-1418
938.524	-865
938.618	-1033
938.712	-799
938.805	-793
938.899	-641
938.993	-807
939.086	-1275
939.180	-1263
939.274	-1220
939.367	-794
939.461	-1152
939.554	-964
939.648	-1139
939.741	-1879
939.835	-998
939.928	-385
940.022	-744
940.115	-996
940.208	-1032
940.302	-648
940.395	-887
940.488	-1417
940.582	-836
940.675	-1395
940.768	-857
940.861	-1205
940.954	-520
941.048	-1287
941.141	-604
941.234	-1135
941.327	-2185
941.420	-834
941.513	-597
941.606	-1371
941.699	-1319
941.792	-726
941.885	-1096
941.978	-1419
942.071	-1333
942.164	-1803
942.257	-643
942.349	-715
942.442	-1341
942.535	-836
942.628	-832
942.721	-677
942.813	-1572
942.906	-216
942.999	-377
943.091	-1327
943.184	-1111
943.277	-1138
943.369	-1000
943.462	-1837
943.554	-1958
943.647	-1331
943.739	-1475
943.832	-1112
943.924	-1595
944.017	-1263
944.109	-1321
944.201	-1324
944.294	-712
944.386	-783
944.478	-1548
944.571	-940
944.663	-1123
944.755	-1651
944.847	-1412
944.940	-1681
945.032	-1448
945.124	-1080
945.216	-1001
945.308	-150
945.400	-841
945.492	-1583
945.584	-1408
945.676	-1220
945.768	-1272
945.860	-1445
945.952	-1024
946.044	-1149
946.136	-1867
946.228	-1956
946.320	-805
946.412	-1247
946.503	-1522
946.595	-555
946.687	-1766
946.779	-1176
946.870	-950
946.962	-807
947.054	-997
947.145	-1285
947.237	-1806
947.329	-1125
947.420	-1823
947.512	-1443
947.603	-776
947.695	-1302
947.786	-1555
947.878	-1342
947.969	-820
948.061	-1264
948.152	-1532
948.243	-817
948.335	-1502
948.426	-705
948.517	-980
948.609	-507
948.700	-1343
948.791	-649
948.882	-755
948.973	-1254
949.065	-1613
949.156	-712
949.247	-1229
949.338	-941
949.429	-1892
949.520	-532
949.611	-1611
949.702	-220
949.793	-1536
949.884	-1137
949.975	-1326
950.066	-984
950.157	-1150
950.247	-954
950.338	-1832
950.429	-828
950.520	-755
950.611	-1832
950.701	-1348
950.792	-1380
950.883	-280
950.973	-648
951.064	-2166
951.155	-276
951.245	-1223
951.336	-565
951.427	-1702
951.517	-662
951.608	-1308
951.698	-1557
951.788	-1658
951.879	-1251
951.969	-1196
952.060	-1259
952.150	-749
952.240	-241
952.331	-2592
952.421	-463
952.511	-1169
952.602	-1495
952.692	-1544
952.782	-1072
952.872	-1284
952.962	-1091
953.052	-1444
953.143	-1661
953.233	-581
953.323	-560
953.413	-2064
953.503	-1334
953.593	-913
953.683	-1346
953.773	-498
953.863	-954
953.953	-2009
954.042	-1152
954.132	-978
954.222	-658
954.312	-1579
954.402	-1753
954.492	-998
954.581	-1322
954.671	-1657
954.761	-1350
954.850	-1083
954.940	-1518
955.030	-2190
955.119	-1368
955.209	-1362
955.298	-1699
955.388	-1279
955.477	-278
955.567	-1595
955.656	-655
955.746	-1564
955.835	-540
955.925	-1773
956.014	-1537
956.103	-1144
956.193	-546
956.282	-1637
956.371	-876
956.461	-280
956.550	-1428
956.639	-1678
956.728	-1507
956.817	-1865
956.906	-1084
956.995	-424
957.085	-1230
957.174	-882
957.263	-664
957.352	-1171
957.441	-1517
957.530	-1630
957.619	-731
957.708	-1576
957.796	-806
957.885	-1378
957.974	-1482
958.063	-954
958.152	-1710
958.241	-1006
958.329	-535
958.418	-1908
958.507	-1404
958.596	-878
958.684	-1242
958.773	-1527
958.861	-1793
958.950	-1979
959.039	-1180
959.127	-1122
959.216	-1137
959.304	-1565
959.393	-1270
959.481	-1468
959.570	-551
959.658	-1037
959.746	-1105
959.835	-1151
959.923	-1541
960.011	-1126
960.100	-1285
960.188	-386
960.276	-1568
960.365	-1678
960.453	-917
960.541	-1475
960.629	-1239
960.717	-1585
960.805	-1866
960.893	-1455
960.981	-1214
961.069	-403
961.158	-1579
961.245	-1517
961.333	-337
961.421	-1217
961.509	-913
961.597	-1393
961.685	-816
961.773	-1668
961.861	-901
961.949	-1091
962.036	-1473
962.124	-1241
962.212	-967
962.299	-1279
962.387	-2010
962.475	-1459
962.562	-1708
962.650	-666
962.738	-900
962.825	-1978
962.913	-1046
963.000	-1765
963.088	-1449
963.175	-1855
963.263	-1393
963.350	-1282
963.438	-1075
963.525	-2238
963.612	-972
963.700	-1773
963.787	-1239
963.874	-1567
963.962	-1384
964.049	-1698
964.136	-2299
964.223	-1622
964.310	-1162
964.398	-2020
964.485	-1048
964.572	-992
964.659	-1406
964.746	-1406
964.833	-533
964.920	-2049
965.007	-1512
965.094	-557
965.181	-993
965.268	-1893
965.355	-1777
965.441	-1029
965.528	-1399
965.615	-1018
965.702	-1104
965.789	-2299
965.875	-1424
965.962	-1163
966.049	-1695
966.136	-2348
966.222	-1341
966.309	-1285
966.395	-2409
966.482	-1368
966.569	-1545
966.655	-1448
966.742	-2080
966.828	-1157
966.915	-2157
967.001	-1756
967.087	-1343
967.174	-2293
967.260	-1909
967.347	-1766
967.433	-1141
967.519	-1089
967.605	-2042
967.692	-1390
967.778	-2085
967.864	-2147
967.950	-1361
968.036	-1550
968.123	-1601
968.209	-1530
968.295	-2594
968.381	-473
968.467	-847
968.553	-2019
968.639	-1121
968.725	-2330
968.811	-212
968.897	-1154
968.983	-1231
969.069	-1492
969.154	-1218
969.240	-1803
969.326	-2319
969.412	-1484
969.497	-989
969.583	-2095
969.669	-1215
969.755	-2027
969.840	-1760
969.926	-1869
970.012	-2183
970.097	-1307
970.183	-1737
970.268	-1558
970.354	-1298
970.439	-1999
970.525	-1971
970.610	-2679
970.696	-1758
970.781	-1709
970.866	-1248
970.952	-1606
971.037	-2127
971.122	-2228
971.208	-1850
971.293	-1588
971.378	-1303
971.463	-1470
971.549	-2186
971.634	-1670
971.719	-1416
971.804	-1804
971.889	-1589
971.974	-2173
972.059	-1101
972.144	-1627
972.229	-1366
972.314	-2058
972.399	-1896
972.484	-1429
972.569	-1442
972.654	-1850
972.739	-760
972.824	-2300
972.908	-2061
972.993	-1800
973.078	-1613
973.163	-1831
973.247	-1830
973.332	-1760
973.417	-853
973.501	-2435
973.586	-1845
973.671	-1374
973.755	-2086
973.840	-1275
973.924	-1156
974.009	-704
974.093	-2044
974.178	-1421
974.262	-1384
974.346	-1403
974.431	-1495
974.515	-1808
974.600	-1272
974.684	-1804
974.768	-1690
974.852	-948
974.937	-2504
975.021	-1252
975.105	-969
975.189	-1771
975.273	-1581
975.358	-1819
975.442	-2058
975.526	-1033
975.610	-2316
975.694	-2048
975.778	-1113
975.862	-1654
975.946	-2942
976.030	-571
976.114	-2373
976.198	-1521
976.281	-1763
976.365	-1702
976.449	-1548
976.533	-1629
976.617	-2165
976.700	-2624
976.784	-1889
976.868	-2686
976.951	-1350
977.035	-2753
977.119	-1368
977.202	-1440
977.286	-834
977.369	-1536
977.453	-2142
977.536	-1864
977.620	-1121
977.703	-1914
977.787	-2427
977.870	-1250
977.953	-862
978.037	-2655
978.120	-487
978.203	-2431
978.287	-2190
978.370	-1352
978.453	-1108
978.536	-1428
978.620	-849
978.703	-2809
978.786	-1845
978.869	-2312
978.952	-3117
979.035	-1142
979.118	-570
979.201	-1902
979.284	-581
979.367	-1992
979.450	-1482
979.533	-2262
979.616	-2342
979.699	-2119
979.782	-2071
979.865	-1494
979.948	-1882
980.030	-2331
980.113	-1294
980.196	-2341
980.279	-1758
980.361	-2344
980.444	-1928
980.526	-2371
980.609	-1246
980.692	-1945
980.774	-2047
980.857	-2789
980.939	-1413
981.022	-2319
981.104	-1432
981.187	-1774
981.269	-1219
981.352	-2307
981.434	-2411
981.516	-1925
981.599	-2036
981.681	-984
981.763	-1526
981.846	-2164
981.928	-1437
982.010	-1775
982.092	-1702
982.174	-1676
982.256	-2346
982.339	-1513
982.421	-1521
982.503	-1305
982.585	-2095
982.667	-1255
982.749	-1305
982.831	-1308
982.913	-2276
982.995	-1247
983.077	-2305
983.158	-1467
983.240	-1700
983.322	-1096
983.404	-1492
983.486	-2135
983.568	-1406
983.649	-1666
983.731	-1270
983.813	-2301
983.894	-1719
983.976	-1677
984.058	-2136
984.139	-1559
984.221	-1920
984.302	-1521
984.384	-1943
984.465	-2068
984.547	-1673
984.628	-2881
984.710	-1320
984.791	-1736
984.872	-1542
984.954	-1833
985.035	-2192
985.116	-2167
985.198	-2206
985.279	-1553
985.360	-1499
985.441	-1860
985.522	-784
985.604	-2049
985.685	-2802
985.766	-1009
985.847	38
985.928	-2316
986.009	-2374
986.090	-2131
986.171	-1337
986.252	-1930
986.333	-2077
986.414	-1718
986.495	-1269
986.576	-2161
986.656	-1288
986.737	-1719
986.818	-1413
986.899	-1765
986.980	-2156
987.060	-1645
987.141	-1649
987.222	-1608
987.302	-2070
987.383	-2094
987.464	-1647
987.544	-1445
987.625	-2590
987.705	-820
987.786	-2044
987.866	-1125
987.947	-2044
988.027	-1314
988.108	-1757
988.188	-1093
988.268	-1718
988.349	-1288
988.429	-1503
988.509	-1316
988.589	-1319
988.670	-3045
988.750	-690
988.830	-974
988.910	-1473
988.990	-1842
989.070	-1308
989.151	-1535
989.231	-1726
989.311	-1163
989.391	-2323
989.471	-1749
989.551	-1486
989.631	-1491
989.711	-1137
989.791	-2022
989.870	-2229
989.950	-879
990.030	-2617
990.110	-1841
990.190	-1801
990.269	-1398
990.349	-1624
990.429	-1282
990.509	-603
990.588	-1947
990.668	-1623
990.747	-1098
990.827	-1781
990.907	-1536
990.986	-1983
991.066	-1211
991.145	-1463
991.225	-1911
991.304	-1414
991.383	-2274
991.463	-1729
991.542	-1282
991.622	-1429
991.701	-1838
991.780	-1874
991.859	-1388
991.939	-1515
992.018	-1921
992.097	-1642
992.176	-313
992.256	-1596
992.335	-2283
992.414	-832
992.493	-1683
992.572	-1539
992.651	-991
992.730	-1314
992.809	-2004
992.888	-1774
992.967	-1810
993.046	-1344
993.125	-1649
993.203	-1739
993.282	-1742
993.361	-1648
993.440	-1685
993.519	-2223
993.597	-1213
993.676	-1846
993.755	-1025
993.834	-903
993.912	-2714
993.991	-1026
994.069	-1821
994.148	-2130
994.226	-1395
994.305	-1173
994.384	-1863
994.462	-1202
994.540	-1831
994.619	-1666
994.697	-1352
994.776	-2237
994.854	-687
994.932	-1812
995.011	-1016
995.089	-1386
995.167	-2244
995.245	-1618
995.324	-1671
995.402	-1328
995.480	-1712
995.558	-2077
995.636	-2326
995.714	-2466
995.792	-1162
995.870	-1819
995.948	-1769
996.026	-2547
996.104	-2349
996.182	-1440
996.260	-2088
996.338	-1512
996.416	-2558
996.494	-1751
996.572	-1437
996.649	-1565
996.727	-2325
996.805	-1092
996.883	-1866
996.960	-2353
997.038	-905
997.116	-1469
997.193	-1854
997.271	-1271
997.348	-2894
997.426	-1023
997.504	-2007
997.581	-1380
997.658	-1753
997.736	-1702
997.813	-2594
997.891	-1314
997.968	-2189
998.046	-2002
998.123	-2418
998.200	-1252
998.277	-2635
998.355	-1650
998.432	-2332
998.509	-1076
998.586	-1763
998.663	-1473
998.741	-1809
998.818	-2442
998.895	-2613
998.972	-821
999.049	-1849
999.126	-2694
999.203	-1480
999.280	-2237
999.357	-2368
999.434	-2558
999.511	-2280
999.587	-1744
999.664	-2667
999.741	-1797
999.818	-1750
999.895	-1938
999.971	-1991
1000.048	-1861
1000.125	-632
1000.202	-2094
1000.278	-1913
1000.355	-1930
1000.431	-2185
1000.508	-1888
1000.584	-1700
1000.661	-1269
1000.738	-2495
1000.814	-1738
1000.890	-1297
1000.967	-2071
1001.043	-1396
1001.120	-2657
1001.196	-1489
1001.272	-1755
1001.349	-1445
1001.425	-1918
1001.501	-2058
1001.577	-2236
1001.654	-730
1001.730	-1834
1001.806	-1884
1001.882	-2846
1001.958	-1788
1002.034	-1617
1002.110	-1625
1002.186	-1698
1002.262	-1952
1002.338	-2393
1002.414	-2037
1002.490	-1807
1002.566	-1764
1002.642	-2497
1002.718	-2048
1002.794	-2109
1002.870	-2160
1002.945	-2088
1003.021	-1438
1003.097	-2106
1003.173	-1571
1003.248	-2292
1003.324	-1866
1003.400	-2221
1003.475	-2020
1003.551	-1513
1003.626	-1740
1003.702	-2534
1003.777	-2815
1003.853	-1983
1003.928	-1999
1004.004	-1813
1004.079	-1165
1004.155	-2230
1004.230	-2791
1004.305	-1577
1004.381	-1679
1004.456	-1278
1004.531	-2145
1004.607	-1937
1004.682	-2117
1004.757	-1285
1004.832	-1469
1004.907	-2283
1004.982	-2416
1005.057	-1833
1005.133	-2350
1005.208	-2588
1005.283	-2211
1005.358	-1413
1005.433	-2602
1005.508	-1508
1005.583	-1909
1005.657	-2145
1005.732	-1538
1005.807	-1460
1005.882	-1938
1005.957	-2511
1006.032	-1621
1006.106	-1640
1006.181	-2218
1006.256	-2287
1006.331	-2375
1006.405	-2815
1006.480	-1682
1006.554	-2705
1006.629	-1961
1006.704	-2675
1006.778	-2235
1006.853	-2097
1006.927	-1990
1007.002	-2178
1007.076	-2678
1007.150	-2094
1007.225	-2122
1007.299	-2174
1007.373	-2808
1007.448	-1516
1007.522	-2217
1007.596	-1276
1007.671	-2477
1007.745	-1471
1007.819	-2401
1007.893	-2315
1007.967	-1127
1008.041	-3220
1008.115	-1119
1008.190	-2115
1008.264	-2064
1008.338	-3058
1008.412	-2912
1008.486	-1735
1008.560	-1945
1008.633	-2318
1008.707	-2743
1008.781	-1201
1008.855	-1694
1008.929	-2111
1009.003	-3102
1009.076	-2439
1009.150	-1965
1009.224	-2715
1009.298	-1703
1009.371	-2055
1009.445	-2003
1009.519	-1719
1009.592	-2618
1009.666	-2584
1009.739	-1938
1009.813	-1745
1009.886	-1664
1009.960	-2948
1010.033	-1997
1010.107	-2446
1010.180	-2985
1010.253	-2651
1010.327	-3414
1010.400	-1727
1010.473	-2154
1010.547	-663
1010.620	-2259
1010.693	-1820
1010.766	-1890
1010.840	-1660
1010.913	-2778
1010.986	-2211
1011.059	-2076
1011.132	-2535
1011.205	-1581
1011.278	-2204
1011.351	-2631
1011.424	-2392
1011.497	-1746
1011.570	-2471
1011.643	-2192
1011.716	-2497
1011.789	-2017
1011.862	-1717
1011.934	-1190
1012.007	-2949
1012.080	-2659
1012.153	-1916
1012.225	-2306
1012.298	-2499
1012.371	-2275
1012.443	-1950
1012.516	-2508
1012.588	-2456
1012.661	-2144
1012.733	-3332
1012.806	-1748
1012.879	-2321
1012.951	-1946
1013.023	-1680
1013.096	-1450
1013.168	-2195
1013.241	-1910
1013.313	-2362
1013.385	-2476
1013.458	-2296
1013.530	-1861
1013.602	-2319
1013.674	-1914
1013.746	-2771
1013.819	-2565
1013.891	-2041
1013.963	-3957
1014.035	-2567
1014.107	-2165
1014.179	-2160
1014.251	-2178
1014.323	-1767
1014.395	-2110
1014.467	-2166
1014.539	-2218
1014.611	-1975
1014.683	-1587
1014.754	-2386
1014.826	-2838
1014.898	-1999
1014.970	-2941
1015.042	-2833
1015.113	-2263
1015.185	-2218
1015.257	-2346
1015.328	-2637
1015.400	-2362
1015.471	-2282
1015.543	-3008
1015.615	-1891
1015.686	-3024
1015.757	-2646
1015.829	-2071
1015.901	-2113
1015.972	-2372
1016.043	-2833
1016.115	-2407
1016.186	-2310
1016.257	-2813
1016.328	-2039
1016.400	-2263
1016.471	-3205
1016.542	-2243
1016.613	-1682
1016.685	-1864
1016.756	-3498
1016.827	-2531
1016.898	-1433
1016.969	-1736
1017.040	-2741
1017.111	-2529
1017.182	-1722
1017.253	-2524
1017.324	-2801
1017.395	-2050
1017.466	-1242
1017.537	-2276
1017.608	-1611
1017.678	-2772
1017.749	-2705
1017.820	-2200
1017.891	-2647
1017.961	-2561
1018.032	-2059
1018.103	-2874
1018.173	-2306
1018.244	-2977
1018.315	-2512
1018.385	-2161
1018.456	-1814
1018.526	-3436
1018.597	-2547
1018.667	-2570
1018.738	-3253
1018.808	-3109
1018.878	-2751
1018.949	-2552
1019.019	-2359
1019.089	-2267
1019.160	-2304
1019.230	-2762
1019.300	-1984
1019.371	-3079
1019.441	-2448
1019.511	-1400
1019.581	-2116
1019.651	-2505
1019.721	-2262
1019.791	-2640
1019.861	-2743
1019.931	-1915
1020.001	-2078
1020.071	-2736
1020.141	-2545
1020.211	-2036
1020.281	-2562
1020.351	-2184
1020.421	-1704
1020.491	-2219
1020.560	-2265
1020.630	-3060
1020.700	-1691
1020.770	-2311
1020.839	-2232
1020.909	-2251
1020.979	-2331
1021.048	-2164
1021.118	-2366
1021.187	-2115
1021.257	-2873
1021.326	-1532
1021.396	-2969
1021.465	-2235
1021.535	-2683
1021.604	-3043
1021.674	-2053
1021.743	-1860
1021.812	-2533
1021.882	-3071
1021.951	-2315
1022.020	-2519
1022.089	-2032
1022.159	-2694
1022.228	-2055
1022.297	-2302
1022.366	-1833
1022.435	-2536
1022.504	-2061
1022.573	-2400
1022.642	-2136
1022.711	-2498
1022.781	-2010
1022.849	-2584
1022.918	-2275
1022.987	-2112
1023.056	-2852
1023.125	-2296
1023.194	-2823
1023.263	-2671
1023.331	-2695
1023.400	-2442
1023.469	-1868
1023.538	-1498
1023.606	-1552
1023.675	-2485
1023.744	-3471
1023.812	-3270
1023.881	-2086
1023.949	-1983
1024.018	-2294
1024.086	-3145
1024.155	-2947
1024.223	-2805
1024.292	-1627
1024.360	-2186
1024.429	-2090
1024.497	-2518
1024.565	-2107
1024.634	-2501
1024.702	-2278
1024.770	-2659
1024.838	-2426
1024.907	-2085
1024.975	-2698
1025.043	-2417
1025.111	-2233
1025.179	-2189
1025.247	-1886
1025.315	-3554
1025.383	-2464
1025.451	-2950
1025.519	-2717
1025.587	-3323
1025.655	-1765
1025.723	-2433
1025.791	-1659
1025.859	-1607
1025.927	-1726
1025.995	-2845
1026.062	-2412
1026.130	-2039
1026.198	-2461
1026.266	-2326
1026.333	-2306
1026.401	-1921
1026.469	-2974
1026.536	-3383
1026.604	-1717
1026.671	-2751
1026.739	-1904
1026.806	-1987
1026.874	-2444
1026.941	-2248
1027.009	-2184
1027.076	-2845
1027.144	-1888
1027.211	-2592
1027.278	-3003
1027.345	-2588
1027.413	-2336
1027.480	-3520
1027.547	-2076
1027.614	-2379
1027.682	-2559
1027.749	-2674
1027.816	-2486
1027.883	-2576
1027.950	-2253
1028.017	-3223
1028.084	-2353
1028.151	-2855
1028.218	-2312
1028.285	-2352
1028.352	-3554
1028.419	-3440
1028.486	-2284
1028.553	-3315
1028.619	-3723
1028.686	-2816
1028.753	-2063
1028.820	-2510
1028.886	-3105
1028.953	-2847
1029.020	-2683
1029.086	-3085
1029.153	-3020
1029.220	-2894
1029.286	-1356
1029.353	-2627
1029.419	-3284
1029.486	-1891
1029.552	-2576
1029.619	-2422
1029.685	-2642
1029.751	-2143
1029.818	-2142
1029.884	-1818
1029.951	-2075
1030.017	-2373
1030.083	-2592
1030.149	-2724
1030.216	-2531
1030.282	-2433
1030.348	-2566
1030.414	-3324
1030.480	-2196
1030.546	-3268
1030.612	-1644
1030.678	-3299
1030.744	-2544
1030.810	-2253
1030.876	-2953
1030.942	-2443
1031.008	-2546
1031.074	-2860
1031.140	-2744
1031.206	-2219
1031.272	-1971
1031.337	-2658
1031.403	-2091
1031.469	-2371
1031.534	-3331
1031.600	-2517
1031.666	-2623
1031.731	-2745
1031.797	-2701
1031.863	-3335
1031.928	-2598
1031.994	-2382
1032.059	-1439
1032.125	-1753
1032.190	-2935
1032.256	-2723
1032.321	-2697
1032.386	-2617
1032.452	-3094
1032.517	-2769
1032.582	-2872
1032.647	-2835
1032.713	-3166
1032.778	-1726
1032.843	-2487
1032.908	-2910
1032.974	-2400
1033.039	-3128
1033.104	-1899
1033.169	-2736
1033.234	-2521
1033.299	-1584
1033.364	-2134
1033.429	-2533
1033.494	-2415
1033.559	-3023
1033.624	-2008
1033.688	-2826
1033.753	-3667
1033.818	-2568
1033.883	-2084
1033.948	-2516
1034.013	-2760
1034.077	-2535
1034.142	-2976
1034.207	-2888
1034.271	-2181
1034.336	-3116
1034.400	-2065
1034.465	-3269
1034.530	-2664
1034.594	-2468
1034.658	-2896
1034.723	-2941
1034.787	-2635
1034.852	-2250
1034.916	-3194
1034.981	-2275
1035.045	-1790
1035.109	-2201
1035.173	-1553
1035.238	-3284
1035.302	-2209
1035.366	-2199
1035.430	-3333
1035.495	-2715
1035.559	-2131
1035.623	-1684
1035.687	-2747
1035.751	-2286
1035.815	-1626
1035.879	-2368
1035.943	-3237
1036.007	-3747
1036.071	-2746
1036.135	-2437
1036.198	-2660
1036.262	-2526
1036.326	-2180
1036.390	-2700
1036.454	-2479
1036.517	-2395
1036.581	-2195
1036.645	-1936
1036.709	-1617
1036.772	-3458
1036.836	-2614
1036.900	-3012
1036.963	-2545
1037.026	-3427
1037.090	-3195
1037.154	-3269
1037.217	-2591
1037.280	-2771
1037.344	-1742
1037.407	-2379
1037.471	-2307
1037.534	-2362
1037.597	-2378
1037.661	-3022
1037.724	-2870
1037.787	-2490
1037.850	-2016
1037.913	-2935
1037.977	-1160
1038.040	-2651
1038.103	-2887
1038.166	-3037
1038.229	-2371
1038.292	-2657
1038.355	-3390
1038.418	-2817
1038.481	-1298
1038.544	-3066
1038.607	-2693
1038.670	-2476
1038.732	-2684
1038.795	-2962
1038.858	-2691
1038.921	-2432
1038.984	-1686
1039.046	-2687
1039.109	-3033
1039.172	-2604
1039.234	-2945
1039.297	-2991
1039.360	-2635
1039.422	-2239
1039.485	-2653
1039.547	-3303
1039.610	-2307
1039.672	-3156
1039.734	-2080
1039.797	-2608
1039.859	-2600
1039.922	-2528
1039.984	-2899
1040.046	-2422
1040.109	-1573
1040.171	-2959
1040.233	-2986
1040.295	-2206
1040.358	-2477
1040.420	-2812
1040.482	-2746
1040.544	-2572
1040.606	-2237
1040.668	-2978
1040.730	-3254
1040.792	-2276
1040.854	-1769
1040.916	-2766
1040.978	-2291
1041.040	-1571
1041.102	-2600
1041.164	-2703
1041.225	-3267
1041.287	-3530
1041.349	-2914
1041.411	-2542
1041.472	-2314
1041.534	-2130
1041.596	-2315
1041.657	-3209
1041.719	-2189
1041.781	-2684
1041.842	-2545
1041.904	-2211
1041.965	-2608
1042.027	-2516
1042.088	-2663
1042.150	-2419
1042.211	-2090
1042.272	-2360
1042.334	-2928
1042.395	-2764
1042.456	-2853
1042.518	-2618
1042.579	-2261
1042.640	-2560
1042.701	-2680
1042.763	-2181
1042.824	-2603
1042.885	-2806
1042.946	-2690
1043.007	-3011
1043.068	-1684
1043.129	-2519
1043.190	-3509
1043.251	-2822
1043.312	-2501
1043.373	-2687
1043.434	-2243
1043.495	-1873
1043.556	-2319
1043.616	-3579
1043.677	-2056
1043.738	-2752
1043.799	-3050
1043.859	-1998
1043.920	-2384
1043.981	-2485
1044.041	-2123
1044.102	-2464
1044.162	-2872
1044.223	-2592
1044.284	-2000
1044.344	-2182
1044.405	-2551
1044.465	-3007
1044.525	-2203
1044.586	-2072
1044.646	-2485
1044.707	-2534
1044.767	-2588
1044.827	-3038
1044.887	-2373
1044.948	-2872
1045.008	-2344
1045.068	-2079
1045.128	-2268
1045.188	-1914
1045.249	-1953
1045.309	-2389
1045.369	-2396
1045.429	-2084
1045.489	-2458
1045.549	-2659
1045.609	-1987
1045.669	-2676
1045.729	-2606
1045.789	-3283
1045.848	-2322
1045.908	-2969
1045.968	-2363
1046.028	-2367
1046.088	-1775
1046.147	-1633
1046.207	-1652
1046.267	-1632
1046.326	-1649
1046.386	-1956
1046.446	-2053
1046.505	-2642
1046.565	-1751
1046.624	-2089
1046.684	-1081
1046.743	-1999
1046.803	-1360
1046.862	-1549
1046.922	0
