'Start Wavelength	183.907
'End Wavelength	1046.922
'Gate Delay	5.000
'Gate Width (ms)	1.050
'Laser Output Level	0.000
'X Position	0.000
'Y Position	0.000
'Z Position	0.000
'Grid Point Number	1.000
'Shot Number	100.000
183.907	770.000
183.977	-577.000
184.047	-69
184.116	559
184.186	-401
184.256	103
184.325	-222
184.395	-1218
184.465	425
184.534	-763
184.604	-1010
184.674	32
184.743	258
184.813	-58
184.883	115
184.952	-485
185.022	44
185.092	-653
185.161	-337
185.231	-294
185.301	-540
185.370	-377
185.440	-270
185.509	-841
185.579	-746
185.649	-402
185.718	-213
185.788	-289
185.857	-480
185.927	-176
185.996	69
186.066	-230
186.136	227
186.205	44
186.275	-228
186.344	-435
186.414	214
186.483	-476
186.553	289
186.622	353
186.692	-105
186.761	-443
186.831	-236
186.900	-1075
186.970	-27
187.039	-338
187.109	392
187.178	-269
187.248	-103
187.317	-126
187.387	-515
187.456	-390
187.526	77
187.595	-123
187.664	-90
187.734	-858
187.803	-887
187.873	-541
187.942	-453
188.012	303
188.081	-595
188.150	-726
188.220	-314
188.289	137
188.358	606
188.428	-285
188.497	-1175
188.567	-23
188.636	120
188.705	27
188.775	-324
188.844	-1095
188.913	1109
188.983	-682
189.052	-272
189.121	-541
189.191	47
189.260	-784
189.329	43
189.399	-336
189.468	-44
189.537	-1011
189.606	365
189.676	-430
189.745	-258
189.814	39
189.883	-431
189.953	-522
190.022	409
190.091	-988
190.161	-100
190.230	-373
190.299	462
190.368	-394
190.437	-107
190.507	-505
190.576	446
190.645	-351
190.714	-202
190.783	-739
190.853	797
190.922	174
190.991	-683
191.060	-329
191.129	-304
191.198	-257
191.268	-124
191.337	-649
191.406	596
191.475	-133
191.544	-137
191.613	-58
191.682	-265
191.752	-171
191.821	-1053
191.890	-729
191.959	-329
192.028	-352
192.097	215
192.166	257
192.235	-564
192.304	462
192.373	-1035
192.442	-437
192.511	361
192.580	-599
192.650	-247
192.719	-93
192.788	570
192.857	-734
192.926	150
192.995	-300
193.064	-33
193.133	-767
193.202	-69
193.271	-989
193.340	680
193.409	-555
193.478	-207
193.547	-450
193.615	-609
193.684	-43
193.753	-1053
193.822	-356
193.891	-849
193.960	-568
194.029	-228
194.098	-455
194.167	-1231
194.236	471
194.305	110
194.374	-324
194.443	-112
194.512	-1223
194.580	-242
194.649	-1240
194.718	384
194.787	-617
194.856	-580
194.925	-163
194.994	-453
195.062	-419
195.131	381
195.200	-1041
195.269	-556
195.338	-646
195.407	727
195.475	-566
195.544	741
195.613	-423
195.682	550
195.751	-496
195.819	-112
195.888	-272
195.957	472
196.026	-634
196.094	163
196.163	-389
196.232	-398
196.301	-456
196.369	-293
196.438	-114
196.507	-361
196.576	-784
196.644	203
196.713	-371
196.782	98
196.850	-340
196.919	-181
196.988	-605
197.056	358
197.125	-239
197.194	-759
197.262	-1168
197.331	-418
197.400	-737
197.468	-679
197.537	-439
197.606	414
197.674	-620
197.743	-631
197.812	-822
197.880	-23
197.949	-1459
198.017	-88
198.086	-398
198.155	-138
198.223	-387
198.292	223
198.360	-154
198.429	-803
198.497	-798
198.566	-111
198.635	161
198.703	453
198.772	-489
198.840	126
198.909	-581
198.977	-112
199.046	-634
199.114	354
199.183	-792
199.251	285
199.320	-1307
199.388	-184
199.457	81
199.525	21
199.594	-970
199.662	-70
199.731	-1092
199.799	210
199.867	-1099
199.936	-811
200.004	-182
200.073	388
200.141	351
200.210	-294
200.278	-675
200.346	236
200.415	-769
200.483	-650
200.552	-259
200.620	-392
200.688	-865
200.757	-934
200.825	-112
200.893	-949
200.962	-155
201.030	283
201.098	-971
201.167	56
201.235	-116
201.303	-793
201.372	-194
201.440	-164
201.508	-973
201.577	376
201.645	-691
201.713	259
201.781	-86
201.850	286
201.918	-258
201.986	-868
202.055	-106
202.123	-432
202.191	-690
202.259	-100
202.327	-1149
202.396	-433
202.464	-174
202.532	-578
202.600	-281
202.669	-498
202.737	-598
202.805	341
202.873	-977
202.941	81
203.009	-317
203.078	-73
203.146	-770
203.214	-837
203.282	-1503
203.350	186
203.418	-1320
203.487	27
203.555	-405
203.623	-235
203.691	-427
203.759	-189
203.827	-666
203.895	312
203.963	-1037
204.031	-734
204.099	-757
204.168	-1179
204.236	113
204.304	275
204.372	-768
204.440	478
204.508	-751
204.576	-1269
204.644	-1164
204.712	-797
204.780	-835
204.848	-595
204.916	-632
204.984	-873
205.052	-552
205.120	-780
205.188	-909
205.256	-781
205.324	-550
205.392	-60
205.460	-471
205.528	111
205.596	664
205.664	185
205.732	-1120
205.799	253
205.867	172
205.935	-804
206.003	349
206.071	374
206.139	-1075
206.207	25
206.275	-517
206.343	-496
206.411	-748
206.478	107
206.546	-318
206.614	-873
206.682	-675
206.750	-104
206.818	-1081
206.885	-244
206.953	-1475
207.021	-10
207.089	-455
207.157	-837
207.225	-412
207.292	-124
207.360	-1072
207.428	-163
207.496	-593
207.563	103
207.631	-600
207.699	-435
207.767	-932
207.834	-518
207.902	-76
207.970	-513
208.038	-555
208.105	-368
208.173	-1119
208.241	-541
208.309	-181
208.376	-874
208.444	-1048
208.512	-448
208.579	-992
208.647	-69
208.715	-629
208.782	-442
208.850	-392
208.918	-1052
208.985	-140
209.053	-802
209.120	-474
209.188	-999
209.256	-538
209.323	-365
209.391	-980
209.459	540
209.526	-934
209.594	-937
209.661	-311
209.729	-429
209.796	-1120
209.864	-162
209.932	-1860
209.999	752
210.067	-245
210.134	-606
210.202	-104
210.269	-137
210.337	-934
210.404	-1054
210.472	-49
210.539	831
210.607	-1443
210.674	434
210.742	-351
210.809	-430
210.877	-882
210.944	-329
211.012	-2004
211.079	522
211.146	-1276
211.214	-320
211.281	-1638
211.349	-448
211.416	-954
211.484	-439
211.551	-950
211.618	-177
211.686	-937
211.753	-1181
211.821	-263
211.888	-213
211.955	-555
212.023	34
212.090	-224
212.157	-976
212.225	-1151
212.292	-458
212.359	-467
212.427	391
212.494	-463
212.561	-333
212.629	-506
212.696	-663
212.763	-1379
212.831	-897
212.898	-1093
212.965	-760
213.032	-709
213.100	-528
213.167	-847
213.234	924
213.301	-863
213.369	819
213.436	-603
213.503	-970
213.570	-246
213.638	-730
213.705	-1410
213.772	-697
213.839	-600
213.906	389
213.973	-1032
214.041	-1147
214.108	-786
214.175	-1
214.242	-927
214.309	-516
214.376	-851
214.444	-774
214.511	-1011
214.578	-766
214.645	-586
214.712	-74
214.779	-1032
214.846	-951
214.913	-720
214.980	-968
215.048	-464
215.115	-216
215.182	-1149
215.249	-592
215.316	-1533
215.383	150
215.450	-732
215.517	68
215.584	-786
215.651	-412
215.718	-515
215.785	-647
215.852	-1579
215.919	-190
215.986	-648
216.053	-544
216.120	-1605
216.187	-80
216.254	-751
216.321	-642
216.388	-1103
216.455	-527
216.522	-626
216.589	531
216.656	-388
216.722	-321
216.789	-832
216.856	44
216.923	-725
216.990	-950
217.057	-1449
217.124	-249
217.191	-2148
217.258	-356
217.324	-1192
217.391	-344
217.458	-516
217.525	-1150
217.592	-1286
217.659	-1603
217.725	-150
217.792	-1182
217.859	-736
217.926	-229
217.993	-709
218.059	-287
218.126	-1552
218.193	-908
218.260	-1272
218.327	-339
218.393	-1379
218.460	-773
218.527	-1572
218.594	-537
218.660	-1765
218.727	236
218.794	-1556
218.860	477
218.927	-1245
218.994	-733
219.061	-929
219.127	-794
219.194	-431
219.261	445
219.327	-892
219.394	76
219.461	-1118
219.527	-502
219.594	-430
219.661	-252
219.727	-1824
219.794	230
219.860	-1050
219.927	-150
219.994	-732
220.060	-743
220.127	-1013
220.193	-289
220.260	-912
220.326	-319
220.393	-1128
220.460	-1092
220.526	-1289
220.593	-460
220.659	87
220.726	-595
220.792	-395
220.859	-160
220.925	-336
220.992	-249
221.058	-47
221.125	81
221.191	-499
221.258	-443
221.324	-867
221.391	-841
221.457	-855
221.524	-672
221.590	-608
221.657	-100
221.723	-1616
221.789	-579
221.856	-322
221.922	-1871
221.989	-527
222.055	-521
222.121	-2194
222.188	413
222.254	-590
222.321	-430
222.387	-1798
222.453	-685
222.520	-1698
222.586	-732
222.652	-697
222.719	-1177
222.785	-565
222.851	-651
222.918	-397
222.984	-458
223.050	-1940
223.116	-2544
223.183	205
223.249	-212
223.315	-1313
223.382	-722
223.448	-693
223.514	-1424
223.580	-1630
223.647	-1147
223.713	-1356
223.779	-719
223.845	-710
223.911	-286
223.978	-1159
224.044	197
224.110	-825
224.176	-660
224.242	-1040
224.309	-1319
224.375	-389
224.441	-498
224.507	-1018
224.573	-1914
224.639	132
224.705	-1183
224.772	-700
224.838	-1040
224.904	-1104
224.970	-562
225.036	-715
225.102	-1267
225.168	-655
225.234	-48
225.300	-800
225.366	-71
225.432	-613
225.499	-578
225.565	-1044
225.631	-876
225.697	-1374
225.763	-87
225.829	-686
225.895	-899
225.961	-556
226.027	52
226.093	-2217
226.159	374
226.225	-223
226.291	339
226.357	-638
226.423	-379
226.489	-128
226.554	-318
226.620	-814
226.686	-396
226.752	-1330
226.818	-779
226.884	-360
226.950	159
227.016	-796
227.082	542
227.148	-105
227.214	-682
227.279	-951
227.345	-1290
227.411	-1082
227.477	-373
227.543	-1055
227.609	-57
227.674	-356
227.740	-1163
227.806	-1029
227.872	-1177
227.938	-1812
228.003	-533
228.069	-1130
228.135	-749
228.201	-1001
228.267	-1040
228.332	-1483
228.398	-1708
228.464	-1488
228.530	-1367
228.595	-433
228.661	-1539
228.727	-1416
228.792	640
228.858	-871
228.924	-2069
228.990	1426
229.055	-1712
229.121	-1032
229.187	-983
229.252	-1301
229.318	-640
229.384	-516
229.449	-917
229.515	-2254
229.581	-990
229.646	547
229.712	-603
229.777	-1227
229.843	-952
229.909	-421
229.974	29
230.040	-1590
230.105	-764
230.171	-1400
230.236	-1308
230.302	-827
230.368	-1890
230.433	-1365
230.499	72
230.564	-642
230.630	-1286
230.695	-724
230.761	443
230.826	-2356
230.892	-407
230.957	-1987
231.023	57
231.088	-1371
231.154	-1156
231.219	100
231.284	-1600
231.350	-1243
231.415	-1233
231.481	45
231.546	-32
231.612	-522
231.677	-1225
231.742	-2444
231.808	729
231.873	-1922
231.939	-2182
232.004	-699
232.069	-350
232.135	-801
232.200	-898
232.265	-201
232.331	-730
232.396	-1407
232.461	-934
232.527	-815
232.592	-1750
232.657	-1612
232.723	-1096
232.788	-1746
232.853	-538
232.918	-322
232.984	-1138
233.049	-1428
233.114	-1603
233.179	-1053
233.245	278
233.310	-774
233.375	-1773
233.440	281
233.506	-1407
233.571	-1998
233.636	-332
233.701	-1474
233.766	-1224
233.832	-872
233.897	-604
233.962	-2256
234.027	574
234.092	-969
234.157	-554
234.222	-1499
234.288	-1271
234.353	-2319
234.418	-419
234.483	41
234.548	-1086
234.613	-1106
234.678	343
234.743	-1492
234.808	587
234.873	-3030
234.938	310
235.004	-820
235.069	-1126
235.134	-1982
235.199	-371
235.264	-533
235.329	-1701
235.394	-925
235.459	301
235.524	-1826
235.589	23
235.654	-1434
235.719	-2189
235.784	46
235.849	-911
235.913	-617
235.978	-1280
236.043	-826
236.108	-1089
236.173	-1919
236.238	-382
236.303	-1520
236.368	-1465
236.433	-290
236.498	-1699
236.563	-21
236.627	-764
236.692	772
236.757	214
236.822	43
236.887	-1363
236.952	-304
237.017	-2247
237.081	-18
237.146	-1824
237.211	-588
237.276	276
237.341	763
237.405	-1163
237.470	-1178
237.535	-1451
237.600	-918
237.664	203
237.729	-2144
237.794	-1147
237.859	-599
237.923	-638
237.988	-1459
238.053	-399
238.118	-1164
238.182	-1210
238.247	-180
238.312	-1808
238.376	-929
238.441	-2177
238.506	-136
238.570	-1373
238.635	-636
238.700	-977
238.764	-2132
238.829	-1488
238.893	-1373
238.958	243
239.023	-994
239.087	-1318
239.152	-1056
239.216	-734
239.281	-339
239.346	-1197
239.410	-1237
239.475	-1553
239.539	-921
239.604	-1250
239.668	-1102
239.733	-877
239.797	-1174
239.862	32
239.926	-561
239.991	473
240.055	-1160
240.120	-956
240.184	-920
240.249	-2155
240.313	-1185
240.378	-494
240.442	-1483
240.507	-1534
240.571	-1874
240.635	-1471
240.700	-678
240.764	-1232
240.829	-1270
240.893	-1625
240.957	-1115
241.022	-940
241.086	-554
241.151	-929
241.215	-2139
241.279	-181
241.344	-1823
241.408	-1132
241.472	-1677
241.537	378
241.601	-1000
241.665	-1566
241.730	-1640
241.794	-135
241.858	-1919
241.922	-438
241.987	-929
242.051	-819
242.115	-1925
242.179	-209
242.244	-1242
242.308	-366
242.372	-882
242.436	-789
242.501	-1710
242.565	-1863
242.629	-1706
242.693	-202
242.757	-1793
242.822	-1224
242.886	-201
242.950	6
243.014	-2153
243.078	-916
243.142	-1183
243.206	-1976
243.271	-434
243.335	-2073
243.399	-211
243.463	-1147
243.527	500
243.591	-1207
243.655	-1288
243.719	-1070
243.783	-106
243.847	-1070
243.911	-827
243.975	-1442
244.040	-3168
244.104	381
244.168	-1545
244.232	-1329
244.296	-1070
244.360	-374
244.424	-2060
244.488	-838
244.552	116
244.615	-2326
244.679	-147
244.743	-1345
244.807	-2086
244.871	-942
244.935	-478
244.999	-1749
245.063	-1960
245.127	319
245.191	-1190
245.255	-1493
245.319	-1146
245.383	-2037
245.446	517
245.510	-1881
245.574	-1372
245.638	-360
245.702	-2484
245.766	-600
245.829	-238
245.893	-2495
245.957	-1725
246.021	47
246.085	-1722
246.149	-654
246.212	233
246.276	-2018
246.340	-2164
246.404	-428
246.467	-19
246.531	-2866
246.595	-1506
246.659	6
246.722	-2124
246.786	-778
246.850	-573
246.913	-794
246.977	-2218
247.041	-792
247.104	-998
247.168	-675
247.232	-1645
247.295	-768
247.359	40
247.423	-1510
247.486	-1458
247.550	-84
247.614	-1661
247.677	-269
247.741	-725
247.804	-1578
247.868	-960
247.932	-1529
247.995	-407
248.059	-602
248.122	-2199
248.186	-167
248.249	-1264
248.313	123
248.376	125
248.440	-1338
248.503	-2081
248.567	242
248.630	-2040
248.694	-883
248.757	-474
248.821	150
248.884	45
248.948	-2343
249.011	-630
249.075	-668
249.138	-488
249.202	-1704
249.265	-1954
249.328	-855
249.392	-1868
249.455	-649
249.519	-1323
249.582	-767
249.645	-873
249.709	-1141
249.772	-1447
249.835	-1071
249.899	-1737
249.962	-538
250.025	-2153
250.089	-945
250.152	-423
250.215	-1027
250.279	-1937
250.342	308
250.405	-929
250.468	-1560
250.532	-1662
250.595	-755
250.658	-691
250.721	1426
250.785	-1343
250.848	728
250.911	-855
250.974	-936
251.038	-1119
251.101	-509
251.164	-1729
251.227	-167
251.290	-1229
251.354	-688
251.417	-37
251.480	661
251.543	314
251.606	2453
251.669	1243
251.732	-352
251.795	-655
251.859	-70
251.922	603
251.985	537
252.048	776
252.111	101
252.174	-1781
252.237	-594
252.300	-170
252.363	-104
252.426	2118
252.489	-1037
252.552	-844
252.615	-1155
252.678	-411
252.741	894
252.804	-927
252.867	2745
252.930	-43
252.993	-47
253.056	-559
253.119	-1289
253.182	-1979
253.245	-500
253.308	-270
253.371	-1275
253.434	-859
253.497	-501
253.559	197
253.622	-577
253.685	-2074
253.748	-750
253.811	-1929
253.874	-388
253.937	-1461
254.000	142
254.062	-1505
254.125	-1641
254.188	-15
254.251	-1861
254.314	-2284
254.376	-1289
254.439	-1183
254.502	-351
254.565	-2247
254.628	710
254.690	-1384
254.753	-1479
254.816	-1756
254.878	-806
254.941	-1157
255.004	-729
255.067	-742
255.129	-790
255.192	-1609
255.255	-1591
255.317	-1050
255.380	-378
255.443	-1620
255.505	-731
255.568	-1790
255.631	-1533
255.693	-1392
255.756	-2189
255.819	-135
255.881	-1332
255.944	-823
256.006	-1130
256.069	-1422
256.132	-2073
256.194	-1409
256.257	-1087
256.319	-1265
256.382	-1936
256.444	-575
256.507	-882
256.569	-927
256.632	-1254
256.694	-1811
256.757	-14
256.819	422
256.882	-1290
256.944	-837
257.007	-700
257.069	-1146
257.132	-1116
257.194	-405
257.257	-1183
257.319	-2435
257.381	-2116
257.444	-723
257.506	603
257.569	1190
257.631	-1012
257.693	-1583
257.756	-544
257.818	-2177
257.880	-1210
257.943	-802
258.005	-2250
258.067	-1076
258.130	-830
258.192	-559
258.254	-1228
258.317	-2012
258.379	-445
258.441	-1799
258.503	-934
258.566	-1598
258.628	-262
258.690	-1476
258.753	-534
258.815	-953
258.877	-1807
258.939	-1849
259.001	-580
259.064	-1309
259.126	-1805
259.188	-1954
259.250	-928
259.312	-743
259.375	-1010
259.437	-2405
259.499	-745
259.561	-1048
259.623	-1151
259.685	-1925
259.747	-619
259.809	-1136
259.872	-471
259.934	-890
259.996	-550
260.058	-989
260.120	-1891
260.182	-682
260.244	-1548
260.306	-1504
260.368	-1044
260.430	-2709
260.492	-1795
260.554	-1371
260.616	-1266
260.678	-2251
260.740	-137
260.802	-1942
260.864	-791
260.926	-1633
260.988	207
261.050	-2309
261.112	-1002
261.174	188
261.236	-625
261.298	-1200
261.359	-607
261.421	-269
261.483	-1998
261.545	-687
261.607	-2088
261.669	-628
261.731	-1397
261.793	-1692
261.854	-1678
261.916	-874
261.978	-1928
262.040	-1203
262.102	-577
262.164	-1733
262.225	-985
262.287	-1359
262.349	-1818
262.411	-901
262.472	-766
262.534	-1772
262.596	-1273
262.658	-991
262.719	-1506
262.781	-463
262.843	-1573
262.904	-1885
262.966	-282
263.028	-1137
263.090	-329
263.151	-1047
263.213	-985
263.275	-1898
263.336	-1317
263.398	-402
263.459	-1242
263.521	-1076
263.583	-1027
263.644	-1199
263.706	-1262
263.767	-1669
263.829	-962
263.891	-987
263.952	-1607
264.014	-1296
264.075	-771
264.137	-2161
264.198	-665
264.260	-1654
264.321	-912
264.383	-1367
264.444	-819
264.506	-1494
264.567	-755
264.629	-772
264.690	-2499
264.752	-1618
264.813	-1015
264.875	-1452
264.936	-966
264.998	-1320
265.059	-1371
265.120	-1961
265.182	-1344
265.243	-1724
265.305	-759
265.366	-1227
265.427	-1063
265.489	-649
265.550	-1908
265.611	-2210
265.673	-1262
265.734	-1003
265.795	-248
265.857	-2353
265.918	-1703
265.979	-540
266.040	-640
266.102	-618
266.163	-886
266.224	-1532
266.286	-761
266.347	-2150
266.408	-1248
266.469	-842
266.530	-767
266.592	-1540
266.653	-791
266.714	-1500
266.775	-850
266.836	-1867
266.898	-1410
266.959	-1222
267.020	-1898
267.081	-316
267.142	-1855
267.203	-1858
267.264	-2739
267.326	-1051
267.387	-1602
267.448	-2340
267.509	-1507
267.570	-959
267.631	-1352
267.692	-1425
267.753	-665
267.814	-2448
267.875	-1248
267.936	-1127
267.997	-2074
268.058	-1072
268.119	-1299
268.180	-1183
268.241	-1595
268.302	-1903
268.363	-1450
268.424	-1139
268.485	-966
268.546	-2491
268.607	-1468
268.668	-823
268.729	-1425
268.790	-1774
268.851	-1603
268.912	-576
268.972	-1429
269.033	-2371
269.094	-1141
269.155	-1313
269.216	-1088
269.277	-2093
269.338	-1173
269.398	-1909
269.459	-1455
269.520	-1500
269.581	-1378
269.642	-2757
269.702	-1922
269.763	-1499
269.824	-878
269.885	-1322
269.945	-700
270.006	-1986
270.067	-1041
270.128	-2011
270.188	-473
270.249	-1744
270.310	-1874
270.370	-1643
270.431	-1600
270.492	-2229
270.553	-1820
270.613	-1765
270.674	-1191
270.734	-1970
270.795	-1397
270.856	-920
270.916	-1860
270.977	-1721
271.038	-951
271.098	-1184
271.159	-722
271.219	-1905
271.280	-1028
271.340	-897
271.401	-1710
271.462	-1722
271.522	-1122
271.583	-1916
271.643	-792
271.704	-2209
271.764	-1545
271.825	-1374
271.885	-860
271.946	-418
272.006	-971
272.066	-1035
272.127	-287
272.187	-646
272.248	-1341
272.308	-1465
272.369	-666
272.429	-1157
272.489	-662
272.550	-1239
272.610	-991
272.671	-1328
272.731	-678
272.791	-1525
272.852	-2140
272.912	-1091
272.972	-967
273.033	-1170
273.093	-1716
273.153	-1305
273.214	-1048
273.274	-2220
273.334	-532
273.394	-1022
273.455	-1276
273.515	-1268
273.575	-1777
273.635	-797
273.696	-327
273.756	-1315
273.816	-1012
273.876	-1488
273.936	-1017
273.997	-1421
274.057	-1602
274.117	-1125
274.177	-767
274.237	-1100
274.297	-573
274.358	-569
274.418	-832
274.478	-1479
274.538	-969
274.598	-2231
274.658	-1110
274.718	-1229
274.778	-1351
274.838	-1101
274.898	-712
274.958	-880
275.018	-716
275.078	-1337
275.138	-480
275.198	-1768
275.258	-1309
275.318	-1148
275.378	-1221
275.438	-1301
275.498	-1283
275.558	-1017
275.618	-575
275.678	-1853
275.738	-1473
275.798	-1291
275.858	-1331
275.918	-834
275.978	-1456
276.038	-1007
276.098	-1189
276.157	-1916
276.217	-1060
276.277	-2272
276.337	-664
276.397	-1534
276.457	-1211
276.517	-1305
276.576	-1027
276.636	-2047
276.696	-1446
276.756	-1517
276.815	-1122
276.875	-1823
276.935	-1801
276.995	-1483
277.055	-307
277.114	-1553
277.174	-1339
277.234	-904
277.293	-2008
277.353	-1717
277.413	-500
277.472	-1081
277.532	-1096
277.592	-1254
277.651	395
277.711	2243
277.771	-688
277.830	1008
277.890	1846
277.950	189
278.009	5172
278.069	963
278.128	1302
278.188	2468
278.248	507
278.307	1908
278.367	1635
278.426	-1233
278.486	-741
278.545	-1454
278.605	-1056
278.664	-1057
278.724	-1403
278.783	-466
278.843	-668
278.902	-1109
278.962	-1217
279.021	-716
279.081	543
279.140	18
279.199	-608
279.259	-1032
279.318	-627
279.378	-74
279.437	1368
279.496	7077
279.556	36691
279.615	27391
279.675	6510
279.734	2267
279.793	2910
279.853	4216
279.912	1158
279.971	-131
280.031	-34
280.090	359
280.149	2128
280.208	4013
280.268	24434
280.327	24205
280.386	4875
280.445	1224
280.505	853
280.564	382
280.623	-560
280.682	-925
280.742	125
280.801	-1043
280.860	-706
280.919	-1808
280.978	-536
281.037	-1293
281.097	-1650
281.156	-1655
281.215	-1140
281.274	-1572
281.333	-893
281.392	-1926
281.451	-334
281.510	-922
281.569	-1220
281.628	-1694
281.688	-755
281.747	-1867
281.806	-1399
281.865	-1852
281.924	-1685
281.983	-2025
282.042	-1502
282.101	-1856
282.160	-1676
282.219	-1862
282.278	-1200
282.337	-1640
282.396	-1095
282.454	-1842
282.513	-1090
282.572	-1901
282.631	-781
282.690	-1933
282.749	-1539
282.808	-1266
282.867	-1001
282.926	-1369
282.985	-570
283.043	-1114
283.102	-904
283.161	-1532
283.220	-951
283.279	-1827
283.338	-1839
283.396	-1412
283.455	-1334
283.514	-1299
283.573	-1421
283.631	-1483
283.690	-796
283.749	-1349
283.808	-515
283.866	-1371
283.925	-1066
283.984	-1116
284.043	-751
284.101	-1050
284.160	-1237
284.219	-787
284.277	-829
284.336	-1300
284.395	-200
284.453	-1435
284.512	-1048
284.570	-1070
284.629	-292
284.688	-522
284.746	-548
284.805	123
284.863	806
284.922	606
284.981	1104
285.039	3075
285.098	6043
285.156	13340
285.215	29010
285.273	24354
285.332	15135
285.390	9081
285.449	5000
285.507	2961
285.566	1362
285.624	542
285.683	1284
285.741	-355
285.799	-323
285.858	-515
285.916	-784
285.975	-1337
286.033	-917
286.091	-1450
286.150	-753
286.208	-1269
286.267	-974
286.325	-1308
286.383	-1258
286.442	-1601
286.500	-1318
286.558	-1420
286.616	-970
286.675	-342
286.733	-1081
286.791	-2041
286.850	-764
286.908	-1621
286.966	-1010
287.024	-1412
287.083	-1142
287.141	-1666
287.199	-1570
287.257	-1437
287.315	-185
287.374	-1773
287.432	-1179
287.490	-1583
287.548	-1849
287.606	-1994
287.664	-1188
287.723	-1910
287.781	-805
287.839	-1093
287.897	-1074
287.955	-1867
288.013	-48
288.071	-1210
288.129	991
288.187	7765
288.245	3212
288.303	-907
288.361	-760
288.419	-1353
288.477	-1155
288.535	-1496
288.593	-1196
288.651	-1974
288.709	-1569
288.767	-1577
288.825	-1685
288.883	-2286
288.941	-1144
288.999	-1788
289.057	-936
289.115	-1826
289.173	-725
289.231	-1419
289.289	-1492
289.346	-1883
289.404	-1263
289.462	-2204
289.520	-1381
289.578	-2011
289.636	-776
289.694	-2258
289.751	-1281
289.809	-2045
289.867	-1986
289.925	-1444
289.983	-1874
290.040	-1448
290.098	-1024
290.156	-1306
290.214	-1432
290.271	-2142
290.329	-1151
290.387	-1763
290.444	-646
290.502	-1800
290.560	-1013
290.617	-1703
290.675	-1185
290.733	-1827
290.790	-1945
290.848	-1023
290.906	-1403
290.963	-1118
291.021	-2133
291.078	-2122
291.136	-1193
291.194	-2508
291.251	-746
291.309	-1799
291.366	-1027
291.424	-1583
291.481	-1339
291.539	-2207
291.596	-1046
291.654	-1780
291.711	-1179
291.769	-1506
291.826	-697
291.884	-922
291.941	-1848
291.999	-1561
292.056	-2003
292.114	-1869
292.171	-1141
292.228	-1928
292.286	-1891
292.343	-1884
292.401	-2156
292.458	-1872
292.515	-1533
292.573	-1645
292.630	-1736
292.687	-1434
292.745	-1347
292.802	-2473
292.859	-1254
292.917	-792
292.974	-885
293.031	-1517
293.089	-1276
293.146	-1730
293.203	-1125
293.260	-1993
293.318	-1354
293.375	-2000
293.432	-1909
293.489	-1216
293.546	-1977
293.604	-1280
293.661	-349
293.718	110
293.775	-278
293.832	-154
293.889	-1805
293.947	-960
294.004	-1639
294.061	-2218
294.118	-863
294.175	-1212
294.232	-277
294.289	-1158
294.346	-1585
294.403	-890
294.460	-2115
294.517	-1900
294.574	-1227
294.631	-1994
294.688	-1809
294.745	-2119
294.802	840
294.859	-342
294.916	-930
294.973	-1690
295.030	-1229
295.087	-2154
295.144	-1790
295.201	-1505
295.258	-1932
295.315	-2146
295.372	-822
295.429	-1854
295.486	-1264
295.542	-1640
295.599	-1516
295.656	-1876
295.713	-1250
295.770	-990
295.827	-1624
295.883	-2004
295.940	-1598
295.997	-2417
296.054	-1715
296.111	-992
296.167	-1464
296.224	-2303
296.281	-1748
296.338	-2361
296.394	-1839
296.451	-2449
296.508	-1463
296.564	-1655
296.621	-1388
296.678	-621
296.734	57
296.791	-1927
296.848	-967
296.904	-2021
296.961	-1519
297.018	-1583
297.074	-953
297.131	-1133
297.187	-1553
297.244	-732
297.301	-966
297.357	-145
297.414	-1228
297.470	-1217
297.527	-1227
297.583	-1370
297.640	-829
297.696	-2030
297.753	-1935
297.809	-2255
297.866	-2314
297.922	-1905
297.979	-1385
298.035	-1934
298.092	-2085
298.148	-1791
298.204	-501
298.261	-2149
298.317	-923
298.374	-69
298.430	-1139
298.486	-2452
298.543	-1500
298.599	-2101
298.656	-1963
298.712	-1978
298.768	-1699
298.824	-1297
298.881	-1811
298.937	-1108
298.993	-1702
299.050	-1479
299.106	-1373
299.162	-1489
299.218	-1483
299.275	-1631
299.331	-1543
299.387	-1501
299.443	-474
299.500	495
299.556	-87
299.612	-1631
299.668	-709
299.724	-1080
299.780	112
299.837	-1167
299.893	-1416
299.949	-483
300.005	495
300.061	-77
300.117	2200
300.173	136
300.229	-738
300.285	-1539
300.341	-1346
300.397	-1514
300.453	-1479
300.510	-2319
300.566	-1551
300.622	-1065
300.678	824
300.734	1667
300.790	1497
300.845	-698
300.901	-305
300.957	20
301.013	362
301.069	-1035
301.125	-1085
301.181	-1724
301.237	-1245
301.293	-1868
301.349	-1436
301.405	-1500
301.461	-1622
301.516	-1600
301.572	-1537
301.628	-1685
301.684	-1705
301.740	-2280
301.796	-1472
301.851	-1499
301.907	-1162
301.963	-781
302.019	-673
302.074	1115
302.130	2611
302.186	-26
302.242	-649
302.297	-1537
302.353	-1890
302.409	-1689
302.464	-809
302.520	-1634
302.576	-973
302.631	322
302.687	-1195
302.743	-2687
302.798	-1696
302.854	-2138
302.910	-782
302.965	-1666
303.021	-976
303.076	-1011
303.132	-2089
303.187	-1864
303.243	-1205
303.299	-1766
303.354	-2597
303.410	-1836
303.465	-1791
303.521	-2631
303.576	-1021
303.632	-1305
303.687	-1057
303.743	-1389
303.798	-107
303.853	-2060
303.909	-1354
303.964	-2115
304.020	-1525
304.075	-1304
304.130	-1892
304.186	-1641
304.241	287
304.297	-1318
304.352	-1382
304.358	-1375
304.407	-1321
304.449	-924
304.463	-787
304.518	-1420
304.539	-1582
304.573	-1872
304.629	-1769
304.630	-1772
304.684	-1945
304.720	-1523
304.739	-1317
304.794	-693
304.811	-635
304.850	-500
304.902	-1587
304.905	-1659
304.960	-1256
304.992	-1615
305.015	-1885
305.071	-1671
305.083	-1396
305.126	-414
305.173	-1145
305.181	-1265
305.236	-1116
305.264	-1240
305.292	-1392
305.347	-1252
305.354	-1311
305.402	-1605
305.445	-1849
305.457	-1938
305.512	-1889
305.535	-1839
305.567	-1718
305.622	-1188
305.626	-1186
305.678	-1085
305.716	-1215
305.733	-1313
305.788	-130
305.807	-364
305.843	-699
305.897	-6
305.898	2
305.953	311
305.988	-118
306.008	-345
306.063	-723
306.078	-784
306.118	-884
306.168	-1356
306.173	-1394
306.228	-685
306.259	-755
306.283	-830
306.338	-898
306.349	-895
306.393	-968
306.440	-962
306.448	-915
306.503	-938
306.530	-685
306.558	-426
306.613	-536
306.620	-471
306.668	-111
306.711	-790
306.723	-1038
306.778	-371
306.801	-523
306.833	-594
306.888	-162
306.892	-222
306.943	-1027
306.982	-511
306.997	-271
307.052	-1014
307.072	-859
307.107	-620
307.162	-1002
307.163	-1001
307.217	-340
307.253	-325
307.272	-411
307.327	-447
307.343	-598
307.381	-846
307.434	-527
307.436	-498
307.491	-284
307.524	133
307.546	373
307.600	-84
307.614	71
307.655	206
307.704	-574
307.710	-600
307.765	-530
307.795	-433
307.819	-473
307.874	-138
307.885	-190
307.929	-176
307.975	10
307.984	59
308.038	474
308.065	826
308.093	2656
308.148	5831
308.156	6740
308.202	11125
308.246	14681
308.257	14232
308.312	7343
308.336	4254
308.366	2707
308.421	860
308.426	724
308.475	430
308.517	452
308.530	340
308.585	32
308.607	-139
308.639	200
308.694	789
308.697	817
308.748	897
308.787	1192
308.803	1255
308.857	754
308.877	710
308.912	839
308.967	988
308.967	987
309.021	2359
309.058	3388
309.076	4267
309.130	7012
309.148	7992
309.185	14273
309.238	24138
309.239	24233
309.293	27762
309.328	27060
309.348	23735
309.402	11834
309.418	8623
309.457	6175
309.508	4217
309.511	4246
309.566	5087
309.598	6094
309.620	7923
309.674	12613
309.688	13906
309.729	13037
309.778	10387
309.783	10115
309.837	6890
309.868	4670
309.892	4064
309.946	3690
309.959	3508
310.001	2830
310.049	2399
310.055	2372
310.109	1994
310.139	1810
310.163	1473
310.218	535
310.229	378
310.272	468
310.319	436
310.326	377
310.381	130
310.409	-154
310.435	-220
310.489	-63
310.499	-77
310.543	-35
310.589	253
310.598	299
310.652	112
310.679	261
310.706	463
310.760	439
310.769	448
310.814	532
310.859	683
310.868	738
310.923	937
310.948	941
310.977	730
311.031	556
311.038	520
311.085	520
311.128	383
311.139	448
311.193	870
311.218	1039
311.247	984
311.301	851
311.308	826
311.356	780
311.398	720
311.410	715
311.464	672
311.488	630
311.518	723
311.572	857
311.578	866
311.626	494
311.668	200
311.680	303
311.734	617
311.758	796
311.788	839
311.842	857
311.847	855
311.896	1100
311.937	1250
311.950	1246
312.004	1231
312.027	1208
312.058	1064
312.112	798
312.117	769
312.165	836
312.207	890
312.297	898
312.386	39
312.476	1195
312.566	1222
312.656	539
312.745	672
312.835	611
312.925	858
313.015	991
313.104	600
313.194	1603
313.284	503
313.374	875
313.463	451
313.553	1606
313.643	1136
313.732	1399
313.822	242
313.912	1841
314.001	942
314.091	1532
314.180	1865
314.270	1575
314.360	1002
314.449	1048
314.539	734
314.628	1331
314.718	1501
314.808	1588
314.897	991
314.987	1424
315.076	981
315.166	1714
315.255	1078
315.345	1070
315.434	1356
315.524	1672
315.613	2035
315.703	713
315.792	3916
315.881	9500
315.971	3417
316.060	2769
316.150	1962
316.239	1832
316.328	960
316.418	1236
316.507	1191
316.597	2576
316.686	2417
316.775	2115
316.865	1724
316.954	1086
317.043	1229
317.133	954
317.222	1172
317.311	1028
317.400	-208
317.490	1587
317.579	971
317.668	1980
317.757	2212
317.847	5304
317.936	14764
318.025	4920
318.114	3664
318.203	1050
318.293	1771
318.382	2505
318.471	2369
318.560	2791
318.649	4015
318.738	1725
318.828	1518
318.917	1166
319.006	1332
319.095	1943
319.184	3708
319.273	1934
319.362	1302
319.451	328
319.540	1291
319.629	1559
319.718	1093
319.807	1276
319.896	1108
319.985	5783
320.074	2198
320.163	997
320.252	223
320.341	1588
320.430	1203
320.519	1949
320.608	1364
320.697	1769
320.786	1603
320.875	2220
320.964	1703
321.053	2262
321.142	1860
321.230	2709
321.319	2309
321.408	3995
321.497	3025
321.586	3456
321.675	2177
321.764	2648
321.852	1251
321.941	2357
322.030	2044
322.119	2362
322.207	3472
322.296	3915
322.385	3520
322.474	4021
322.562	5014
322.651	3277
322.740	2052
322.829	1457
322.917	1822
323.006	2450
323.095	1444
323.183	1233
323.272	1991
323.361	2116
323.449	3662
323.538	1470
323.626	1466
323.715	1296
323.804	747
323.892	1885
323.981	960
324.069	1974
324.158	1049
324.246	1850
324.335	460
324.424	588
324.512	1517
324.601	1296
324.689	1169
324.778	2228
324.866	1133
324.954	1475
325.043	551
325.131	908
325.220	1775
325.308	1161
325.397	967
325.485	746
325.574	1156
325.662	969
325.750	-229
325.839	912
325.927	-108
326.015	1334
326.104	598
326.192	1625
326.280	510
326.369	680
326.457	49
326.545	955
326.634	789
326.722	990
326.810	565
326.898	1473
326.987	1091
327.075	718
327.163	2156
327.251	737
327.340	711
327.428	2556
327.516	1411
327.604	1681
327.692	1721
327.781	1055
327.869	963
327.957	878
328.045	764
328.133	1688
328.221	498
328.309	713
328.397	622
328.485	966
328.574	1671
328.662	2242
328.750	1034
328.838	691
328.926	1391
329.014	1134
329.102	491
329.190	1799
329.278	495
329.366	1073
329.454	-38
329.542	1065
329.630	757
329.718	1229
329.806	328
329.893	1484
329.981	399
330.069	1208
330.157	1566
330.245	1802
330.333	1372
330.421	1493
330.509	744
330.597	867
330.684	1084
330.772	351
330.860	541
330.948	867
331.036	862
331.123	609
331.211	143
331.299	1651
331.387	1179
331.475	1063
331.562	796
331.650	668
331.738	477
331.825	970
331.913	212
332.001	535
332.089	1304
332.176	1220
332.264	798
332.352	846
332.439	646
332.527	1048
332.614	523
332.702	988
332.790	1216
332.877	1002
332.965	2681
333.052	2191
333.140	1702
333.228	5510
333.315	1352
333.403	851
333.490	2065
333.578	2310
333.665	7732
333.753	3407
333.840	1594
333.928	1121
334.015	1226
334.103	2343
334.190	5105
334.278	3371
334.365	4426
334.452	3825
334.540	2489
334.627	2013
334.715	2786
334.802	4456
334.889	8449
334.977	12302
335.064	7714
335.151	2566
335.239	2369
335.326	2348
335.413	4443
335.501	4885
335.588	2531
335.675	2045
335.762	2734
335.850	3138
335.937	5121
336.024	8602
336.111	15694
336.199	15140
336.286	6089
336.373	3679
336.460	1496
336.547	1566
336.635	875
336.722	1732
336.809	1376
336.896	1617
336.983	2138
337.070	3568
337.157	4755
337.245	2981
337.332	2033
337.419	947
337.506	799
337.593	1509
337.680	1131
337.767	3628
337.854	2006
337.941	1811
338.028	810
338.115	-504
338.202	1349
338.289	1042
338.376	2050
338.463	1128
338.550	1988
338.637	2491
338.724	1044
338.811	1591
338.898	752
338.984	883
339.071	258
339.158	1686
339.245	459
339.332	971
339.419	1598
339.506	1307
339.593	362
339.679	1408
339.766	201
339.853	857
339.940	998
340.027	907
340.113	380
340.200	767
340.287	208
340.374	-376
340.460	-14
340.547	656
340.634	1426
340.720	1834
340.807	959
340.894	494
340.980	887
341.067	415
341.154	1174
341.240	1232
341.327	250
341.414	1205
341.500	259
341.587	1703
341.674	566
341.760	1524
341.847	672
341.933	945
342.020	-151
342.106	628
342.193	545
342.279	379
342.366	807
342.452	1271
342.539	902
342.625	695
342.712	1887
342.798	1033
342.885	1007
342.971	503
343.058	344
343.144	644
343.230	877
343.317	1252
343.403	-409
343.490	218
343.576	-51
343.662	824
343.749	911
343.835	1616
343.921	661
344.008	4471
344.094	8958
344.180	2551
344.267	-7
344.353	2323
344.439	2129
344.525	1235
344.612	2176
344.698	1282
344.784	800
344.870	1091
344.957	731
345.043	1974
345.129	-654
345.215	1181
345.301	871
345.387	220
345.474	765
345.560	606
345.646	325
345.732	1260
345.818	-111
345.904	409
345.990	1292
346.076	721
346.162	930
346.249	1418
346.335	336
346.421	825
346.507	779
346.593	3146
346.679	-295
346.765	1328
346.851	447
346.937	1123
347.023	1183
347.108	741
347.194	701
347.280	613
347.366	658
347.452	2780
347.538	3599
347.624	5032
347.710	1983
347.796	1479
347.882	572
347.967	1533
348.053	-317
348.139	299
348.225	1319
348.311	-138
348.397	773
348.482	1473
348.568	590
348.654	758
348.740	3599
348.825	2475
348.911	2171
348.997	2881
349.083	3856
349.168	827
349.254	527
349.340	1104
349.425	632
349.511	1007
349.597	385
349.682	1025
349.768	2440
349.854	773
349.939	1358
350.025	358
350.110	494
350.196	458
350.282	-72
350.367	1777
350.453	1106
350.538	946
350.624	758
350.709	1578
350.795	403
350.880	219
350.966	1055
351.051	981
351.137	696
351.222	1143
351.308	1115
351.393	1005
351.479	651
351.564	420
351.649	1085
351.735	755
351.820	229
351.906	405
351.991	-207
352.076	1317
352.162	1368
352.247	1406
352.332	822
352.418	1017
352.503	1411
352.588	2777
352.673	1275
352.759	1216
352.844	-11
352.929	721
353.014	303
353.100	2165
353.185	1014
353.270	834
353.355	1362
353.441	1696
353.526	790
353.611	495
353.696	797
353.781	1657
353.866	-488
353.952	1437
354.037	149
354.122	1290
354.207	515
354.292	868
354.377	627
354.462	1436
354.547	304
354.632	1548
354.717	1536
354.802	715
354.887	1079
354.972	407
355.057	911
355.142	190
355.227	1827
355.312	595
355.397	-110
355.482	1368
355.567	-27
355.652	1908
355.737	829
355.822	2287
355.907	1422
355.991	1941
356.076	460
356.161	856
356.246	757
356.331	984
356.416	-76
356.501	5100
356.585	3686
356.670	40
356.755	1961
356.840	986
356.924	3298
357.009	8654
357.094	3840
357.179	1127
357.263	688
357.348	2074
357.433	1104
357.517	1339
357.602	325
357.687	851
357.771	1038
357.856	2753
357.941	2451
358.025	2925
358.110	10526
358.195	4971
358.279	772
358.364	1198
358.448	2294
358.533	4071
358.617	1923
358.702	3749
358.787	1290
358.871	1166
358.956	1576
359.040	650
359.125	52
359.209	1445
359.294	1989
359.378	3402
359.462	1693
359.547	1316
359.631	571
359.716	-101
359.800	398
359.885	2062
359.969	863
360.053	1387
360.138	781
360.222	337
360.306	457
360.391	1694
360.475	1821
360.559	2670
360.644	1671
360.728	38
360.812	3681
360.896	7307
360.981	1960
361.065	570
361.149	1295
361.233	565
361.318	-12
361.402	1078
361.486	1581
361.570	481
361.654	804
361.739	946
361.823	3680
361.907	7336
361.991	1939
362.075	1643
362.159	1298
362.243	4372
362.327	9884
362.411	18502
362.495	5411
362.580	2326
362.664	2331
362.748	2099
362.832	4366
362.916	7980
363.000	27892
363.084	44498
363.168	19282
363.252	4922
363.336	3808
363.420	2872
363.503	4830
363.587	4696
363.671	1979
363.755	613
363.839	3219
363.923	240
364.007	2050
364.091	2766
364.175	3765
364.258	16883
364.342	31019
364.426	61725
364.510	30713
364.594	9639
364.677	4656
364.761	5636
364.845	4329
364.929	2029
365.013	1100
365.096	1977
365.180	686
365.264	1841
365.347	7532
365.431	2407
365.515	69
365.598	176
365.682	2471
365.766	92
365.849	805
365.933	1320
366.017	2339
366.100	-88
366.184	259
366.267	1129
366.351	1100
366.435	571
366.518	61
366.602	1034
366.685	904
366.769	1224
366.852	548
366.936	1043
367.019	931
367.103	76
367.186	1427
367.270	658
367.353	-116
367.436	2181
367.520	1276
367.603	1588
367.687	-541
367.770	980
367.853	1905
367.937	2678
368.020	2611
368.104	435
368.187	1370
368.270	1231
368.353	708
368.437	1373
368.520	1285
368.603	872
368.687	664
368.770	3114
368.853	1125
368.936	1639
369.020	1826
369.103	1022
369.186	-166
369.269	-85
369.352	1462
369.436	649
369.519	-70
369.602	-635
369.685	2603
369.768	394
369.851	463
369.934	175
370.018	-564
370.101	-105
370.184	3045
370.267	1058
370.350	1380
370.433	1449
370.516	3977
370.599	6740
370.682	309
370.765	3774
370.848	3170
370.931	3256
371.014	3081
371.097	-202
371.180	1460
371.263	1708
371.346	-279
371.429	2958
371.511	1500
371.594	1079
371.677	1942
371.760	3433
371.843	1616
371.926	6309
372.009	10824
372.091	8393
372.174	3369
372.257	6907
372.340	3211
372.423	3287
372.505	4702
372.588	2008
372.671	2650
372.754	3278
372.836	2671
372.919	3809
373.002	4002
373.085	2198
373.167	3013
373.250	2679
373.332	4834
373.415	7385
373.498	11314
373.580	6278
373.663	10625
373.746	10888
373.828	2165
373.911	2892
373.993	474
374.076	3890
374.159	1894
374.241	2131
374.324	3505
374.406	3388
374.489	3525
374.571	9715
374.654	3365
374.736	2288
374.819	5254
374.901	10638
374.983	9072
375.066	2280
375.148	1202
375.231	3133
375.313	5865
375.395	1967
375.478	1492
375.560	2357
375.643	1959
375.725	3046
375.807	7018
375.890	6534
375.972	476
376.054	1270
376.136	2197
376.219	825
376.301	3070
376.383	5143
376.465	2299
376.548	1398
376.630	1577
376.712	5354
376.794	1752
376.877	1055
376.959	-158
377.041	830
377.123	1091
377.205	1394
377.287	439
377.369	1255
377.452	1124
377.534	1213
377.616	1125
377.698	678
377.780	204
377.862	1259
377.944	1629
378.026	-204
378.108	1908
378.190	1311
378.272	1842
378.354	547
378.436	548
378.518	1134
378.600	1368
378.682	1507
378.764	1416
378.846	2269
378.928	536
379.010	505
379.091	997
379.173	1283
379.255	408
379.337	137
379.419	690
379.501	3759
379.583	1289
379.664	371
379.746	-5
379.828	3507
379.910	1489
379.991	3339
380.073	938
380.155	1662
380.237	913
380.318	835
380.400	519
380.482	2484
380.564	1174
380.645	1194
380.727	671
380.809	2470
380.890	204
380.972	-368
381.053	791
381.135	2385
381.217	757
381.298	3328
381.380	1540
381.461	2044
381.543	4942
381.624	6019
381.706	1642
381.787	1283
381.869	1309
381.951	3558
382.032	9280
382.113	8360
382.195	901
382.276	3968
382.358	2555
382.439	5270
382.521	7627
382.602	11779
382.684	6718
382.765	11056
382.846	24667
382.928	58638
383.009	30793
383.090	24040
383.172	71825
383.253	92954
383.334	30038
383.416	15758
383.497	9876
383.578	10750
383.659	19598
383.741	61219
383.822	118483
383.903	61620
383.984	17649
384.066	14075
384.147	7603
384.228	4002
384.309	3955
384.390	3505
384.471	3294
384.553	2720
384.634	2334
384.715	4013
384.796	1779
384.877	1472
384.958	3995
385.039	2280
385.120	2110
385.201	3404
385.282	2506
385.363	2671
385.444	2218
385.525	3016
385.606	4781
385.687	5225
385.768	2166
385.849	1073
385.930	5909
386.011	9454
386.092	2832
386.173	2465
386.254	816
386.335	2422
386.416	501
386.496	2824
386.577	2257
386.658	1681
386.739	1076
386.820	2270
386.901	1036
386.981	1810
387.062	1334
387.143	1980
387.224	3786
387.304	3743
387.385	4320
387.466	1870
387.547	2762
387.627	2043
387.708	2946
387.789	6077
387.869	4877
387.950	3843
388.031	1274
388.111	-245
388.192	3348
388.273	3535
388.353	1863
388.434	2029
388.514	2650
388.595	5782
388.676	4479
388.756	2339
388.837	2628
388.917	2107
388.998	-632
389.078	1828
389.159	1050
389.239	59
389.320	2851
389.400	-78
389.480	2504
389.561	1964
389.641	2688
389.722	1582
389.802	293
389.883	1923
389.963	4963
390.043	1738
390.124	68
390.204	1868
390.284	2267
390.365	1246
390.445	2850
390.525	3608
390.605	4038
390.686	1495
390.766	1911
390.846	2031
390.927	131
391.007	-334
391.087	1479
391.167	687
391.247	491
391.328	2286
391.408	1884
391.488	2071
391.568	-375
391.648	1490
391.728	1753
391.808	1946
391.888	1403
391.969	2550
392.049	2391
392.129	2567
392.209	2352
392.289	5656
392.369	3310
392.449	2374
392.529	2325
392.609	3838
392.689	3978
392.769	5402
392.849	6014
392.929	7921
393.009	10713
393.089	11854
393.169	23009
393.248	63145
393.328	161159
393.408	155439
393.488	59812
393.568	22094
393.648	10549
393.728	6594
393.807	3939
393.887	4807
393.967	4130
394.047	2912
394.127	1949
394.206	3721
394.286	8627
394.366	39567
394.446	40038
394.525	8200
394.605	2454
394.685	2874
394.764	3779
394.844	6137
394.924	6008
395.003	2571
395.083	1661
395.163	1661
395.242	797
395.322	1900
395.402	-246
395.481	3001
395.561	2407
395.640	8801
395.720	15140
395.799	8900
395.879	4242
395.958	4154
396.038	12139
396.117	52143
396.197	53415
396.276	13860
396.356	3881
396.435	4685
396.515	5399
396.594	6912
396.673	17832
396.753	62681
396.832	143146
396.912	98090
396.991	26334
397.070	11208
397.150	4881
397.229	6375
397.308	11199
397.388	21384
397.467	9633
397.546	3468
397.625	-41
397.705	3197
397.784	1757
397.863	1728
397.942	1189
398.022	2146
398.101	964
398.180	4559
398.259	1429
398.338	2214
398.417	297
398.497	659
398.576	1006
398.655	-231
398.734	1053
398.813	807
398.892	1435
398.971	4868
399.050	709
399.129	-230
399.208	408
399.287	2068
399.366	249
399.445	595
399.524	229
399.603	-258
399.682	674
399.761	754
399.840	5482
399.919	3581
399.998	489
400.077	-419
400.156	-322
400.235	2223
400.313	-356
400.392	-327
400.471	1576
400.550	2270
400.629	-400
400.708	1894
400.786	262
400.865	676
400.944	-592
401.023	2180
401.102	339
401.180	682
401.259	393
401.338	-32
401.416	961
401.495	-1390
401.574	1042
401.652	-180
401.731	809
401.810	-840
401.888	499
401.967	283
402.046	109
402.124	216
402.203	-1021
402.281	597
402.360	-331
402.438	1675
402.517	-656
402.596	239
402.674	182
402.753	227
402.831	291
402.910	1271
402.988	159
403.066	1908
403.145	2223
403.223	1790
403.302	2216
403.380	2372
403.459	2331
403.537	271
403.615	319
403.694	55
403.772	1757
403.850	420
403.929	-314
404.007	-65
404.085	1159
404.164	559
404.242	-311
404.320	3815
404.398	8009
404.477	5210
404.555	7298
404.633	6012
404.711	5960
404.789	4658
404.868	474
404.946	-542
405.024	298
405.102	312
405.180	-649
405.258	-908
405.336	1087
405.415	-457
405.493	796
405.571	432
405.649	-533
405.727	-463
405.805	665
405.883	768
405.961	1212
406.039	231
406.117	-1558
406.195	74
406.273	-801
406.351	4384
406.429	1874
406.507	45
406.585	-824
406.663	125
406.740	-248
406.818	-635
406.896	-581
406.974	443
407.052	-761
407.130	2817
407.208	2856
407.285	1106
407.363	-1018
407.441	-222
407.519	-113
407.596	488
407.674	-245
407.752	1091
407.830	1250
407.907	403
407.985	-182
408.063	627
408.141	-258
408.218	725
408.296	-1468
408.373	194
408.451	27
408.529	244
408.606	-466
408.684	-68
408.762	498
408.839	191
408.917	569
408.994	938
409.072	-871
409.149	561
409.227	2779
409.304	3503
409.382	3503
409.459	4547
409.537	6348
409.614	4117
409.692	3347
409.769	2970
409.846	5557
409.924	7290
410.001	2343
410.079	2329
410.156	2258
410.233	1047
410.311	-30
410.388	1158
410.465	1086
410.543	-524
410.620	947
410.697	1811
410.775	746
410.852	39
410.929	1313
411.006	2165
411.083	236
411.161	773
411.238	791
411.315	1149
411.392	26
411.469	1331
411.547	-218
411.624	-1168
411.701	41
411.778	117
411.855	-574
411.932	255
412.009	553
412.086	691
412.163	347
412.240	243
412.317	413
412.394	434
412.471	722
412.548	-143
412.625	-272
412.702	-114
412.779	347
412.856	-321
412.933	-474
413.010	1122
413.087	599
413.164	449
413.241	691
413.318	67
413.395	816
413.471	4
413.548	458
413.625	1127
413.702	-702
413.779	144
413.855	26
413.932	161
414.009	-1076
414.086	302
414.162	669
414.239	107
414.316	-202
414.393	2703
414.469	-1152
414.546	376
414.623	592
414.699	502
414.776	662
414.853	16
414.929	-133
415.006	419
415.082	-199
415.159	466
415.236	75
415.312	126
415.389	274
415.465	-535
415.542	-133
415.618	-670
415.695	-108
415.771	-379
415.848	-894
415.924	232
416.000	-328
416.077	1571
416.153	-741
416.230	-515
416.306	-679
416.383	-109
416.459	202
416.535	33
416.612	-511
416.688	-310
416.764	553
416.841	-730
416.917	-252
416.993	388
417.069	-194
417.146	-629
417.222	-379
417.298	-95
417.374	-1127
417.451	-179
417.527	-408
417.603	3
417.679	-189
417.755	424
417.831	-619
417.908	640
417.984	-342
418.060	-893
418.136	81
418.212	217
418.288	-144
418.364	553
418.440	-364
418.516	196
418.592	140
418.668	-70
418.744	156
418.820	96
418.896	335
418.972	-782
419.048	-886
419.124	915
419.200	-1009
419.276	225
419.352	-780
419.428	275
419.504	-320
419.579	744
419.655	-524
419.731	769
419.807	389
419.883	430
419.959	535
420.034	739
420.110	777
420.186	1049
420.262	1973
420.337	695
420.413	680
420.489	715
420.565	2173
420.640	711
420.716	1288
420.792	-513
420.867	1233
420.943	456
421.019	915
421.094	587
421.170	339
421.245	1513
421.321	1477
421.397	1166
421.472	2475
421.548	2609
421.623	2856
421.699	3081
421.774	3267
421.850	3485
421.925	5290
422.001	5041
422.076	7011
422.152	9005
422.227	12096
422.302	18174
422.378	26089
422.453	44313
422.529	76688
422.604	102043
422.679	89058
422.755	96893
422.830	79191
422.905	47555
422.981	29614
423.056	20146
423.131	15410
423.207	10873
423.282	7720
423.357	7955
423.432	5848
423.508	4818
423.583	3971
423.658	4079
423.733	3672
423.808	2700
423.883	2151
423.959	2982
424.034	2804
424.109	2748
424.184	2718
424.259	1997
424.334	1491
424.409	772
424.484	1312
424.559	1002
424.634	15
424.709	770
424.784	687
424.859	1514
424.934	150
425.009	1440
425.084	1589
425.159	263
425.234	838
425.309	-332
425.384	1300
425.459	688
425.534	1012
425.609	-187
425.683	-240
425.758	512
425.833	238
425.908	1462
425.983	469
426.058	2469
426.132	-121
426.207	74
426.282	1033
426.357	-285
426.431	137
426.506	1330
426.581	826
426.655	400
426.730	-529
426.805	-694
426.879	460
426.954	-168
427.029	239
427.103	1329
427.178	2644
427.253	748
427.327	156
427.402	1287
427.476	1655
427.551	347
427.625	-269
427.700	1224
427.774	-735
427.849	180
427.923	106
427.998	421
428.072	-927
428.147	2380
428.221	9321
428.296	30618
428.370	15557
428.444	1313
428.519	568
428.593	630
428.667	661
428.742	1888
428.816	2758
428.890	19592
428.965	27959
429.039	7042
429.113	643
429.188	300
429.262	-106
429.336	186
429.410	458
429.485	104
429.559	1172
429.633	1303
429.707	623
429.781	2407
429.855	16956
429.930	24760
430.004	6097
430.078	4975
430.152	10452
430.226	39526
430.300	37752
430.374	6671
430.448	2600
430.522	1578
430.596	2711
430.670	6133
430.744	23433
430.818	25968
430.892	4358
430.966	826
431.040	442
431.114	-75
431.188	-910
431.262	-280
431.336	-1043
431.410	142
431.484	-831
431.557	672
431.631	-198
431.705	1120
431.779	7636
431.853	28914
431.927	17851
432.000	2498
432.074	516
432.148	-331
432.222	-594
432.295	-812
432.369	-33
432.443	-410
432.516	749
432.590	3014
432.664	254
432.737	-802
432.811	-226
432.885	-163
432.958	-318
433.032	-597
433.106	-679
433.179	-320
433.253	-582
433.326	-682
433.400	-1064
433.473	-315
433.547	-917
433.620	-755
433.694	-860
433.767	-223
433.841	-886
433.914	-539
433.988	-714
434.061	103
434.134	-591
434.208	-962
434.281	-1016
434.355	-144
434.428	-580
434.501	-412
434.575	-464
434.648	-720
434.721	-912
434.795	-439
434.868	-1269
434.941	-566
435.014	-1302
435.088	-302
435.161	89
435.234	724
435.307	463
435.381	463
435.454	771
435.527	2576
435.600	2705
435.673	2106
435.746	896
435.819	695
435.892	-51
435.966	100
436.039	-326
436.112	637
436.185	-470
436.258	-879
436.331	-544
436.404	-344
436.477	-1085
436.550	-1033
436.623	-129
436.696	-400
436.769	-635
436.842	-801
436.915	-743
436.987	-1185
437.060	-649
437.133	270
437.206	-1216
437.279	254
437.352	-176
437.425	-777
437.498	-1115
437.570	-31
437.643	-525
437.716	-1245
437.789	-916
437.861	-818
437.934	-731
438.007	-625
438.080	-934
438.152	-474
438.225	-67
438.298	1574
438.370	5574
438.443	2405
438.516	-177
438.588	-233
438.661	-928
438.734	-1470
438.806	-1055
438.879	566
438.951	-802
439.024	156
439.096	-777
439.169	-1062
439.241	-704
439.314	-703
439.386	-749
439.459	-314
439.531	-1334
439.604	-996
439.676	-486
439.749	-788
439.821	-548
439.893	-323
439.966	-938
440.038	-363
440.110	-713
440.183	-706
440.255	-1211
440.327	74
440.400	12
440.472	1893
440.544	676
440.617	-8
440.689	-145
440.761	-215
440.833	270
440.905	253
440.978	-275
441.050	-211
441.122	-357
441.194	-358
441.266	-1184
441.338	-587
441.411	202
441.483	-168
441.555	524
441.627	-94
441.699	-82
441.771	-175
441.843	-800
441.915	-222
441.987	-536
442.059	-315
442.131	-758
442.203	651
442.275	736
442.347	2354
442.419	3224
442.491	23023
442.563	48856
442.635	17338
442.706	2654
442.778	1346
442.850	285
442.922	11
442.994	514
443.066	-155
443.137	587
443.209	1365
443.281	2242
443.353	6186
443.425	25412
443.496	76093
443.568	75031
443.640	28170
443.711	5490
443.783	1874
443.855	1205
443.926	1119
443.998	-133
444.070	376
444.141	128
444.213	-449
444.285	-35
444.356	455
444.428	-139
444.499	-170
444.571	-636
444.642	-627
444.714	-194
444.785	238
444.857	675
444.928	730
445.000	621
445.071	632
445.143	1127
445.214	2965
445.285	4305
445.357	13878
445.428	48353
445.500	88720
445.571	68331
445.642	42552
445.714	12749
445.785	3845
445.856	335
445.928	1090
445.999	676
446.070	104
446.141	-187
446.213	173
446.284	-256
446.355	757
446.426	204
446.497	-49
446.569	-565
446.640	70
446.711	93
446.782	-717
446.853	-781
446.924	166
446.995	-82
447.066	-238
447.138	-187
447.209	384
447.280	-1319
447.351	-793
447.422	-537
447.493	-804
447.564	-899
447.635	-322
447.706	-671
447.777	-1356
447.847	-404
447.918	-161
447.989	-127
448.060	-38
448.131	-240
448.202	803
448.273	-660
448.344	7
448.414	47
448.485	614
448.556	189
448.627	-546
448.698	455
448.768	-723
448.839	-433
448.910	-307
448.981	-107
449.051	-134
449.122	-192
449.193	-768
449.263	-905
449.334	8
449.405	-722
449.475	-657
449.546	-543
449.616	-373
449.687	-235
449.758	-145
449.828	-1182
449.899	-714
449.969	-1132
450.040	-1011
450.110	-864
450.181	-180
450.251	-805
450.322	-1075
450.392	213
450.463	-213
450.533	-1172
450.604	-420
450.674	-895
450.744	748
450.815	-1129
450.885	631
450.955	224
451.026	-427
451.096	-435
451.166	112
451.237	-382
451.307	-137
451.377	-427
451.447	-438
451.518	-237
451.588	-654
451.658	-390
451.728	-365
451.799	-66
451.869	184
451.939	-449
452.009	-315
452.079	-359
452.149	-120
452.219	-422
452.289	-577
452.360	19
452.430	-153
452.500	-498
452.570	681
452.640	2458
452.710	6199
452.780	5865
452.850	2883
452.920	23
452.990	369
453.060	200
453.129	-472
453.199	-834
453.269	1219
453.339	1457
453.409	1709
453.479	2446
453.549	3056
453.619	2605
453.688	326
453.758	-227
453.828	-299
453.898	-737
453.968	-506
454.037	-221
454.087	-123
454.107	-87
454.168	-1141
454.177	-1307
454.247	-562
454.249	-570
454.316	-997
454.330	-984
454.386	-895
454.411	-870
454.456	-930
454.492	-246
454.525	390
454.574	276
454.595	219
454.655	-243
454.665	-316
454.734	-702
454.736	-687
454.804	-411
454.817	-292
454.873	85
454.898	62
454.943	93
454.979	-325
455.013	-797
455.060	-552
455.082	-398
455.141	-791
455.152	-860
455.221	391
455.222	405
455.291	926
455.303	758
455.360	-5
455.384	589
455.430	1568
455.465	952
455.499	354
455.546	154
455.569	59
455.627	-16
455.638	-43
455.707	-667
455.708	-658
455.777	-73
455.789	-84
455.846	-169
455.869	-281
455.916	-503
455.950	-595
455.985	-702
456.031	-715
456.054	-707
456.112	-49
456.124	103
456.193	-29
456.193	-35
456.262	-476
456.274	-314
456.332	364
456.355	198
456.401	-81
456.436	-144
456.470	-236
456.516	-26
456.540	119
456.597	-305
456.609	-435
456.678	92
456.678	90
456.747	732
456.759	542
456.817	-332
456.840	-365
456.886	-563
456.920	-253
456.955	35
457.001	23
457.024	65
457.082	-182
457.093	-207
457.162	836
457.163	840
457.232	-100
457.243	-76
457.301	121
457.324	-190
457.370	-577
457.405	142
457.439	710
457.485	354
457.508	188
457.566	225
457.577	250
457.646	1071
457.647	1078
457.715	2353
457.727	2782
457.784	5574
457.808	7899
457.853	10789
457.889	12053
457.922	11974
457.969	7132
457.991	6601
458.050	8842
458.060	9239
458.129	18163
458.130	18376
458.198	19128
458.211	16828
458.267	7762
458.292	5056
458.336	2780
458.372	2825
458.405	4327
458.453	6782
458.474	8516
458.533	16665
458.543	17439
458.611	30071
458.614	30129
458.680	18036
458.694	13988
458.749	4754
458.775	3237
458.818	1851
458.855	1201
458.887	683
458.936	233
458.955	96
459.016	196
459.024	240
459.093	1361
459.097	1323
459.162	-11
459.177	-77
459.230	25
459.257	189
459.299	577
459.338	595
459.368	359
459.418	124
459.437	206
459.499	695
459.505	693
459.574	346
459.579	341
459.643	313
459.659	236
459.711	200
459.740	343
459.780	449
459.820	508
459.849	500
459.900	459
459.917	558
459.981	544
459.986	467
460.054	115
460.061	58
460.123	823
460.141	1009
460.191	628
460.222	383
460.260	303
460.302	381
460.328	521
460.382	849
460.397	830
460.462	352
460.465	348
460.534	830
460.543	834
460.602	1798
460.623	2283
460.671	3840
460.703	5470
460.739	5170
460.783	3602
460.808	3015
460.864	981
460.876	794
460.944	493
460.945	482
461.013	305
461.024	194
461.081	125
461.104	353
461.150	460
461.184	372
461.218	615
461.264	870
461.286	793
461.345	559
461.355	586
461.423	945
461.425	948
461.491	284
461.505	223
461.559	573
461.585	569
461.628	589
461.665	871
461.696	1034
461.745	1142
461.764	1046
461.825	765
461.832	775
461.901	725
461.905	708
461.969	-62
461.985	-118
462.037	1021
462.065	1587
462.105	890
462.145	50
462.173	241
462.225	666
462.241	629
462.305	273
462.310	273
462.378	774
462.385	800
462.446	707
462.465	647
462.514	532
462.545	525
462.582	661
462.625	836
462.650	798
462.705	551
462.718	531
462.785	699
462.786	704
462.854	890
462.865	901
462.922	718
462.945	669
462.990	873
463.025	1018
463.058	967
463.104	808
463.126	760
463.184	929
463.194	993
463.262	1151
463.264	1161
463.330	954
463.344	837
463.398	1159
463.424	1456
463.466	803
463.504	74
463.533	255
463.583	648
463.601	764
463.663	1049
463.669	996
463.737	559
463.743	517
463.805	1094
463.823	1254
463.873	1243
463.903	1292
463.940	1349
463.982	1195
464.008	988
464.062	702
464.076	769
464.142	1188
464.144	1190
464.211	886
464.221	878
464.279	923
464.301	867
464.347	600
464.381	614
464.414	577
464.461	286
464.482	463
464.540	965
464.550	921
464.617	573
464.620	567
464.685	797
464.699	816
464.753	1261
464.779	1460
464.820	1383
464.859	1315
464.888	908
464.938	228
464.956	584
465.018	1778
465.023	1761
465.091	1613
465.098	1599
465.158	1503
465.177	1432
465.226	1478
465.257	1540
465.293	1148
465.336	634
465.361	921
465.416	1516
465.428	1491
465.495	1587
465.496	1588
465.563	1170
465.575	1157
465.631	1511
465.654	1617
465.698	1572
465.734	1490
465.765	1394
465.813	1229
465.833	1184
465.893	1117
465.900	1123
465.968	1122
465.972	1120
466.035	1340
466.052	1394
466.102	1015
466.131	803
466.170	905
466.210	1009
466.237	1020
466.290	1044
466.304	1060
466.369	1014
466.372	1005
466.439	804
466.449	756
466.506	1108
466.528	1276
466.573	1303
466.607	1232
466.641	1317
466.687	1578
466.708	1836
466.766	2440
466.775	2311
466.842	1339
466.845	1290
466.909	957
466.925	882
466.977	1168
467.004	1327
467.044	1327
467.083	1326
467.111	1729
467.163	2460
467.178	2168
467.242	944
467.245	989
467.312	1917
467.321	2040
467.379	2142
467.400	2169
467.446	1600
467.480	1188
467.559	2049
467.638	2399
467.717	993
467.796	1962
467.875	1090
467.955	1224
468.034	1769
468.113	2949
468.192	3151
468.271	2324
468.350	3472
468.429	4644
468.508	5652
468.588	3317
468.667	2216
468.746	1312
468.825	2210
468.904	1741
468.983	1664
469.062	1632
469.141	2332
469.220	1180
469.299	1368
469.378	606
469.456	2224
469.535	1856
469.614	1508
469.693	1400
469.772	2818
469.851	2208
469.930	1606
470.009	1888
470.088	1594
470.166	3566
470.245	5129
470.324	7292
470.403	4393
470.482	2339
470.560	1608
470.639	1952
470.718	1885
470.797	785
470.875	1946
470.954	947
471.033	2133
471.111	2015
471.190	1191
471.269	1605
471.347	1077
471.426	1859
471.505	1583
471.583	1437
471.662	1575
471.740	2241
471.819	611
471.898	1749
471.976	1224
472.055	991
472.133	1644
472.212	1439
472.290	457
472.369	520
472.447	1451
472.526	1040
472.604	1761
472.683	1311
472.761	1729
472.839	1216
472.918	1751
472.996	1321
473.075	1351
473.153	795
473.231	647
473.310	1029
473.388	799
473.466	1471
473.545	1817
473.623	2031
473.701	1678
473.780	1833
473.858	1000
473.936	2744
474.014	1501
474.093	1481
474.171	1679
474.249	2244
474.327	1994
474.405	467
474.484	1058
474.562	1090
474.640	1377
474.718	313
474.796	1646
474.874	2183
474.952	1291
475.030	1317
475.108	889
475.187	1107
475.265	1481
475.343	1271
475.421	776
475.499	655
475.577	950
475.655	1901
475.733	2009
475.811	1356
475.889	2296
475.966	1526
476.044	524
476.122	1469
476.200	1993
476.278	899
476.356	1295
476.434	1992
476.512	875
476.590	1235
476.667	1897
476.745	1258
476.823	991
476.901	839
476.979	1645
477.056	755
477.134	402
477.212	1687
477.290	1046
477.367	1104
477.445	1207
477.523	581
477.601	786
477.678	786
477.756	1695
477.834	1534
477.911	1296
477.989	1298
478.066	723
478.144	462
478.222	427
478.299	1049
478.377	1340
478.454	944
478.532	1231
478.609	1123
478.687	2206
478.764	1413
478.842	752
478.919	1089
478.997	1636
479.074	877
479.152	1475
479.229	1780
479.307	891
479.384	1204
479.461	797
479.539	1309
479.616	1047
479.694	1586
479.771	1424
479.848	1761
479.926	-30
480.003	2445
480.080	1627
480.157	1116
480.235	715
480.312	760
480.389	985
480.467	1071
480.544	1068
480.621	1878
480.698	710
480.775	1588
480.853	715
480.930	719
481.007	1047
481.084	1018
481.161	1420
481.238	1497
481.315	858
481.392	444
481.470	1790
481.547	473
481.624	621
481.701	934
481.778	787
481.855	1021
481.932	1611
482.009	2386
482.086	1032
482.163	1627
482.240	2369
482.317	1716
482.393	1544
482.470	1191
482.547	2228
482.624	1200
482.701	1592
482.778	1060
482.855	1736
482.932	1283
483.009	1081
483.085	1371
483.162	1052
483.239	1738
483.316	398
483.393	2237
483.469	1209
483.546	1185
483.623	1220
483.699	1730
483.776	1052
483.853	1063
483.930	1222
484.006	1707
484.083	3306
484.160	3037
484.236	4257
484.313	2721
484.389	2112
484.466	3449
484.543	2161
484.619	2946
484.696	4718
484.772	3512
484.849	2674
484.925	1624
485.002	2654
485.078	2444
485.155	1672
485.231	1226
485.308	1862
485.384	1846
485.461	1744
485.537	1520
485.614	2587
485.690	536
485.766	1528
485.843	2226
485.919	1927
485.995	1686
486.072	1984
486.148	1805
486.224	1643
486.301	1135
486.377	1340
486.453	456
486.530	2121
486.606	3959
486.682	2431
486.758	3019
486.835	2461
486.911	1317
486.987	4325
487.063	2637
487.139	2257
487.215	2347
487.292	3978
487.368	2767
487.444	4139
487.520	5096
487.596	6772
487.672	15431
487.748	52761
487.824	78071
487.900	22218
487.976	5814
488.052	3616
488.128	2780
488.204	1411
488.280	3320
488.356	2604
488.432	1605
488.508	2543
488.584	1557
488.660	1025
488.736	1671
488.812	1199
488.888	1797
488.964	1098
489.039	2125
489.115	3523
489.191	2197
489.267	2152
489.343	843
489.418	1686
489.494	1320
489.570	164
489.646	3526
489.722	1380
489.797	1035
489.873	2074
489.949	2861
490.024	1409
490.100	1253
490.176	1728
490.251	658
490.327	2129
490.403	1431
490.478	1697
490.554	1153
490.629	472
490.705	687
490.781	1187
490.856	1174
490.932	1780
491.007	1809
491.083	1110
491.158	1155
491.234	992
491.309	1959
491.385	1175
491.460	480
491.536	2133
491.611	282
491.686	1765
491.762	1682
491.837	1636
491.913	1910
491.988	2763
492.063	2706
492.139	1630
492.214	1265
492.289	1370
492.365	521
492.440	1785
492.515	631
492.590	1146
492.666	1269
492.741	1007
492.816	920
492.891	402
492.967	1114
493.042	1235
493.117	423
493.192	1587
493.267	2432
493.342	3772
493.418	4914
493.493	1453
493.568	1076
493.643	318
493.718	1655
493.793	1977
493.868	1157
493.943	1493
494.018	1992
494.093	649
494.168	2534
494.243	1084
494.318	1383
494.393	887
494.468	963
494.543	1118
494.618	294
494.693	504
494.768	1148
494.842	1194
494.917	1290
494.992	1448
495.067	1110
495.142	518
495.217	1083
495.292	1409
495.366	869
495.441	686
495.516	2678
495.591	1119
495.665	2524
495.740	5477
495.815	2162
495.890	329
495.964	-745
496.039	2830
496.114	814
496.188	1626
496.263	1416
496.338	508
496.412	841
496.487	1857
496.561	1487
496.636	1337
496.710	1093
496.785	927
496.860	604
496.934	906
497.009	1998
497.083	790
497.158	1802
497.232	1585
497.307	2217
497.381	1784
497.455	1744
497.530	706
497.604	537
497.679	775
497.753	2128
497.827	984
497.902	1209
497.976	1949
498.050	3700
498.125	12578
498.199	11538
498.273	2361
498.348	1899
498.422	2021
498.496	1746
498.570	2426
498.645	1110
498.719	-31
498.793	1033
498.867	1564
498.941	1846
499.016	5101
499.090	11790
499.164	5192
499.238	1366
499.312	1492
499.386	1987
499.460	1820
499.534	2837
499.609	2410
499.683	1705
499.757	2494
499.831	2192
499.905	8342
499.979	6168
500.053	1244
500.127	1378
500.201	504
500.275	930
500.349	2202
500.422	1600
500.496	1489
500.570	2636
500.644	6093
500.718	8147
500.792	2987
500.866	1346
500.940	765
501.013	1572
501.087	943
501.161	1014
501.235	-230
501.309	3936
501.382	5936
501.456	5595
501.530	1476
501.603	1035
501.677	1387
501.751	-61
501.825	2657
501.898	1311
501.972	1959
502.046	2069
502.119	-700
502.193	1543
502.266	2500
502.340	1549
502.413	960
502.487	3012
502.561	421
502.634	1478
502.708	628
502.781	-572
502.855	1355
502.928	-654
503.002	389
503.075	-58
503.149	765
503.222	154
503.295	-647
503.369	1204
503.442	53
503.516	2329
503.589	3473
503.662	2651
503.736	2080
503.809	4039
503.882	3808
503.956	6120
504.029	9596
504.102	27563
504.175	40457
504.249	12905
504.322	4063
504.395	1912
504.468	1780
504.542	531
504.615	-204
504.688	1454
504.761	-1382
504.834	1624
504.907	822
504.980	448
505.053	-146
505.127	-1325
505.200	3004
505.273	341
505.346	954
505.419	-773
505.492	1916
505.565	-89
505.638	108
505.711	14
505.784	-360
505.857	-434
505.930	1737
506.003	-692
506.076	1800
506.149	1
506.221	-1747
506.294	2355
506.367	-284
506.440	2851
506.513	2081
506.586	693
506.659	-219
506.731	422
506.804	-577
506.877	-496
506.950	632
507.022	928
507.095	-1352
507.168	1454
507.241	944
507.313	285
507.386	-1012
507.459	1351
507.531	574
507.604	-797
507.677	1039
507.749	-729
507.822	1868
507.894	-272
507.967	1950
508.040	-375
508.112	1271
508.185	566
508.257	-907
508.330	2908
508.402	533
508.475	238
508.547	1429
508.620	1096
508.692	889
508.765	515
508.837	-681
508.909	1028
508.982	-281
509.054	622
509.127	436
509.199	640
509.271	-691
509.344	938
509.416	1032
509.488	216
509.560	384
509.633	-778
509.705	-354
509.777	313
509.849	1087
509.922	-1066
509.994	1066
510.066	586
510.138	-1432
510.210	2738
510.283	580
510.355	835
510.427	646
510.499	962
510.571	619
510.643	-1208
510.715	1723
510.787	-1704
510.859	1550
510.931	229
511.003	1021
511.076	1172
511.148	-733
511.219	-1021
511.291	1047
511.363	1294
511.435	302
511.507	-631
511.579	468
511.651	1724
511.723	321
511.795	-247
511.867	-709
511.939	384
512.010	-23
512.082	977
512.154	-743
512.226	483
512.298	2070
512.369	462
512.441	1567
512.513	1351
512.585	-978
512.656	1361
512.728	-291
512.800	7
512.871	1420
512.943	760
513.015	-1020
513.086	721
513.158	587
513.230	-325
513.301	157
513.373	1312
513.444	200
513.516	554
513.588	-791
513.659	697
513.731	382
513.802	-1237
513.874	1822
513.945	1006
514.016	-481
514.088	330
514.159	-279
514.231	665
514.302	447
514.374	1290
514.445	-580
514.516	2904
514.588	-1122
514.659	-168
514.730	-376
514.802	2378
514.873	-1837
514.944	2594
515.016	-90
515.087	-360
515.158	412
515.229	2412
515.301	-469
515.372	2081
515.443	364
515.514	341
515.585	-1075
515.656	1107
515.728	466
515.799	-297
515.870	844
515.941	378
516.012	-756
516.083	2162
516.154	95
516.225	2333
516.296	3731
516.367	2541
516.438	3362
516.509	3959
516.580	7151
516.651	30860
516.722	101885
516.793	33559
516.864	6020
516.935	6924
517.006	8439
517.077	11265
517.148	24937
517.219	132730
517.289	175190
517.360	22981
517.431	6742
517.502	2249
517.573	2876
517.643	2907
517.714	2064
517.785	2946
517.856	2452
517.926	4999
517.997	7674
518.068	8817
518.138	14099
518.209	20009
518.280	82833
518.350	269498
518.421	89809
518.492	12838
518.562	7057
518.633	6352
518.703	5888
518.774	19314
518.845	52124
518.915	47499
518.986	11547
519.056	5222
519.127	3192
519.197	1988
519.268	3544
519.338	4205
519.408	1306
519.479	940
519.549	83
519.620	2488
519.690	-279
519.760	1330
519.831	1601
519.901	231
519.971	1131
520.042	290
520.112	63
520.182	1638
520.253	1659
520.323	124
520.393	-1319
520.463	3926
520.534	-1540
520.604	4553
520.674	2004
520.744	-432
520.814	843
520.885	1382
520.955	827
521.025	3469
521.095	1341
521.165	457
521.235	324
521.305	-440
521.375	622
521.445	639
521.515	-234
521.585	886
521.655	-2109
521.725	688
521.795	1282
521.865	-3008
521.935	1952
522.005	-268
522.075	-267
522.145	911
522.215	-891
522.285	761
522.355	-117
522.424	2093
522.494	-22
522.564	965
522.634	972
522.704	2937
522.774	276
522.843	1050
522.913	-64
522.983	-394
523.053	-749
523.122	715
523.192	-13
523.262	1009
523.331	-405
523.401	1386
523.471	565
523.540	1031
523.610	390
523.680	1088
523.749	1104
523.819	811
523.888	69
523.958	49
524.027	80
524.097	1315
524.166	236
524.236	-1002
524.305	2826
524.375	-301
524.444	-2000
524.514	2441
524.583	-448
524.653	-422
524.722	1072
524.791	-249
524.861	1521
524.930	-484
524.999	-229
525.069	733
525.138	149
525.207	-80
525.277	916
525.346	388
525.415	1680
525.484	566
525.554	784
525.623	1659
525.692	2306
525.761	1855
525.830	4526
525.900	5236
525.969	9309
526.038	16016
526.107	34800
526.176	106743
526.245	77738
526.314	22520
526.383	51464
526.452	64229
526.522	109461
526.591	92833
526.660	13156
526.729	8144
526.797	10744
526.867	12448
526.935	44043
527.004	180353
527.073	97379
527.142	10754
527.211	3733
527.280	2718
527.349	2120
527.418	401
527.487	1583
527.555	-697
527.624	1085
527.693	-407
527.762	1225
527.831	-743
527.899	236
527.968	788
528.037	-1136
528.106	798
528.174	522
528.243	888
528.312	56
528.380	125
528.449	-1008
528.518	1630
528.586	-1082
528.655	558
528.723	191
528.792	-114
528.861	-1539
528.929	-1345
528.998	2056
529.066	-532
529.135	795
529.203	-381
529.272	-651
529.340	2115
529.409	2852
529.477	438
529.545	-590
529.614	2407
529.682	-493
529.751	1075
529.819	4201
529.887	1590
529.956	1267
530.024	2873
530.092	798
530.161	2317
530.229	912
530.297	1097
530.365	2754
530.434	1871
530.502	1289
530.570	1864
530.638	459
530.707	942
530.775	2164
530.843	-47
530.911	1212
530.979	1818
531.047	1994
531.115	1620
531.183	1218
531.252	1564
531.320	1065
531.388	558
531.456	1495
531.524	393
531.592	2009
531.660	3673
531.728	54
531.796	-56
531.864	890
531.932	812
532.000	331
532.067	1537
532.135	1289
532.203	2378
532.271	1301
532.339	3279
532.407	2133
532.475	1519
532.542	2694
532.610	2997
532.678	815
532.746	4083
532.814	5594
532.881	2559
532.949	2106
533.017	1479
533.084	1584
533.152	2047
533.220	1444
533.287	1306
533.355	1410
533.423	2203
533.490	1844
533.558	2020
533.625	1778
533.693	2138
533.761	2697
533.828	1499
533.896	546
533.963	2367
534.031	2506
534.098	2063
534.166	2757
534.233	1890
534.300	3326
534.368	2431
534.435	966
534.503	2346
534.570	3010
534.637	2664
534.705	3944
534.772	4579
534.840	8654
534.907	48930
534.974	54153
535.041	6073
535.109	2656
535.176	2247
535.243	2234
535.310	2104
535.378	1691
535.445	2455
535.512	1772
535.579	2434
535.646	1015
535.714	1499
535.781	2294
535.848	2559
535.915	2985
535.982	1655
536.049	1860
536.116	2461
536.183	1925
536.250	872
536.317	1469
536.384	1703
536.451	2293
536.518	2430
536.585	311
536.652	3981
536.719	2398
536.786	-259
536.853	1355
536.920	2424
536.987	1889
537.053	766
537.120	4363
537.187	4620
537.254	1385
537.321	1549
537.388	3073
537.454	1824
537.521	1264
537.588	1401
537.654	2437
537.721	1795
537.788	2185
537.855	1809
537.921	1722
537.988	1718
538.055	2951
538.121	465
538.188	1335
538.254	991
538.321	2451
538.388	2711
538.454	1243
538.521	2564
538.587	1228
538.654	1242
538.720	2658
538.787	2839
538.853	1524
538.920	1958
538.986	968
539.053	1083
539.119	1268
539.185	1520
539.252	2645
539.318	1879
539.385	2942
539.451	466
539.517	2967
539.583	2846
539.650	868
539.716	2533
539.782	1651
539.849	1473
539.915	2553
539.981	1930
540.047	732
540.114	1778
540.180	3499
540.246	600
540.312	1613
540.378	1911
540.444	2836
540.510	1826
540.576	2945
540.643	2673
540.709	177
540.775	1838
540.841	1373
540.907	1874
540.973	2367
541.039	2495
541.105	1855
541.171	2031
541.237	1376
541.303	2624
541.369	4357
541.435	2796
541.500	2008
541.566	104
541.632	2526
541.698	1389
541.764	3004
541.830	1319
541.896	675
541.961	2336
542.027	1349
542.093	1644
542.159	2132
542.224	1148
542.290	2757
542.356	1496
542.421	1784
542.487	2501
542.553	1836
542.618	1499
542.684	852
542.750	1072
542.815	2031
542.881	1851
542.947	2947
543.012	3188
543.078	1181
543.143	1546
543.209	2699
543.274	1116
543.340	1171
543.405	2341
543.471	1059
543.536	2518
543.602	1435
543.667	1010
543.732	2730
543.798	1617
543.863	2659
543.928	1673
543.994	1125
544.059	1722
544.124	2038
544.190	1329
544.255	3025
544.320	2246
544.386	1284
544.451	2568
544.516	2381
544.581	1524
544.646	3000
544.712	3804
544.777	2586
544.842	1833
544.907	1888
544.972	1588
545.037	2505
545.102	2178
545.168	1557
545.233	3317
545.298	2590
545.363	1858
545.428	2495
545.493	3608
545.558	2708
545.623	2365
545.688	2080
545.753	3995
545.818	3118
545.883	4092
545.947	2242
546.012	3931
546.077	2907
546.142	4688
546.207	3273
546.272	4342
546.337	3911
546.401	5275
546.466	5261
546.531	3797
546.596	5548
546.661	6145
546.725	7319
546.790	5590
546.855	7969
546.919	6465
546.984	9661
547.049	9719
547.113	11335
547.178	11492
547.243	14728
547.307	16991
547.372	18284
547.436	18026
547.501	20488
547.565	21013
547.630	19357
547.695	18812
547.759	18212
547.823	18437
547.888	19966
547.952	19741
548.017	20740
548.081	21733
548.146	20051
548.210	21303
548.274	23325
548.339	22603
548.403	21688
548.468	19307
548.532	18989
548.596	20932
548.660	20840
548.725	21975
548.789	23391
548.853	22835
548.917	22580
548.982	21136
549.046	19514
549.110	17583
549.174	18304
549.238	20425
549.303	22097
549.367	25328
549.431	22792
549.495	21098
549.559	20851
549.623	25452
549.687	27655
549.751	27727
549.815	32378
549.879	32923
549.943	30361
550.007	33171
550.071	31618
550.135	29317
550.199	28090
550.263	27388
550.327	26704
550.391	26230
550.455	28720
550.519	31706
550.582	33215
550.646	37682
550.710	37171
550.774	37185
550.838	39026
550.901	39358
550.965	41324
551.029	41995
551.093	46604
551.156	50337
551.220	54967
551.284	59411
551.347	47517
551.411	41244
551.475	40370
551.538	41185
551.602	38320
551.666	36495
551.729	34194
551.793	33361
551.856	32637
551.920	32395
551.983	33044
552.047	32075
552.110	32490
552.174	32325
552.237	33091
552.301	30836
552.364	29634
552.428	29080
552.491	29393
552.554	31374
552.618	31219
552.681	32210
552.745	30663
552.808	36544
552.871	40122
552.934	34361
552.998	31001
553.061	30564
553.124	28724
553.187	29172
553.251	29701
553.314	29712
553.377	30112
553.440	32567
553.503	35182
553.567	36148
553.630	34099
553.693	32999
553.756	33772
553.819	32602
553.882	31138
553.945	30993
554.008	31226
554.071	30616
554.134	32088
554.197	30390
554.260	29589
554.323	31497
554.386	29530
554.449	31011
554.512	32166
554.575	30358
554.638	30686
554.701	30203
554.764	29627
554.827	28395
554.889	27061
554.952	25657
555.015	24875
555.078	25442
555.141	26113
555.203	24900
555.266	26146
555.329	25270
555.391	24137
555.454	23271
555.517	22864
555.580	22979
555.642	21026
555.705	20114
555.768	19551
555.830	20353
555.893	18868
555.955	18833
556.018	17340
556.080	17966
556.143	19088
556.206	18414
556.268	17875
556.330	17457
556.393	17143
556.455	16850
556.518	16945
556.580	15402
556.643	14823
556.705	14286
556.767	13900
556.830	14236
556.892	14035
556.955	13433
557.017	13080
557.079	13081
557.142	12259
557.204	12302
557.266	12843
557.328	12213
557.391	11206
557.453	10339
557.515	11106
557.577	10149
557.639	10670
557.701	10184
557.764	10258
557.826	11504
557.888	12223
557.950	12628
558.012	13016
558.074	15940
558.136	36085
558.198	79336
558.260	26960
558.322	13492
558.384	12357
558.446	13395
558.508	15359
558.570	18329
558.632	20267
558.694	24961
558.756	40701
558.818	120067
558.880	244554
558.942	81902
559.003	85594
559.065	38429
559.127	17212
559.189	16697
559.251	17832
559.312	25909
559.374	62889
559.436	181506
559.498	79340
559.559	18915
559.621	16535
559.683	20008
559.744	28672
559.806	96362
559.868	126956
559.929	25423
559.991	17681
560.052	27903
560.114	78123
560.176	45047
560.237	45732
560.299	67710
560.360	13984
560.422	6136
560.483	5853
560.545	4354
560.606	5112
560.667	4344
560.729	3577
560.790	4481
560.852	3364
560.913	4209
560.974	3558
561.036	3731
561.097	3842
561.158	3608
561.220	4405
561.281	2522
561.342	3290
561.403	3604
561.465	2647
561.526	3843
561.587	4746
561.648	2532
561.709	2272
561.771	3361
561.832	2776
561.893	1665
561.954	2199
562.015	2100
562.076	3072
562.137	2608
562.198	2221
562.259	1885
562.320	2234
562.381	2044
562.442	3118
562.503	2853
562.564	2009
562.625	3059
562.686	2445
562.747	1910
562.808	1780
562.869	1416
562.930	1807
562.991	1848
563.051	734
563.112	1750
563.173	2209
563.234	1816
563.294	1427
563.355	1711
563.416	1958
563.477	1244
563.537	1862
563.598	1326
563.659	2061
563.720	1864
563.780	1634
563.841	1770
563.901	2480
563.962	1742
564.023	1027
564.083	1960
564.144	2146
564.204	990
564.265	1810
564.325	2341
564.386	2249
564.446	1712
564.507	1562
564.567	1763
564.628	1696
564.688	1091
564.749	995
564.809	1584
564.869	1592
564.930	1199
564.990	3268
565.050	823
565.111	1923
565.171	2252
565.231	1237
565.292	1837
565.352	288
565.412	1833
565.472	653
565.532	1882
565.593	1667
565.653	1222
565.713	1906
565.773	1547
565.833	1520
565.893	2467
565.953	1031
566.013	1844
566.074	1811
566.134	1373
566.194	998
566.254	1573
566.314	1457
566.374	814
566.434	1779
566.494	819
566.554	1419
566.614	1753
566.673	1279
566.733	2033
566.793	1099
566.853	1507
566.913	1793
566.973	1476
567.033	1957
567.092	1775
567.152	1675
567.212	780
567.272	893
567.331	1089
567.391	1551
567.451	2235
567.511	2219
567.570	1933
567.630	1353
567.690	1587
567.749	1291
567.809	1231
567.868	1756
567.928	1159
567.988	573
568.047	1431
568.107	2007
568.166	2569
568.226	1415
568.285	2480
568.345	1455
568.404	1789
568.464	1508
568.523	1244
568.582	1709
568.642	1351
568.701	1608
568.761	1919
568.820	1997
568.879	2051
568.939	2255
568.998	427
569.057	1557
569.116	1137
569.176	1590
569.235	1027
569.294	1335
569.353	1144
569.413	1535
569.472	977
569.531	943
569.590	838
569.649	1635
569.708	829
569.767	1437
569.827	1272
569.886	1325
569.945	1374
570.004	1711
570.063	993
570.122	2115
570.181	822
570.240	1121
570.299	1779
570.358	1417
570.417	1493
570.475	1400
570.534	2201
570.593	1311
570.652	1377
570.711	871
570.770	1351
570.829	1344
570.887	1388
570.946	1175
571.005	787
571.064	1208
571.122	2578
571.181	915
571.240	1694
571.299	1676
571.357	1391
571.416	1848
571.475	1322
571.533	1299
571.592	1205
571.650	1822
571.709	1257
571.768	1348
571.826	2229
571.885	2393
571.943	1730
572.002	1305
572.060	1443
572.119	1104
572.177	1772
572.236	1567
572.294	1896
572.352	2239
572.411	1776
572.469	935
572.528	1671
572.586	1521
572.644	1677
572.703	981
572.761	1469
572.819	1519
572.877	1146
572.936	1185
572.994	1703
573.052	930
573.110	972
573.169	1179
573.227	833
573.285	1879
573.343	1997
573.401	637
573.459	1878
573.517	1217
573.576	1409
573.634	2142
573.692	1492
573.750	1372
573.808	659
573.866	1068
573.924	819
573.982	1513
574.040	1645
574.098	1237
574.155	1174
574.213	1377
574.271	1351
574.329	981
574.387	360
574.445	209
574.503	658
574.560	626
574.618	427
574.676	1661
574.734	1094
574.792	1587
574.849	887
574.907	491
574.965	284
575.022	646
575.080	1032
575.138	883
575.195	1282
575.253	561
575.311	130
575.368	177
575.426	-372
575.483	1681
575.541	723
575.598	186
575.656	100
575.713	1133
575.771	1174
575.828	45
575.886	575
575.943	792
576.001	1571
576.058	-475
576.115	157
576.173	590
576.230	252
576.287	2650
576.345	594
576.402	1020
576.459	983
576.517	996
576.574	476
576.631	278
576.688	-78
576.746	740
576.803	923
576.860	355
576.917	964
576.974	707
577.031	557
577.089	480
577.146	979
577.203	269
577.260	953
577.317	-107
577.374	434
577.431	906
577.488	-174
577.545	326
577.602	281
577.659	-143
577.716	954
577.773	47
577.830	49
577.886	664
577.943	523
578.000	697
578.057	202
578.114	390
578.171	803
578.227	1197
578.284	423
578.341	1317
578.398	479
578.454	413
578.511	152
578.568	421
578.625	832
578.681	326
578.738	632
578.794	821
578.851	236
578.908	230
578.964	183
579.021	1767
579.077	315
579.134	257
579.190	369
579.247	1043
579.303	-33
579.360	74
579.416	109
579.473	54
579.529	226
579.586	-93
579.642	117
579.698	679
579.755	690
579.811	385
579.867	420
579.924	137
579.980	600
580.036	1022
580.093	1097
580.149	2131
580.205	2713
580.261	2116
580.317	670
580.374	857
580.430	1353
580.486	765
580.542	221
580.598	516
580.619	682
580.654	965
580.692	867
580.710	814
580.765	904
580.767	901
580.823	580
580.838	663
580.879	847
580.911	962
580.935	1051
580.984	339
580.991	236
581.047	868
581.057	961
581.103	1381
581.130	1097
581.159	729
581.203	1244
581.215	1393
581.270	1537
581.276	1492
581.326	931
581.349	873
581.382	807
581.422	1106
581.438	1211
581.494	962
581.494	973
581.550	1869
581.567	1872
581.606	1733
581.640	1596
581.661	1557
581.713	2223
581.717	2264
581.773	1626
581.786	1495
581.829	1067
581.859	1021
581.885	974
581.932	1859
581.940	2013
581.996	1932
582.004	1975
582.052	2171
582.077	2251
582.107	2349
582.150	1899
582.163	1747
582.219	1938
582.223	1922
582.274	1853
582.296	1971
582.330	2047
582.368	2042
582.386	2110
582.441	2125
582.441	2120
582.497	933
582.514	1196
582.552	2028
582.587	2334
582.608	2450
582.659	2242
582.663	2215
582.719	2878
582.732	2708
582.774	2317
582.805	2391
582.830	2435
582.877	2857
582.885	2943
582.941	3977
582.950	3980
582.996	3780
583.023	3658
583.052	3751
583.095	4069
583.107	4110
583.162	4154
583.168	4231
583.218	4498
583.240	4411
583.273	4270
583.313	3953
583.328	3907
583.384	4035
583.385	4009
583.439	3075
583.458	2994
583.494	2843
583.531	2853
583.549	3003
583.603	3432
583.605	3440
583.660	3342
583.676	3414
583.715	3600
583.748	3518
583.770	3436
583.820	3812
583.825	3866
583.881	4025
583.893	3840
583.936	3167
583.965	3515
583.991	3873
584.038	4336
584.046	4388
584.101	3014
584.110	3095
584.156	3663
584.183	3921
584.211	4047
584.255	4452
584.266	4711
584.321	4765
584.328	4824
584.376	4806
584.400	4797
584.431	5031
584.472	4989
584.486	4805
584.541	4733
584.545	4710
584.596	5020
584.617	4937
584.651	5074
584.689	5852
584.706	6007
584.761	5838
584.762	5829
584.816	6241
584.834	6441
584.871	6732
584.906	6567
584.926	6465
584.978	6388
584.980	6413
585.035	7228
585.051	7604
585.090	8775
585.123	9259
585.145	9511
585.195	9702
585.200	9786
585.254	11197
585.267	11596
585.309	13003
585.340	14116
585.364	15265
585.412	17877
585.419	18304
585.473	21456
585.484	22114
585.528	28004
585.556	34158
585.583	49727
585.628	81018
585.637	93712
585.692	191717
585.700	206829
585.747	241925
585.772	218199
585.801	141883
585.845	49586
585.856	41397
585.910	22146
585.917	20038
585.965	16113
585.989	14691
586.019	13969
586.061	12896
586.074	12722
586.128	11683
586.133	11600
586.183	11170
586.205	10899
586.237	10398
586.277	10140
586.292	10306
586.346	10522
586.349	10514
586.401	10877
586.421	10789
586.455	10641
586.493	10773
586.509	10994
586.564	11662
586.565	11638
586.618	12538
586.637	12954
586.672	13951
586.709	15218
586.727	15657
586.781	16062
586.781	16096
586.835	13182
586.853	12485
586.889	11854
586.925	10887
586.944	10689
586.996	11138
586.998	11182
587.052	11171
587.068	11093
587.106	11628
587.140	11984
587.161	11971
587.212	11801
587.215	11856
587.269	11977
587.284	12053
587.323	12022
587.356	12009
587.377	12457
587.427	13715
587.431	13803
587.485	13467
587.499	13502
587.539	14032
587.571	14204
587.593	14518
587.643	15279
587.648	15377
587.702	15484
587.715	15537
587.755	15822
587.786	15855
587.810	15930
587.858	16169
587.864	16270
587.917	16369
587.930	16326
587.971	16852
588.001	17258
588.025	17165
588.073	16957
588.079	17149
588.133	17952
588.145	18162
588.187	18144
588.217	17719
588.241	18446
588.288	20098
588.295	20222
588.348	20490
588.360	20541
588.402	21559
588.431	21879
588.456	22416
588.503	23666
588.510	24038
588.564	26399
588.575	26864
588.617	28854
588.646	29727
588.671	31429
588.718	35237
588.725	36599
588.778	46380
588.789	48675
588.832	77517
588.861	98497
588.886	138057
588.932	219894
588.939	225080
588.993	254060
589.004	252392
589.047	151901
589.075	91164
589.100	72099
589.147	41565
589.154	40789
589.207	34672
589.218	33279
589.261	33478
589.290	33619
589.314	34788
589.361	37225
589.368	39176
589.421	54846
589.433	58421
589.475	102650
589.504	135545
589.528	169492
589.576	236807
589.582	229028
589.635	128799
589.647	108019
589.689	64116
589.718	36064
589.742	33364
589.790	27382
589.795	27302
589.849	25801
589.861	25437
589.902	24899
589.932	24157
589.955	23789
590.004	22890
590.009	22969
590.062	22715
590.075	22551
590.115	21943
590.146	21313
590.168	21673
590.218	22479
590.222	22598
590.275	22546
590.289	22463
590.328	23318
590.360	23853
590.381	24133
590.431	24372
590.435	24413
590.488	23310
590.503	22911
590.541	23733
590.574	24291
590.594	25011
590.645	26388
590.647	26518
590.700	26872
590.716	26872
590.753	27348
590.787	27604
590.806	27954
590.859	28483
590.859	28614
590.912	29021
590.930	29137
590.965	30221
591.001	30875
591.018	30674
591.071	29750
591.072	29608
591.124	29367
591.143	29064
591.177	29564
591.214	29717
591.230	30077
591.283	31235
591.285	31134
591.336	30605
591.356	30201
591.389	30617
591.427	30836
591.442	30787
591.495	30064
591.498	29876
591.547	30799
591.569	31059
591.600	31719
591.640	32171
591.653	32453
591.706	33055
591.711	32975
591.759	34065
591.782	34402
591.811	35064
591.853	35543
591.864	35556
591.917	34916
591.924	34653
591.969	35632
591.995	35969
592.022	36317
592.066	36450
592.075	36784
592.127	37799
592.137	37823
592.180	38821
592.208	39157
592.233	39734
592.279	40327
592.285	40614
592.338	41488
592.350	41492
592.390	41599
592.421	41368
592.443	42141
592.491	43203
592.495	43430
592.548	43856
592.562	43773
592.600	42927
592.633	41847
592.653	42583
592.704	43771
592.705	44045
592.775	45074
592.846	47079
592.916	47254
592.987	45879
593.058	47521
593.128	47731
593.199	48596
593.270	49833
593.341	50760
593.411	52380
593.482	54427
593.553	55647
593.623	55783
593.694	55873
593.764	57677
593.835	56768
593.906	58627
593.976	58228
594.047	60509
594.117	63001
594.188	63904
594.258	62550
594.329	64147
594.399	65249
594.470	66906
594.540	68527
594.611	71669
594.681	70453
594.751	68920
594.822	72976
594.892	75164
594.963	78604
595.033	79541
595.103	81329
595.174	82060
595.244	85010
595.314	87811
595.384	89123
595.455	89901
595.525	95109
595.595	97584
595.665	97586
595.736	94887
595.806	97867
595.876	99055
595.946	99785
596.016	103663
596.087	106908
596.157	106289
596.227	108101
596.297	114554
596.367	121435
596.437	128526
596.507	127654
596.577	127706
596.647	131743
596.717	136289
596.787	140021
596.857	139783
596.927	140447
596.997	140168
597.067	142198
597.137	145254
597.207	145427
597.277	146611
597.347	141365
597.417	137100
597.487	138126
597.557	140109
597.626	145327
597.696	148427
597.766	144980
597.836	138149
597.906	130866
597.975	129248
598.045	133832
598.115	137206
598.185	148343
598.254	165036
598.324	177907
598.394	180485
598.464	175952
598.533	172336
598.603	161587
598.672	158014
598.742	162489
598.812	161720
598.881	167931
598.951	166792
599.020	169549
599.090	175389
599.159	178175
599.229	170804
599.299	167985
599.368	172583
599.437	171539
599.507	157455
599.576	154467
599.646	152539
599.715	151683
599.785	150901
599.854	148091
599.924	145155
599.993	145190
600.062	150138
600.132	152282
600.201	163645
600.270	185411
600.340	195456
600.409	191231
600.478	191498
600.547	197457
600.617	176173
600.686	147653
600.755	136472
600.824	132386
600.894	130379
600.963	130959
601.032	131205
601.101	128166
601.170	124005
601.239	121930
601.308	123261
601.378	123518
601.447	126645
601.516	126507
601.585	128680
601.654	129927
601.723	132786
601.792	135993
601.861	141427
601.930	146876
601.999	149652
602.068	149409
602.137	149861
602.206	151883
602.275	153796
602.343	155755
602.412	156229
602.481	160241
602.550	159944
602.619	164507
602.688	163983
602.756	168637
602.825	168308
602.894	172473
602.963	173448
603.032	176596
603.100	177561
603.169	176152
603.238	180526
603.307	177385
603.375	178539
603.444	185362
603.513	180892
603.581	185846
603.650	191138
603.719	173131
603.787	176578
603.856	181040
603.924	182855
603.993	190361
604.061	198780
604.130	204662
604.198	209271
604.267	212475
604.335	215632
604.404	218808
604.472	223428
604.541	223238
604.609	230613
604.678	230872
604.746	232201
604.815	242498
604.883	238256
604.951	238362
605.020	243330
605.088	240693
605.156	240833
605.225	244979
605.293	241499
605.361	245348
605.429	245417
605.498	250835
605.566	250435
605.634	267349
605.702	273279
605.771	281239
605.839	284047
605.907	273957
605.975	268628
606.043	262918
606.111	261916
606.180	267568
606.248	256910
606.316	256537
606.384	260715
606.452	247027
606.520	243867
606.588	254013
606.656	256296
606.724	248315
606.792	233029
606.860	213623
606.928	195763
606.996	188498
607.064	184290
607.132	190060
607.200	200825
607.267	209708
607.335	214319
607.403	217000
607.471	208836
607.539	204763
607.607	203878
607.674	178322
607.742	178777
607.810	178329
607.878	177534
607.946	180841
608.013	191551
608.081	195324
608.149	195760
608.216	203018
608.284	208675
608.352	208971
608.419	205515
608.487	201999
608.555	198310
608.622	203837
608.690	219074
608.757	237420
608.825	242792
608.893	237075
608.960	221473
609.028	213912
609.095	213371
609.163	211404
609.230	187837
609.298	174969
609.365	185501
609.432	199080
609.500	218675
609.567	248680
609.635	283114
609.702	293851
609.769	277590
609.837	213191
609.904	186354
609.971	190116
610.039	201430
610.106	236848
610.173	364186
610.241	660038
610.308	405026
610.375	226509
610.442	202722
610.509	194188
610.577	195575
610.644	199613
610.711	205660
610.778	211008
610.845	220322
610.912	233427
610.980	241955
611.047	242491
611.114	238481
611.181	230214
611.248	229111
611.315	241919
611.382	249672
611.449	259752
611.516	259318
611.583	255876
611.650	257691
611.717	260034
611.784	263623
611.851	271835
611.918	276937
611.984	304836
612.051	368067
612.118	553275
612.185	948859
612.252	670779
612.319	355880
612.386	323057
612.452	302952
612.519	288265
612.586	286177
612.653	294105
612.719	303487
612.786	288142
612.853	271371
612.919	268329
612.986	270804
613.053	256422
613.120	240458
613.186	235754
613.253	235816
613.319	234026
613.386	236310
613.453	240895
613.519	243125
613.586	237008
613.652	242380
613.719	237480
613.785	242526
613.852	245028
613.918	239946
613.985	246439
614.051	256053
614.118	253189
614.184	243657
614.250	244181
614.317	249487
614.383	246244
614.449	251203
614.516	249889
614.582	249250
614.648	245380
614.715	245457
614.781	238634
614.847	237941
614.914	235729
614.980	229614
615.046	233126
615.112	239800
615.179	239213
615.245	243665
615.311	237320
615.377	241519
615.443	245005
615.509	247216
615.575	250435
615.642	250347
615.708	255152
615.774	263599
615.840	272631
615.906	276943
615.972	307086
616.038	390457
616.104	625525
616.170	1026199
616.236	853332
616.302	431912
616.368	364948
616.434	296669
616.500	282681
616.565	301836
616.631	347359
616.697	303388
616.763	312168
616.829	407707
616.895	617288
616.961	562221
617.026	317650
617.092	260529
617.158	252990
617.224	250291
617.289	233468
617.355	221188
617.421	220183
617.487	221765
617.552	213222
617.618	210012
617.684	212051
617.749	215580
617.815	205549
617.880	201978
617.946	200603
618.012	205429
618.077	209278
618.143	200086
618.208	202230
618.274	216987
618.339	214640
618.405	178834
618.470	182427
618.536	179298
618.601	178167
618.667	163068
618.732	160027
618.798	157087
618.863	157744
618.928	154730
618.994	156576
619.059	155214
619.124	156522
619.190	155645
619.255	152931
619.320	155434
619.386	154671
619.451	153271
619.516	149072
619.581	152280
619.647	157073
619.712	155376
619.777	150526
619.842	150647
619.907	156392
619.972	158969
620.038	156803
620.103	152880
620.168	153581
620.233	155779
620.298	156828
620.363	159200
620.428	163809
620.493	167025
620.558	167656
620.623	170886
620.688	168853
620.753	169633
620.818	172548
620.883	171057
620.948	170980
621.013	168978
621.078	165076
621.143	166131
621.207	169916
621.272	163719
621.337	159790
621.402	160060
621.467	156336
621.532	157553
621.596	159896
621.661	153729
621.726	153258
621.791	156172
621.855	154992
621.920	153944
621.985	156676
622.049	160104
622.114	159348
622.179	161654
622.243	165342
622.308	170263
622.373	174975
622.437	172641
622.502	161801
622.566	161788
622.631	159702
622.695	165174
622.760	161709
622.824	162669
622.889	163063
622.953	163574
623.018	173974
623.082	175458
623.147	171883
623.211	168137
623.276	168283
623.340	161423
623.404	159956
623.469	158619
623.533	161702
623.597	153979
623.662	156476
623.726	143548
623.790	137367
623.854	133710
623.919	136576
623.983	137372
624.047	139115
624.111	140868
624.176	144285
624.240	143900
624.304	148241
624.368	143870
624.432	144571
624.496	147174
624.560	155063
624.625	154966
624.689	155031
624.753	160209
624.817	153625
624.881	149369
624.945	134643
625.009	132218
625.073	135121
625.137	139487
625.201	144846
625.265	143401
625.329	137642
625.393	139224
625.456	141623
625.520	145553
625.584	147219
625.648	151770
625.712	154941
625.776	155754
625.839	145895
625.903	121726
625.967	115399
626.031	126168
626.095	146593
626.158	132721
626.222	105509
626.286	101175
626.349	96112
626.413	90616
626.477	91538
626.540	90903
626.604	89882
626.668	89987
626.731	87715
626.795	88295
626.858	88416
626.922	86486
626.986	84327
627.049	84730
627.113	88720
627.176	86026
627.240	83631
627.303	84194
627.366	81841
627.430	84178
627.493	83351
627.557	80753
627.620	84743
627.684	85871
627.747	86195
627.810	77542
627.874	72127
627.937	69286
628.000	73566
628.064	69448
628.127	61210
628.190	62000
628.253	61567
628.317	58102
628.380	55202
628.443	54453
628.506	54206
628.569	51580
628.632	48415
628.696	48565
628.759	50147
628.822	46998
628.885	45769
628.948	45245
629.011	45319
629.074	43669
629.137	41640
629.200	39984
629.263	42344
629.326	39884
629.389	39678
629.452	40770
629.515	38352
629.578	39375
629.641	40761
629.704	39269
629.767	38430
629.830	38079
629.892	37192
629.955	36057
630.018	38742
630.081	36900
630.144	38545
630.207	36224
630.269	37640
630.332	35387
630.395	35133
630.458	33703
630.520	32029
630.583	35206
630.646	35219
630.708	33957
630.771	34164
630.834	38225
630.896	36096
630.959	35858
631.021	33833
631.084	35256
631.146	35893
631.209	35763
631.272	34863
631.334	35146
631.397	35447
631.459	36277
631.522	37056
631.584	36087
631.646	39536
631.709	38613
631.771	38245
631.834	37712
631.896	36896
631.958	33786
632.021	36242
632.083	33001
632.145	34066
632.208	33579
632.270	33593
632.332	33279
632.395	32592
632.457	34791
632.519	32683
632.581	34009
632.643	32671
632.706	32290
632.768	30714
632.830	33845
632.892	33292
632.954	34245
633.016	34581
633.078	33272
633.141	33022
633.203	32699
633.265	32653
633.327	32968
633.389	32892
633.451	33860
633.513	33270
633.575	33890
633.637	32096
633.698	32624
633.760	36233
633.822	36889
633.884	36610
633.946	36052
634.008	36894
634.070	37534
634.132	38319
634.193	39791
634.255	43116
634.317	42020
634.379	42136
634.441	37845
634.502	36531
634.564	34237
634.626	33027
634.687	31083
634.749	31115
634.811	31344
634.873	30830
634.934	32129
634.996	32028
635.057	30483
635.119	30855
635.181	32400
635.242	31814
635.304	29282
635.365	34789
635.427	31781
635.488	31703
635.550	30692
635.611	31476
635.673	29572
635.734	32759
635.796	32330
635.857	36083
635.918	36102
635.980	39354
636.041	38757
636.102	42686
636.164	42046
636.225	41165
636.286	34553
636.348	33522
636.409	31150
636.470	30548
636.531	31139
636.593	29491
636.654	30316
636.715	29167
636.776	28616
636.838	27335
636.899	27466
636.960	26387
637.021	27520
637.082	25711
637.143	26153
637.204	24739
637.265	25558
637.326	26468
637.387	27187
637.448	26430
637.509	26449
637.570	26552
637.631	27422
637.692	24692
637.753	24404
637.814	25687
637.875	25554
637.936	25343
637.997	25543
638.058	24884
638.119	25720
638.179	24483
638.240	24900
638.301	24877
638.362	23188
638.423	23951
638.483	25145
638.544	22083
638.605	24082
638.666	22717
638.726	22905
638.787	24254
638.848	23058
638.908	22143
638.969	22927
639.030	22851
639.090	21627
639.151	22665
639.211	23523
639.272	22589
639.332	23577
639.393	23898
639.453	22632
639.514	24330
639.574	22657
639.635	20099
639.695	22000
639.756	20465
639.816	21523
639.877	20959
639.937	22066
639.997	22248
640.058	19907
640.118	20296
640.178	21380
640.239	21856
640.299	19990
640.359	21659
640.420	21779
640.480	24212
640.540	24829
640.600	25016
640.661	23533
640.721	22603
640.781	22900
640.841	19163
640.901	21448
640.961	21045
641.021	22029
641.082	21922
641.142	21505
641.202	22075
641.262	18184
641.322	20903
641.382	19087
641.442	20452
641.502	19719
641.562	20887
641.622	20277
641.682	21279
641.742	22032
641.802	22232
641.861	20537
641.921	18901
641.981	18850
642.041	19232
642.101	18277
642.161	16000
642.221	18192
642.280	18945
642.340	18493
642.400	18224
642.460	19693
642.519	18600
642.579	18905
642.639	19684
642.698	17551
642.758	21810
642.818	19797
642.877	18666
642.937	19330
642.997	18890
643.056	19622
643.116	17815
643.175	20797
643.235	18767
643.294	20221
643.354	21885
643.414	22127
643.473	24402
643.532	26101
643.592	31788
643.651	45688
643.711	73212
643.770	133817
643.830	309041
643.889	496672
643.948	140517
644.008	42764
644.067	28317
644.126	23796
644.186	21455
644.245	20619
644.304	18115
644.363	20297
644.423	16941
644.482	18368
644.541	20197
644.600	17625
644.659	23634
644.719	26821
644.778	36251
644.837	60589
644.896	120285
644.955	239707
645.014	71459
645.073	26566
645.132	21289
645.191	19695
645.250	19988
645.309	21032
645.368	22003
645.427	28510
645.486	44647
645.545	68787
645.604	22519
645.663	18091
645.722	18086
645.781	18884
645.840	20362
645.898	22967
645.957	29448
646.016	42191
646.075	68992
646.134	128822
646.192	323720
646.251	373067
646.310	76900
646.369	33054
646.427	28912
646.486	22279
646.545	18822
646.603	18104
646.662	17660
646.721	16379
646.779	16309
646.838	16417
646.896	20433
646.955	25135
647.014	38373
647.072	71454
647.131	176479
647.189	69064
647.248	19014
647.306	16698
647.365	15699
647.423	12911
647.481	16113
647.540	12900
647.598	14178
647.657	13443
647.715	14169
647.773	11984
647.832	13710
647.890	11247
647.948	10899
648.007	13316
648.065	10755
648.123	11586
648.181	13256
648.240	12309
648.298	10802
648.356	10976
648.414	11516
648.472	10998
648.531	11100
648.589	10572
648.647	11511
648.705	10688
648.763	10023
648.821	11004
648.879	10899
648.937	11285
648.995	12995
649.053	16215
649.111	21737
649.169	34083
649.227	59253
649.285	123249
649.343	305962
649.401	122770
649.459	24504
649.516	15513
649.574	13598
649.632	15101
649.690	16905
649.748	19213
649.806	26286
649.863	50205
649.921	131053
649.979	69209
650.037	14187
650.094	9172
650.152	9701
650.210	9137
650.268	9439
650.325	8731
650.383	7840
650.440	7853
650.498	8680
650.556	7513
650.613	7339
650.671	8124
650.728	8283
650.786	7732
650.843	11416
650.901	7462
650.958	8406
651.016	7568
651.073	6339
651.131	6307
651.188	6384
651.246	6748
651.303	6182
651.360	7168
651.418	6012
651.475	7501
651.532	5285
651.590	7521
651.647	5679
651.704	6187
651.762	6173
651.819	6398
651.876	5896
651.933	5617
651.990	6762
652.048	4268
652.105	6666
652.162	5658
652.219	5686
652.276	5925
652.333	5713
652.390	4606
652.448	5502
652.505	6060
652.562	5847
652.619	5871
652.676	5808
652.733	6764
652.790	5323
652.847	4294
652.904	5234
652.961	3581
653.017	4364
653.074	6586
653.131	5029
653.188	3929
653.245	4562
653.302	5445
653.359	5145
653.415	4881
653.472	5636
653.529	5882
653.586	5373
653.642	5271
653.699	5149
653.756	4226
653.813	4233
653.869	5226
653.926	4772
653.983	4576
654.039	4896
654.096	4147
654.152	5578
654.209	4207
654.266	5006
654.322	4049
654.379	5520
654.435	4924
654.492	5462
654.548	4445
654.605	3724
654.661	5210
654.717	4319
654.774	5012
654.830	4486
654.887	3998
654.943	3943
655.000	5344
655.056	4886
655.112	4164
655.168	4066
655.225	4282
655.281	5244
655.337	4590
655.394	3916
655.450	4720
655.506	4225
655.562	4624
655.618	5847
655.675	3217
655.731	3741
655.787	3682
655.843	5246
655.899	3621
655.955	5066
656.011	5311
656.067	3958
656.123	5532
656.179	5095
656.235	6187
656.291	3422
656.347	5412
656.403	4278
656.459	4943
656.515	4418
656.571	3761
656.627	4442
656.683	4361
656.739	4633
656.795	4605
656.850	4149
656.906	4383
656.962	4541
657.018	4910
657.074	5201
657.129	7799
657.185	12068
657.241	27368
657.297	11573
657.352	4875
657.408	4148
657.464	5028
657.519	4092
657.575	2824
657.630	4015
657.686	3644
657.742	2544
657.797	4366
657.853	4095
657.908	4400
657.964	2814
658.019	4124
658.075	3706
658.130	3785
658.186	2724
658.241	4376
658.297	2580
658.352	3141
658.407	3742
658.463	3684
658.518	3302
658.573	4138
658.629	3414
658.684	3466
658.739	4351
658.795	3023
658.850	3723
658.905	2999
658.960	3622
659.016	2770
659.071	3571
659.126	4221
659.181	2920
659.236	4638
659.291	4464
659.346	2894
659.401	3896
659.457	3875
659.512	3155
659.567	4288
659.622	3312
659.677	2951
659.732	1941
659.787	2697
659.842	3488
659.897	3361
659.952	3777
660.007	3828
660.061	2749
660.116	2405
660.171	2751
660.226	3780
660.281	3562
660.336	2010
660.391	4460
660.445	2948
660.500	3855
660.555	2835
660.610	3328
660.664	3554
660.719	3457
660.774	3797
660.828	3199
660.883	3607
660.938	3499
660.992	2342
661.047	3409
661.101	2647
661.156	3122
661.211	2637
661.265	3070
661.320	3143
661.374	3395
661.429	2596
661.483	3741
661.538	1682
661.592	2250
661.647	2887
661.701	2531
661.755	2166
661.810	2576
661.864	2098
661.919	2758
661.973	3056
662.027	1859
662.081	3059
662.136	2858
662.190	3824
662.244	3634
662.299	3137
662.353	3474
662.407	2283
662.461	2855
662.515	3148
662.569	2792
662.624	2841
662.678	2498
662.732	2844
662.786	3134
662.840	3085
662.894	2469
662.948	2787
663.002	3025
663.056	3006
663.110	2198
663.164	2697
663.218	2163
663.272	2596
663.326	3018
663.380	2286
663.434	2975
663.488	2212
663.542	2990
663.595	3030
663.649	2404
663.703	3407
663.757	2943
663.811	2093
663.864	3076
663.918	2301
663.972	2329
664.026	2018
664.079	2317
664.133	3240
664.187	2318
664.240	2524
664.294	2863
664.348	2623
664.401	3319
664.455	2499
664.508	2211
664.562	3048
664.615	3541
664.669	1641
664.722	2800
664.776	2626
664.829	3198
664.883	3086
664.936	2227
664.990	2488
665.043	3023
665.097	2195
665.150	3268
665.203	2249
665.257	2414
665.310	2844
665.363	2890
665.417	2716
665.470	3093
665.523	2962
665.576	3169
665.630	2169
665.683	2544
665.736	3622
665.789	2840
665.842	2519
665.895	2554
665.949	3030
666.002	2831
666.055	3129
666.108	3579
666.161	3419
666.214	3221
666.267	3189
666.320	3508
666.373	2847
666.426	2399
666.479	2703
666.532	3175
666.585	2895
666.638	2777
666.691	2229
666.744	3367
666.796	1889
666.849	3102
666.902	3130
666.955	3305
667.008	1742
667.060	2872
667.113	2791
667.166	3216
667.219	3172
667.271	3399
667.324	3547
667.377	3174
667.430	3021
667.482	2369
667.535	3215
667.587	2714
667.640	2478
667.693	2970
667.745	3515
667.798	3640
667.850	3193
667.903	3296
667.955	2829
668.008	3121
668.060	2512
668.113	2648
668.165	2913
668.218	3198
668.270	3131
668.322	3374
668.375	2563
668.427	2772
668.479	1918
668.532	3698
668.584	2559
668.636	2808
668.689	2436
668.741	2537
668.793	2772
668.845	2713
668.898	3082
668.950	3424
669.002	2268
669.054	2725
669.106	2448
669.158	2984
669.211	2667
669.263	2455
669.315	2839
669.367	3094
669.419	1828
669.471	3267
669.523	2110
669.575	3211
669.627	2971
669.679	3035
669.731	3422
669.783	2448
669.835	2457
669.886	2976
669.938	3549
669.990	2719
670.042	1224
670.094	3190
670.146	2062
670.197	3347
670.249	3135
670.301	3136
670.353	3829
670.404	5397
670.456	6518
670.508	10313
670.560	16774
670.611	27204
670.663	48271
670.715	120281
670.766	152849
670.818	35367
670.869	8636
670.921	4997
670.972	5073
671.024	3032
671.075	3518
671.127	3420
671.178	2415
671.230	3885
671.281	3058
671.333	3509
671.384	3666
671.436	5032
671.487	7669
671.538	10276
671.590	16145
671.641	28002
671.692	50952
671.744	89260
671.795	53119
671.846	18121
671.897	8480
671.949	5200
672.000	5412
672.051	3486
672.102	4411
672.153	2884
672.204	2766
672.256	3243
672.307	2458
672.358	2209
672.409	827
672.460	2392
672.511	1748
672.562	1226
672.613	1551
672.664	1150
672.715	1794
672.766	1463
672.817	1763
672.868	1445
672.919	1412
672.970	1459
673.021	2395
673.071	1439
673.122	1998
673.173	1842
673.224	966
673.275	1422
673.326	909
673.376	884
673.427	1295
673.478	1761
673.528	1925
673.579	1820
673.630	1798
673.680	1861
673.731	1734
673.782	2086
673.832	1685
673.883	974
673.934	1314
673.984	1179
674.035	1346
674.085	1680
674.136	1427
674.186	2103
674.237	2002
674.287	1613
674.338	1582
674.388	1668
674.438	1474
674.489	1084
674.539	1826
674.589	1402
674.640	2140
674.690	2213
674.740	1208
674.791	1410
674.841	1915
674.891	1474
674.942	1345
674.992	1062
675.042	931
675.092	996
675.142	-255
675.193	686
675.243	849
675.293	1829
675.343	1307
675.393	1080
675.443	1674
675.493	1894
675.543	1886
675.593	932
675.643	989
675.693	1374
675.743	1701
675.793	323
675.843	523
675.893	928
675.943	1867
675.993	726
676.043	1546
676.093	1395
676.142	628
676.192	1623
676.242	552
676.292	261
676.341	1522
676.391	158
676.441	110
676.491	39
676.540	466
676.590	925
676.640	557
676.689	1162
676.739	186
676.789	576
676.838	514
676.888	604
676.937	526
676.987	933
677.037	1003
677.086	121
677.136	853
677.185	542
677.235	249
677.284	1181
677.333	574
677.383	695
677.432	152
677.482	368
677.531	1724
677.580	741
677.630	771
677.679	531
677.728	789
677.778	1060
677.827	444
677.876	849
677.925	513
677.975	1242
678.024	1281
678.073	641
678.122	134
678.171	847
678.220	603
678.269	1509
678.319	1233
678.368	668
678.417	811
678.466	1326
678.515	1100
678.564	532
678.613	496
678.662	-435
678.711	376
678.760	813
678.809	1295
678.857	1087
678.906	1186
678.955	60
679.004	310
679.053	-542
679.102	223
679.151	1118
679.199	-165
679.248	1026
679.297	489
679.346	-47
679.394	-73
679.443	3
679.492	523
679.540	599
679.589	-113
679.638	439
679.686	1405
679.735	1117
679.784	949
679.832	1627
679.881	97
679.929	937
679.978	122
680.026	-211
680.075	1124
680.123	514
680.172	344
680.220	640
680.268	266
680.317	133
680.365	202
680.414	114
680.462	716
680.510	1122
680.559	501
680.607	180
680.655	135
680.703	410
680.752	277
680.800	692
680.848	-301
680.896	-226
680.945	1247
680.993	-98
681.041	798
681.089	382
681.137	-612
681.185	238
681.233	-450
681.258	38
681.281	489
681.329	533
681.377	207
681.380	244
681.425	772
681.473	628
681.502	402
681.521	218
681.569	853
681.617	156
681.624	123
681.665	-161
681.713	752
681.745	1033
681.761	1153
681.809	526
681.857	1072
681.867	966
681.904	560
681.952	402
681.989	1040
682.000	1220
682.048	1274
682.096	472
682.111	451
682.143	365
682.191	98
682.233	1507
682.239	1707
682.286	862
682.334	321
682.354	371
682.382	439
682.430	650
682.476	1085
682.477	1084
682.525	687
682.572	973
682.598	785
682.620	622
682.667	1225
682.715	1025
682.720	1005
682.763	675
682.810	429
682.841	499
682.857	536
682.905	865
682.952	1392
682.963	1375
683.000	1264
683.047	1210
683.085	2037
683.095	2256
683.142	1614
683.190	931
683.206	922
683.237	871
683.284	1214
683.328	786
683.332	744
683.379	762
683.426	1326
683.449	1270
683.473	1195
683.521	1369
683.568	1359
683.571	1384
683.615	1602
683.662	1213
683.693	1024
683.709	894
683.757	940
683.804	621
683.814	667
683.851	851
683.898	715
683.936	1390
683.945	1559
683.992	1548
684.039	1404
684.057	1200
684.086	820
684.133	1140
684.179	1245
684.180	1242
684.227	1133
684.274	1717
684.300	1809
684.321	1874
684.368	1718
684.415	2242
684.422	2094
684.462	1120
684.509	1294
684.543	1533
684.556	1642
684.603	1057
684.649	1177
684.665	1200
684.696	1188
684.743	2237
684.786	2002
684.790	1980
684.837	1560
684.883	2202
684.908	2175
684.930	2098
684.977	1357
685.023	1343
685.029	1367
685.070	1586
685.117	1945
685.150	1736
685.164	1650
685.210	1318
685.257	1651
685.272	1823
685.303	2154
685.350	1370
685.393	2323
685.396	2385
685.443	1582
685.490	1884
685.514	1765
685.536	1713
685.583	1499
685.629	1662
685.636	1618
685.675	1315
685.722	1798
685.757	2035
685.768	2108
685.815	1796
685.861	1832
685.878	1983
685.908	2270
685.954	1825
686.000	1797
686.000	1793
686.047	1636
686.093	1784
686.121	1795
686.139	1862
686.185	2217
686.232	2178
686.242	2332
686.278	2627
686.324	2493
686.363	1666
686.370	1547
686.416	2088
686.463	1979
686.484	2056
686.509	2061
686.555	2066
686.601	1850
686.606	1917
686.647	2564
686.693	1944
686.727	1928
686.739	1940
686.785	2206
686.831	2575
686.848	2338
686.877	1902
686.923	2501
686.969	2397
686.969	2396
687.015	2072
687.061	2940
687.090	3008
687.107	2966
687.153	2836
687.199	1906
687.211	2028
687.245	2560
687.291	2531
687.332	2794
687.336	2811
687.382	2743
687.428	2882
687.453	2832
687.474	2743
687.520	2899
687.565	3048
687.574	2925
687.611	2481
687.657	3026
687.695	2845
687.702	2849
687.748	2990
687.794	3584
687.816	3664
687.839	3523
687.885	3127
687.931	2257
687.937	2257
687.976	2486
688.022	3347
688.058	3136
688.067	3067
688.113	2870
688.158	2434
688.179	2523
688.204	2754
688.249	2355
688.295	3407
688.300	3398
688.340	3115
688.386	3248
688.421	2853
688.431	2779
688.477	2687
688.522	3040
688.542	3209
688.567	3467
688.613	3382
688.658	3436
688.663	3417
688.703	3128
688.749	3094
688.784	3062
688.794	3112
688.839	3353
688.884	3528
688.905	3690
688.930	3601
688.975	2847
689.020	2876
689.026	2808
689.065	2947
689.110	3327
689.146	3203
689.155	3088
689.201	3345
689.246	3126
689.267	3044
689.291	3110
689.336	3808
689.381	3678
689.388	3628
689.426	3221
689.471	3433
689.509	3335
689.516	3338
689.561	3907
689.606	3486
689.630	3333
689.651	3165
689.696	3213
689.741	3448
689.750	3404
689.785	3380
689.830	3161
689.871	3586
689.875	3641
689.920	3178
689.965	4135
689.992	3803
690.010	3514
690.054	4007
690.099	3716
690.112	3711
690.144	3726
690.189	3622
690.233	3151
690.233	3155
690.278	3742
690.323	3670
690.354	4084
690.367	4237
690.412	3707
690.457	3687
690.474	3830
690.501	4062
690.546	3987
690.590	3907
690.595	3899
690.635	4161
690.680	4284
690.716	4423
690.724	4429
690.769	5118
690.813	5387
690.836	5344
690.857	5923
690.902	7002
690.946	8940
690.957	9322
690.991	12049
691.035	17132
691.077	20479
691.080	20367
691.124	15723
691.168	11795
691.198	9786
691.213	9216
691.257	7784
691.301	5759
691.318	5111
691.346	5060
691.390	4602
691.434	4759
691.439	4726
691.478	4597
691.522	4262
691.559	4210
691.567	4264
691.611	4940
691.655	4965
691.680	5019
691.699	4856
691.743	4534
691.787	4283
691.800	4058
691.831	3783
691.875	4404
691.919	4350
691.921	4347
691.964	4433
692.008	4104
692.041	4093
692.052	4174
692.096	4394
692.139	4800
692.162	4771
692.183	4528
692.227	4326
692.271	4309
692.282	4299
692.315	4470
692.359	4177
692.402	4010
692.403	4021
692.447	4279
692.490	4392
692.523	4811
692.534	4872
692.578	4560
692.622	4219
692.643	4138
692.666	4222
692.709	4420
692.753	4629
692.763	4659
692.797	4732
692.840	4533
692.884	4490
692.884	4499
692.928	4604
692.971	4216
693.004	4085
693.015	4111
693.059	4275
693.102	4200
693.124	4240
693.146	4282
693.189	4504
693.233	4659
693.245	4565
693.276	4551
693.320	5231
693.363	5355
693.365	5359
693.407	5816
693.450	5913
693.485	6350
693.493	6593
693.537	7425
693.580	8610
693.605	9087
693.624	10219
693.667	13277
693.710	16217
693.725	17413
693.753	22631
693.797	31221
693.840	39478
693.845	40067
693.883	32351
693.926	24359
693.966	17705
693.970	17334
694.013	13447
694.056	9351
694.086	6644
694.099	6592
694.142	6318
694.185	6328
694.206	6172
694.229	6126
694.272	6065
694.315	6160
694.326	6075
694.358	5767
694.401	5862
694.444	5605
694.446	5572
694.487	5368
694.530	5356
694.566	5153
694.573	5114
694.616	5214
694.659	5227
694.686	5057
694.702	5131
694.745	5235
694.787	5622
694.806	5696
694.830	5562
694.873	5255
694.916	5043
694.926	4948
694.959	5081
695.002	5365
695.044	5776
695.046	5778
695.087	5910
695.130	5831
695.166	5814
695.172	5840
695.215	5847
695.258	6041
695.286	5915
695.301	5865
695.343	5917
695.386	6038
695.406	6009
695.428	6139
695.471	6400
695.514	6699
695.526	6801
695.556	7249
695.599	7737
695.641	8112
695.646	8135
695.684	7908
695.726	7724
695.766	7625
695.769	7615
695.811	6969
695.854	6309
695.886	6007
695.896	6170
695.938	6552
695.981	7073
696.005	7256
696.023	7402
696.065	7902
696.108	8300
696.125	8483
696.150	8649
696.192	8633
696.235	8887
696.245	8872
696.277	8811
696.319	8802
696.361	8996
696.365	8963
696.404	8779
696.446	8717
696.485	8702
696.488	8732
696.530	8552
696.572	8625
696.604	8616
696.614	8648
696.656	8614
696.698	8779
696.724	8700
696.740	8612
696.783	8422
696.825	8231
696.844	8162
696.867	8414
696.909	8779
696.951	9071
696.964	9169
696.992	9163
697.034	9044
697.076	8974
697.083	8932
697.118	9090
697.160	9329
697.202	9450
697.203	9430
697.244	9545
697.286	9677
697.323	9625
697.327	9642
697.369	9568
697.411	9604
697.442	9646
697.453	9654
697.494	9391
697.536	9280
697.562	9184
697.578	9327
697.620	9582
697.661	9799
697.682	9938
697.703	10071
697.744	10169
697.786	10339
697.801	10391
697.828	10598
697.869	10703
697.911	10977
697.921	10998
697.952	10546
697.994	9903
698.035	9332
698.040	9228
698.077	9574
698.118	9979
698.160	10358
698.160	10332
698.201	10433
698.243	10516
698.279	10574
698.284	10652
698.325	11110
698.367	11549
698.399	11867
698.408	11883
698.449	11807
698.491	11747
698.518	11687
698.532	11805
698.573	12033
698.614	12277
698.638	12377
698.656	12219
698.697	11801
698.738	11353
698.757	11121
698.779	11329
698.820	11658
698.862	11994
698.877	12085
698.903	12000
698.944	11816
698.985	11634
698.996	11554
699.026	11656
699.067	11758
699.116	11850
699.235	11377
699.354	11628
699.474	11032
699.593	11518
699.713	11353
699.832	11384
699.951	11976
700.070	11647
700.190	10261
700.309	10425
700.428	10140
700.547	9658
700.667	10252
700.786	9673
700.905	9451
701.024	10043
701.143	9309
701.262	10247
701.381	9880
701.500	10886
701.619	10064
701.738	10072
701.857	9974
701.976	9410
702.095	10178
702.214	11077
702.333	10027
702.452	9904
702.571	10220
702.690	10272
702.809	10185
702.928	9077
703.047	9301
703.165	9549
703.284	8497
703.403	9137
703.522	8555
703.640	8821
703.759	8534
703.878	8986
703.997	7955
704.115	8237
704.234	8717
704.353	8420
704.471	6924
704.590	7744
704.708	8748
704.827	8657
704.946	7785
705.064	7688
705.183	7741
705.301	8607
705.420	8389
705.538	8493
705.656	8477
705.775	7110
705.893	8400
706.012	8334
706.130	7778
706.249	7758
706.367	8355
706.485	7739
706.604	6876
706.722	6501
706.840	8679
706.958	7843
707.077	6969
707.195	8243
707.313	6848
707.431	7493
707.549	6225
707.668	6710
707.786	6846
707.904	6582
708.022	6769
708.140	7078
708.258	6298
708.376	7481
708.494	6871
708.612	7507
708.730	6734
708.848	6024
708.966	6621
709.084	7593
709.202	7370
709.320	6978
709.438	5552
709.556	6685
709.674	6374
709.791	6244
709.909	6109
710.027	6336
710.145	6558
710.263	6958
710.380	5727
710.498	6165
710.616	5925
710.733	5638
710.851	6266
710.969	5894
711.086	5587
711.204	6133
711.322	5119
711.439	5083
711.557	5358
711.674	6011
711.792	5658
711.909	5799
712.027	6287
712.144	4869
712.262	6076
712.379	6232
712.497	6274
712.614	6066
712.732	6284
712.849	5905
712.966	5783
713.084	6251
713.201	4649
713.318	5161
713.436	6141
713.553	6265
713.670	5903
713.787	5863
713.905	6187
714.022	6630
714.139	5697
714.256	7652
714.373	11243
714.490	21489
714.608	64092
714.725	251461
714.842	167969
714.959	15547
715.076	8157
715.193	7186
715.310	6284
715.427	5847
715.544	5507
715.661	5395
715.778	5224
715.895	5150
716.011	5328
716.128	5420
716.245	5200
716.362	5418
716.479	4294
716.596	4683
716.713	5376
716.829	4329
716.946	4751
717.063	4860
717.180	3782
717.296	3856
717.413	4340
717.530	4583
717.646	4322
717.763	4663
717.880	4019
717.996	4214
718.113	4607
718.229	4365
718.346	3925
718.462	3277
718.579	4777
718.695	4262
718.812	3836
718.928	4232
719.045	3760
719.161	3831
719.277	4114
719.394	4225
719.510	4566
719.626	4148
719.743	6863
719.859	10895
719.975	22322
720.092	95221
720.208	149448
720.324	14213
720.440	5552
720.557	4970
720.673	5376
720.789	4730
720.905	5763
721.021	4378
721.137	4226
721.253	4141
721.369	3807
721.486	3193
721.602	3986
721.718	4037
721.834	3840
721.950	3165
722.066	2961
722.181	2766
722.297	3716
722.413	4271
722.529	4062
722.645	4424
722.761	3165
722.877	3999
722.993	3649
723.108	4936
723.224	4155
723.340	3320
723.456	3739
723.571	3048
723.687	3418
723.803	2706
723.918	3171
724.034	3185
724.150	2829
724.265	3150
724.381	3297
724.497	2463
724.612	2460
724.728	3712
724.843	2257
724.959	3172
725.074	4074
725.190	3368
725.305	3684
725.421	2437
725.536	2739
725.651	3057
725.767	3058
725.882	3311
725.997	3149
726.113	3627
726.228	3530
726.343	2741
726.459	3019
726.574	2895
726.689	2677
726.804	2909
726.920	2024
727.035	2660
727.150	2552
727.265	3253
727.380	3452
727.495	3196
727.610	2926
727.725	3423
727.841	2226
727.956	3457
728.071	3441
728.186	2785
728.301	2269
728.416	4216
728.531	2644
728.645	3155
728.760	2527
728.875	2336
728.990	2248
729.105	3555
729.220	3096
729.335	3214
729.449	2645
729.564	2527
729.679	2193
729.794	2565
729.908	2952
730.023	3174
730.138	2813
730.253	3453
730.367	2718
730.482	2619
730.596	2684
730.711	3643
730.826	4488
730.940	3493
731.055	3897
731.169	3240
731.284	2977
731.398	3070
731.513	4231
731.627	4170
731.742	5160
731.856	5888
731.970	5718
732.085	6969
732.199	9279
732.313	18636
732.428	51975
732.542	143355
732.656	58664
732.771	12785
732.885	9204
732.999	9234
733.113	9363
733.227	9483
733.342	7445
733.456	8683
733.570	7698
733.684	7620
733.798	6602
733.912	8297
734.026	7627
734.140	7791
734.254	6812
734.368	7427
734.482	7468
734.596	6627
734.710	7211
734.824	6716
734.938	7010
735.052	6730
735.166	7330
735.280	6500
735.393	5859
735.507	6590
735.621	6584
735.735	6423
735.849	7019
735.962	5444
736.076	6389
736.190	6329
736.303	6969
736.417	6901
736.531	5961
736.644	5221
736.758	5081
736.872	6154
736.985	6555
737.099	5509
737.212	4926
737.326	5550
737.439	6381
737.553	5517
737.666	5250
737.780	5288
737.893	5423
738.007	5670
738.120	5512
738.233	5916
738.347	4835
738.460	5846
738.573	5254
738.687	5016
738.800	6087
738.913	6552
739.026	5354
739.140	5134
739.253	4444
739.366	4881
739.479	4638
739.592	5460
739.705	5382
739.818	6087
739.932	4506
740.045	5993
740.158	5892
740.271	5641
740.384	4514
740.497	4306
740.610	4844
740.723	4423
740.836	4331
740.949	5332
741.062	4548
741.174	4929
741.287	4775
741.400	4172
741.513	3846
741.626	4637
741.739	4052
741.851	4141
741.964	4716
742.077	4066
742.189	4335
742.302	5319
742.415	4084
742.527	4337
742.640	4643
742.753	4401
742.865	4643
742.978	3364
743.090	3831
743.203	4117
743.316	4321
743.428	3856
743.541	3939
743.653	3434
743.766	4425
743.878	3236
743.990	3941
744.103	4830
744.215	4214
744.327	4159
744.440	5541
744.552	3196
744.664	4448
744.777	3633
744.889	3548
745.001	4066
745.113	4306
745.226	3649
745.338	4010
745.450	4243
745.562	3224
745.674	3880
745.786	4229
745.898	4465
746.010	4434
746.122	3681
746.234	3367
746.347	4255
746.459	3089
746.570	3627
746.682	4652
746.794	4444
746.906	3363
747.018	3468
747.130	3567
747.242	4372
747.354	3248
747.466	4028
747.577	2601
747.689	4567
747.801	4534
747.913	2339
748.024	3163
748.136	2836
748.248	1912
748.359	3455
748.471	3122
748.583	2708
748.694	1928
748.806	3605
748.918	3568
749.029	2912
749.141	3375
749.252	3425
749.364	2940
749.475	3098
749.587	2215
749.698	2275
749.809	3438
749.921	3133
750.032	3479
750.144	1995
750.255	3044
750.366	2788
750.478	2942
750.589	3498
750.700	2673
750.811	4460
750.923	2380
751.034	2666
751.145	3309
751.256	2731
751.367	2680
751.479	2590
751.590	2884
751.701	2711
751.812	2580
751.923	3079
752.034	4004
752.145	3135
752.256	2730
752.367	2606
752.478	3364
752.589	3615
752.700	3693
752.811	2989
752.922	2295
753.032	3374
753.143	3573
753.254	2606
753.365	3730
753.476	2157
753.586	2795
753.697	2899
753.808	3114
753.919	2691
754.029	2559
754.140	3535
754.251	2146
754.361	2737
754.472	3531
754.582	2863
754.693	1907
754.804	3314
754.914	2487
755.025	3241
755.135	1877
755.246	3721
755.356	1838
755.466	3605
755.577	3016
755.687	3387
755.798	2278
755.908	2868
756.018	2903
756.129	3169
756.239	3439
756.349	2626
756.460	2516
756.570	2821
756.680	2751
756.790	3334
756.900	2556
757.011	2555
757.121	2948
757.231	2877
757.341	3792
757.451	2574
757.561	2821
757.671	4232
757.781	2039
757.891	3542
758.001	1897
758.111	3381
758.221	2891
758.331	3328
758.441	3540
758.551	2113
758.661	2695
758.771	3581
758.880	2469
758.990	3616
759.100	2753
759.210	3416
759.320	2831
759.429	3518
759.539	3470
759.649	3261
759.758	3869
759.868	3438
759.978	3314
760.087	3638
760.197	4819
760.307	5141
760.416	3655
760.526	3660
760.635	5367
760.745	4003
760.854	4327
760.964	5456
761.073	5755
761.182	4269
761.292	4366
761.401	4519
761.511	4258
761.620	4743
761.729	4055
761.839	3465
761.948	4168
762.057	3946
762.166	3783
762.276	2952
762.385	5941
762.494	5303
762.603	4589
762.712	5301
762.822	4933
762.931	5335
763.040	4864
763.149	5300
763.258	6047
763.367	7055
763.476	6578
763.585	6364
763.694	7776
763.803	6892
763.912	7935
764.021	8145
764.130	8644
764.238	9143
764.347	9513
764.456	10833
764.565	11504
764.674	12090
764.783	13289
764.891	13886
765.000	17007
765.109	18936
765.217	21896
765.326	25496
765.435	30793
765.543	38021
765.652	48856
765.761	65343
765.869	89456
765.978	133779
766.086	202855
766.195	310100
766.303	390131
766.412	289713
766.520	363650
766.629	356394
766.737	229808
766.846	147679
766.954	100933
767.062	74633
767.171	56446
767.279	44398
767.387	37599
767.496	30735
767.604	26392
767.712	23517
767.820	20073
767.928	19405
768.037	17916
768.145	16900
768.253	16459
768.361	15775
768.469	14894
768.577	15794
768.685	16802
768.793	17754
768.901	19768
769.009	23369
769.117	28531
769.225	37059
769.333	53511
769.441	85821
769.549	144835
769.657	260075
769.765	339088
769.873	302167
769.981	313376
770.088	175770
770.196	101842
770.304	67001
770.412	48329
770.519	37503
770.627	29204
770.735	24027
770.842	20206
770.950	17577
771.058	15577
771.165	14994
771.273	13374
771.380	12499
771.488	14291
771.595	12737
771.703	11438
771.810	11180
771.918	10362
772.025	11426
772.133	11765
772.240	10480
772.348	11713
772.455	10736
772.562	10427
772.670	9203
772.777	9799
772.884	8917
772.991	8761
773.099	9212
773.206	8183
773.313	8865
773.420	8210
773.528	7120
773.635	7099
773.742	7666
773.849	8057
773.956	6923
774.063	7113
774.170	7435
774.277	7155
774.384	6474
774.491	6451
774.598	6302
774.705	6789
774.812	6869
774.919	6549
775.026	6624
775.133	6667
775.239	5844
775.346	6092
775.453	6153
775.560	5454
775.667	5858
775.773	4398
775.880	6009
775.987	5480
776.093	6218
776.200	5721
776.307	4384
776.413	5823
776.520	5694
776.627	5100
776.733	5187
776.840	3750
776.946	6705
777.053	5147
777.159	6152
777.266	4645
777.372	6091
777.478	6352
777.585	5673
777.691	3354
777.798	4424
777.904	4504
778.010	4712
778.117	4795
778.223	4133
778.329	3534
778.435	3986
778.542	4790
778.648	4122
778.754	3363
778.860	4771
778.966	4276
779.072	3400
779.178	3760
779.284	3635
779.391	3826
779.497	3538
779.603	5716
779.708	4764
779.815	10436
779.920	34920
780.026	33429
780.132	5858
780.238	3203
780.344	4344
780.450	4891
780.556	2771
780.661	3150
780.767	4027
780.873	2767
780.979	3732
781.085	3093
781.190	2959
781.296	3042
781.402	2967
781.507	2687
781.613	2267
781.719	2324
781.824	3524
781.930	2649
782.035	3382
782.141	2912
782.246	2908
782.352	2879
782.457	3002
782.563	3581
782.668	2571
782.773	2403
782.879	2000
782.984	3942
783.090	2820
783.195	2620
783.300	2626
783.405	2132
783.511	1296
783.616	3016
783.721	2476
783.826	1564
783.932	2529
784.037	2131
784.142	2219
784.247	2404
784.352	2010
784.457	2338
784.562	2591
784.667	2487
784.772	1464
784.877	1513
784.982	2754
785.087	1977
785.192	2597
785.297	757
785.402	2495
785.507	2170
785.611	2952
785.716	2234
785.821	2940
785.926	2710
786.031	2680
786.135	2362
786.240	2523
786.345	679
786.450	2607
786.554	1399
786.659	1691
786.763	1419
786.868	1935
786.973	3107
787.077	1654
787.182	1824
787.286	2575
787.391	2177
787.495	1624
787.600	1387
787.704	1326
787.809	1699
787.913	835
788.017	1195
788.122	2020
788.226	1288
788.330	228
788.435	2428
788.539	2789
788.643	1247
788.747	1147
788.852	1346
788.956	1434
789.060	2526
789.164	1920
789.268	200
789.372	1725
789.476	1517
789.580	-44
789.684	1231
789.788	2564
789.892	546
789.996	1935
790.100	1423
790.204	2240
790.308	1827
790.412	391
790.516	387
790.620	1255
790.724	1956
790.828	723
790.931	353
791.035	2799
791.139	775
791.242	797
791.346	1709
791.450	246
791.554	786
791.657	-215
791.761	1757
791.864	1224
791.968	960
792.072	871
792.175	638
792.279	710
792.382	875
792.486	1004
792.589	750
792.693	1352
792.796	-47
792.899	1860
793.003	1957
793.106	-350
793.209	574
793.313	1361
793.416	-470
793.519	1068
793.623	2342
793.726	389
793.829	415
793.932	1510
794.035	3
794.138	1512
794.242	1775
794.345	294
794.448	942
794.551	3624
794.654	16528
794.757	17438
794.860	1928
794.963	923
795.066	343
795.169	1610
795.272	279
795.375	1729
795.477	-222
795.580	872
795.683	-260
795.786	922
795.889	177
795.991	1705
796.094	1373
796.197	-926
796.300	1246
796.402	77
796.505	-641
796.608	-141
796.710	956
796.813	491
796.915	194
797.018	550
797.120	704
797.223	-1049
797.326	1417
797.428	-36
797.530	-208
797.633	888
797.735	1958
797.838	-89
797.940	1355
798.042	332
798.145	-511
798.247	783
798.349	-853
798.452	1657
798.554	-55
798.656	-152
798.758	1273
798.860	711
798.962	469
799.065	-536
799.167	-1041
799.269	844
799.371	1129
799.473	1423
799.575	-627
799.677	-472
799.779	1133
799.881	-1573
799.983	648
800.085	277
800.187	-137
800.289	-630
800.390	-80
800.492	1394
800.594	2303
800.696	-342
800.798	336
800.899	599
801.001	52
801.103	-46
801.205	19
801.306	159
801.408	-276
801.509	745
801.611	513
801.713	942
801.814	147
801.916	557
802.017	-364
802.119	-538
802.220	282
802.322	-658
802.423	1948
802.525	-588
802.626	-185
802.727	825
802.829	485
802.930	-1826
803.031	1274
803.133	-278
803.234	-198
803.335	22
803.436	-434
803.538	719
803.639	-1094
803.740	752
803.841	-8
803.942	698
804.043	568
804.144	-148
804.245	296
804.346	417
804.447	-1003
804.548	-428
804.649	184
804.750	196
804.851	-499
804.952	-321
805.053	821
805.154	-1293
805.255	725
805.355	541
805.456	126
805.557	-72
805.658	-884
805.758	-267
805.859	10
805.960	120
806.061	-1051
806.161	870
806.262	-394
806.362	-454
806.463	-488
806.564	195
806.664	-563
806.765	-300
806.865	-577
806.966	-293
807.066	-1227
807.166	1379
807.267	889
807.367	-90
807.468	158
807.568	-2348
807.668	339
807.769	485
807.869	-269
807.969	109
808.069	-980
808.170	-94
808.270	-690
808.370	396
808.470	-568
808.570	-1231
808.670	-184
808.770	-73
808.870	-969
808.970	482
809.070	-408
809.170	-640
809.271	239
809.370	-314
809.470	-280
809.570	-53
809.670	-739
809.770	5
809.870	705
809.970	-435
810.070	-335
810.169	490
810.269	-1837
810.369	555
810.469	73
810.568	-1172
810.668	-848
810.768	-299
810.867	-648
810.967	-1135
811.066	-976
811.166	346
811.265	135
811.365	-345
811.464	-729
811.564	-450
811.663	314
811.763	-1220
811.862	445
811.962	1291
812.061	-686
812.160	-1052
812.260	556
812.359	-57
812.458	-740
812.557	1384
812.657	-581
812.756	75
812.855	-759
812.954	-888
813.053	338
813.153	-31
813.252	-1109
813.351	-234
813.450	-18
813.549	35
813.648	-377
813.747	-1043
813.846	479
813.945	-1347
814.044	-681
814.143	-271
814.242	184
814.341	-581
814.439	131
814.538	-253
814.637	418
814.736	-426
814.835	-132
814.933	-207
815.032	917
815.131	1067
815.229	3083
815.328	3876
815.427	2109
815.525	2484
815.624	1851
815.722	1502
815.821	2857
815.919	2987
816.018	1940
816.116	2814
816.215	1900
816.313	2172
816.412	2793
816.510	3396
816.609	4974
816.707	4497
816.805	3333
816.904	1995
817.002	3377
817.100	3561
817.198	3495
817.296	2107
817.395	2534
817.493	3999
817.591	2488
817.689	3467
817.787	2993
817.885	4043
817.983	2731
818.081	2764
818.179	4298
818.277	7697
818.375	4263
818.473	2434
818.571	2509
818.669	2626
818.767	2350
818.865	1372
818.963	1655
819.061	3249
819.158	2658
819.256	5328
819.354	5742
819.452	11436
819.549	3341
819.647	4008
819.745	1499
819.842	2787
819.940	1866
820.038	1139
820.135	2342
820.233	3255
820.330	1667
820.428	1504
820.525	2609
820.623	2844
820.720	1224
820.818	2647
820.915	1834
821.012	3269
821.110	553
821.207	2797
821.304	1132
821.402	1725
821.499	2369
821.596	2028
821.693	1501
821.791	2894
821.888	1951
821.985	2100
822.082	950
822.179	2500
822.276	1369
822.373	1943
822.470	1718
822.567	2054
822.664	46
822.761	2941
822.858	426
822.955	1946
823.052	286
823.149	1821
823.246	1280
823.343	495
823.440	1965
823.536	1534
823.633	1120
823.730	1224
823.827	1532
823.923	1731
824.020	2557
824.117	1751
824.213	202
824.310	1749
824.407	473
824.503	1705
824.600	984
824.696	1973
824.793	2059
824.889	273
824.986	618
825.082	1232
825.179	581
825.275	1407
825.371	1500
825.468	1321
825.564	-510
825.660	1502
825.757	1767
825.853	1037
825.949	276
826.045	1247
826.142	-93
826.238	1135
826.334	875
826.430	342
826.526	466
826.622	39
826.718	1485
826.814	430
826.910	1282
827.006	41
827.102	225
827.198	2405
827.294	844
827.390	1417
827.486	1496
827.582	-1014
827.678	-349
827.774	2094
827.869	-4
827.965	997
828.061	262
828.157	1706
828.252	1750
828.348	383
828.444	996
828.539	461
828.635	427
828.731	820
828.826	77
828.922	1520
829.017	-37
829.113	996
829.208	-129
829.304	-411
829.399	1903
829.495	-162
829.590	661
829.685	72
829.781	784
829.876	1202
829.971	-724
830.066	146
830.162	-262
830.257	556
830.352	-657
830.447	109
830.543	520
830.638	41
830.733	1102
830.828	218
830.923	358
831.018	443
831.113	275
831.208	-913
831.303	-351
831.398	244
831.493	-317
831.588	445
831.683	-1120
831.778	-107
831.873	-412
831.967	1309
832.062	34
832.157	-640
832.252	712
832.346	-42
832.441	321
832.536	361
832.631	402
832.725	-324
832.820	-1011
832.914	536
833.009	-231
833.104	-381
833.198	549
833.293	65
833.387	490
833.482	999
833.576	-412
833.670	326
833.765	164
833.859	-666
833.954	699
834.048	861
834.142	-219
834.237	154
834.331	159
834.425	-40
834.519	-157
834.613	431
834.708	-382
834.802	-189
834.896	-618
834.990	-176
835.084	-1027
835.178	-534
835.272	-557
835.366	712
835.460	731
835.554	-336
835.648	-93
835.742	-600
835.836	57
835.930	-1204
836.024	501
836.117	177
836.211	-2025
836.305	-65
836.399	316
836.493	-1111
836.586	-31
836.680	64
836.774	-1376
836.867	710
836.961	-849
837.055	-270
837.148	66
837.242	-112
837.335	-205
837.429	-639
837.522	-715
837.616	-467
837.709	463
837.803	99
837.896	63
837.989	-599
838.083	-415
838.176	-692
838.269	-1129
838.363	-622
838.456	-1235
838.549	326
838.642	-736
838.735	-352
838.829	413
838.922	-1521
839.015	-59
839.108	-1202
839.201	-42
839.294	7
839.387	-367
839.480	-655
839.573	-1251
839.666	-896
839.759	-1048
839.852	-1072
839.945	-114
840.038	-1048
840.131	-418
840.223	-293
840.316	-26
840.409	-641
840.502	-1011
840.594	335
840.687	-1462
840.780	-509
840.873	-1131
840.965	-817
841.058	-611
841.150	-525
841.243	-2011
841.336	-90
841.428	-727
841.521	-1115
841.613	-1486
841.706	-493
841.798	-385
841.890	-553
841.983	-1272
842.075	292
842.167	-672
842.260	-463
842.352	294
842.444	-657
842.537	-480
842.629	-687
842.721	-1085
842.813	-746
842.905	-1884
842.997	-61
843.090	-670
843.182	-44
843.274	-1194
843.366	31
843.458	-228
843.550	-216
843.642	-596
843.734	-932
843.826	-684
843.918	-521
844.009	-821
844.101	-985
844.193	-879
844.285	-1367
844.377	-544
844.469	-615
844.560	-1467
844.652	-1159
844.744	-504
844.835	-696
844.927	-309
845.019	-970
845.110	-1018
845.202	44
845.293	-983
845.385	-1451
845.476	-1210
845.568	-162
845.659	-1109
845.751	-822
845.842	-906
845.934	-1285
846.025	-191
846.116	-1121
846.208	-342
846.299	-1212
846.390	-1077
846.482	-900
846.573	-108
846.664	-1015
846.755	-1273
846.846	-811
846.937	-2262
847.029	-1112
847.120	-2116
847.211	-1949
847.302	341
847.393	-1725
847.484	-728
847.575	-269
847.666	-1382
847.757	-1080
847.847	-596
847.938	-332
848.029	-117
848.120	-811
848.211	-2021
848.302	-1567
848.392	-1172
848.483	-478
848.574	-1660
848.664	-1240
848.755	-1345
848.846	-271
848.936	-1439
849.027	-347
849.118	-993
849.208	-1371
849.299	-373
849.389	499
849.480	1943
849.570	4398
849.661	9909
849.751	15724
849.841	2911
849.932	-196
850.022	-1099
850.112	-767
850.203	-265
850.293	-1502
850.383	-1193
850.474	-1391
850.564	-1335
850.654	-1130
850.744	-639
850.834	-787
850.924	-873
851.014	-436
851.104	-1402
851.194	-836
851.284	-1262
851.374	-1246
851.464	-1518
851.554	-1275
851.644	-1542
851.734	-199
851.824	-1359
851.914	-597
852.004	-1375
852.094	-1388
852.183	-1181
852.273	-1279
852.363	-2116
852.452	-1340
852.542	-719
852.632	-1463
852.721	-944
852.811	-998
852.901	-617
852.990	-1005
853.080	-1027
853.169	-1151
853.259	-894
853.348	-750
853.438	-1716
853.527	519
853.617	338
853.706	1943
853.795	4294
853.885	13339
853.974	24314
854.063	47005
854.152	58568
854.242	18492
854.331	2608
854.420	693
854.509	880
854.598	851
854.687	-670
854.777	-267
854.866	-1116
854.955	-101
855.044	-1695
855.133	-1194
855.222	-799
855.311	-1235
855.400	-1019
855.488	-787
855.577	-910
855.666	-947
855.755	-1077
855.844	-61
855.933	-1637
856.021	-221
856.110	-991
856.199	-1624
856.288	-1223
856.376	-991
856.465	-1546
856.554	-621
856.642	-1151
856.731	-1013
856.819	-733
856.908	-1477
856.996	-924
857.085	-1586
857.173	-960
857.262	-928
857.350	-1237
857.438	-1724
857.527	-1061
857.615	-938
857.703	-694
857.792	-1665
857.880	-808
857.968	-1058
858.056	-1652
858.145	-1005
858.233	-1610
858.321	-1636
858.409	-1146
858.497	-1180
858.585	-1186
858.673	-467
858.761	-1916
858.849	-848
858.937	-1759
859.025	-1035
859.113	-723
859.201	-1248
859.289	-805
859.377	-922
859.465	-857
859.552	-977
859.640	-1564
859.728	-926
859.816	-1396
859.903	-962
859.991	-1427
860.079	-1587
860.166	-1044
860.254	-808
860.342	-801
860.429	-1226
860.517	-2076
860.604	-429
860.692	-1544
860.779	-742
860.867	-1396
860.954	-1137
861.042	-1033
861.129	-1055
861.216	-724
861.304	-1423
861.391	-1925
861.478	-892
861.565	-1018
861.653	-427
861.740	-1361
861.827	-1918
861.914	-1189
862.001	-1495
862.089	-946
862.176	-579
862.263	-980
862.350	-550
862.437	-1462
862.524	-1286
862.611	-1134
862.698	-1114
862.785	-1029
862.871	-775
862.958	-1281
863.045	-1641
863.132	-1289
863.219	-1074
863.306	-1864
863.392	-766
863.479	-1553
863.566	-852
863.652	11
863.739	-1888
863.826	-690
863.912	-1510
863.999	-1276
864.086	-1312
864.172	-1145
864.259	-734
864.345	-1695
864.432	-606
864.518	-796
864.604	-440
864.691	-1433
864.777	-601
864.863	205
864.950	292
865.036	764
865.122	2551
865.209	3211
865.295	2933
865.381	2447
865.467	1420
865.553	2463
865.639	2625
865.726	4264
865.812	9025
865.898	14392
865.984	20700
866.070	37479
866.156	33250
866.242	8215
866.328	3423
866.414	2278
866.499	2309
866.585	1527
866.671	1035
866.757	2599
866.843	2235
866.928	1355
867.014	486
867.100	1887
867.186	2165
867.271	704
867.357	1715
867.442	-490
867.528	1458
867.614	1216
867.699	1654
867.785	1185
867.870	942
867.956	1026
868.041	1680
868.127	205
868.212	1252
868.297	836
868.383	1350
868.468	1210
868.553	2493
868.639	700
868.724	1116
868.809	1616
868.894	1221
868.979	1950
869.065	1638
869.150	-412
869.235	1112
869.320	735
869.405	674
869.490	1377
869.575	1156
869.660	37
869.745	1660
869.830	708
869.915	697
870.000	1321
870.085	804
870.169	1198
870.254	919
870.339	-654
870.424	423
870.509	1084
870.593	1358
870.678	1011
870.763	509
870.847	650
870.932	474
871.016	819
871.101	382
871.186	901
871.270	1142
871.355	-13
871.439	467
871.523	841
871.608	485
871.692	536
871.777	764
871.861	539
871.945	-650
872.030	899
872.114	1034
872.198	202
872.282	1057
872.367	265
872.451	-268
872.535	494
872.619	-745
872.703	-350
872.787	39
872.871	746
872.955	-354
873.039	-423
873.123	319
873.207	571
873.291	-502
873.375	-527
873.459	1204
873.543	187
873.627	-171
873.711	24
873.794	714
873.878	-897
873.962	137
874.045	-782
874.129	-6
874.137	-9
874.213	-39
874.245	34
874.296	153
874.352	-393
874.380	-659
874.460	-329
874.464	-316
874.547	84
874.568	233
874.631	661
874.676	768
874.714	869
874.784	954
874.798	964
874.881	667
874.892	681
874.965	825
874.999	513
875.048	54
875.107	-37
875.131	-59
875.215	-30
875.215	-30
875.298	-285
875.323	-272
875.381	-250
875.430	269
875.465	655
875.538	-62
875.548	-165
875.631	-572
875.646	-551
875.714	-468
875.753	-406
875.798	-308
875.861	-199
875.881	-181
875.964	-280
875.968	-302
876.047	-608
876.076	-112
876.130	779
876.183	406
876.213	219
876.291	535
876.296	554
876.379	-214
876.398	-187
876.462	-117
876.506	-383
876.545	-557
876.613	49
876.628	153
876.711	-209
876.721	-221
876.794	-139
876.828	-57
876.877	-93
876.935	-518
876.960	-607
877.043	125
877.043	126
877.125	124
877.150	122
877.208	91
877.258	-109
877.291	-180
877.365	-614
877.374	-658
877.456	41
877.472	81
877.539	97
877.579	-16
877.622	-112
877.687	-391
877.704	-457
877.787	-184
877.794	-151
877.869	231
877.901	122
877.952	-165
878.008	-601
878.034	-700
878.115	-283
878.117	-276
878.199	-223
878.222	-154
878.282	-13
878.329	112
878.364	75
878.437	-372
878.447	-371
878.529	-1223
878.544	-1102
878.611	-756
878.651	-871
878.694	-855
878.758	-353
878.776	-265
878.858	-131
878.865	-124
878.941	-134
878.972	-421
879.023	-753
879.078	-588
879.105	-507
879.185	128
879.187	137
879.269	-297
879.292	-455
879.351	-785
879.399	-984
879.433	-1026
879.506	-409
879.516	-315
879.598	-17
879.613	24
879.680	-67
879.720	29
879.762	186
879.827	-535
879.844	-763
879.926	-626
879.933	-623
880.007	-385
880.040	-353
880.089	-249
880.147	264
880.171	510
880.253	543
880.254	542
880.335	95
880.360	439
880.417	1684
880.467	2321
880.499	2882
880.574	3083
880.580	3000
880.662	972
880.680	762
880.744	186
880.787	-317
880.825	-572
880.893	-277
880.907	-244
880.989	-292
881.000	-304
881.070	-284
881.106	-323
881.152	-460
881.213	-698
881.233	-638
881.315	-395
881.319	-339
881.396	182
881.426	-13
881.478	-209
881.532	273
881.559	440
881.639	-176
881.641	-190
881.722	-535
881.745	-461
881.803	-142
881.852	-369
881.885	-577
881.958	-863
881.966	-850
882.047	-46
882.064	-9
882.129	-215
882.171	-431
882.210	-691
882.277	-505
882.291	-403
882.372	-197
882.383	-164
882.454	110
882.489	89
882.535	51
882.596	-213
882.616	-354
882.697	-88
882.702	-101
882.778	-282
882.808	-274
882.859	22
882.914	336
882.940	408
883.020	88
883.021	84
883.102	-418
883.127	-458
883.183	-6
883.233	118
883.264	24
883.339	-7
883.345	4
883.426	-380
883.445	-284
883.507	148
883.551	422
883.587	460
883.657	-120
883.668	-159
883.749	179
883.763	146
883.830	-270
883.869	-296
883.910	-206
883.975	-148
883.991	-91
884.072	71
884.081	71
884.152	-289
884.187	-362
884.233	-119
884.292	222
884.314	93
884.394	-771
884.398	-800
884.475	-428
884.504	-234
884.555	-7
884.610	-152
884.636	-317
884.716	-217
884.716	-213
884.797	-68
884.821	-126
884.877	-136
884.927	-28
884.958	-139
885.033	-608
885.038	-598
885.118	-466
885.139	-358
885.199	-585
885.244	-657
885.279	-312
885.350	100
885.359	99
885.439	325
885.456	215
885.520	19
885.561	203
885.600	-5
885.667	-324
885.680	-221
885.760	112
885.773	183
885.840	-14
885.878	-149
885.920	-6
885.984	185
886.000	160
886.080	110
886.089	93
886.160	-57
886.195	-66
886.240	152
886.300	196
886.320	35
886.400	-413
886.406	-451
886.480	-177
886.511	-30
886.560	109
886.616	290
886.640	222
886.720	-111
886.722	-123
886.800	49
886.827	191
886.879	360
886.932	327
886.959	365
887.038	809
887.039	808
887.119	67
887.143	-78
887.198	-32
887.248	-81
887.278	74
887.354	530
887.358	535
887.437	418
887.459	432
887.517	268
887.564	80
887.596	93
887.669	-57
887.676	-60
887.755	46
887.774	31
887.835	161
887.880	413
887.914	416
887.985	303
887.994	347
888.073	536
888.090	587
888.153	195
888.195	-72
888.232	-152
888.300	-252
888.311	-266
888.391	-450
888.405	-481
888.470	-468
888.510	-448
888.549	-334
888.615	-120
888.628	-20
888.708	466
888.720	549
888.787	-171
888.825	-620
888.866	-408
888.930	-7
888.945	-18
889.024	-97
889.035	-110
889.103	-121
889.140	-152
889.182	-105
889.245	-7
889.261	-58
889.340	-273
889.349	-300
889.419	-428
889.454	-494
889.498	-594
889.559	-704
889.577	-550
889.656	127
889.664	194
889.735	275
889.768	315
889.814	708
889.873	1222
889.978	309
890.083	690
890.187	591
890.292	-630
890.397	-2
890.501	-110
890.606	-12
890.710	417
890.815	-29
890.919	-47
891.024	762
891.128	411
891.233	-273
891.337	504
891.442	251
891.546	401
891.650	-86
891.755	-444
891.859	1103
891.963	-143
892.068	830
892.172	75
892.276	169
892.380	78
892.484	-7
892.589	806
892.693	438
892.797	-222
892.901	-112
893.005	522
893.109	245
893.213	378
893.317	365
893.421	5
893.525	-670
893.629	-145
893.733	-728
893.837	-323
893.941	408
894.045	442
894.148	254
894.252	-10
894.356	406
894.460	-1
894.564	242
894.667	467
894.771	-462
894.875	80
894.978	-218
895.082	-290
895.186	194
895.289	771
895.393	225
895.496	109
895.600	-359
895.703	299
895.807	-54
895.910	333
896.014	-431
896.117	-166
896.221	245
896.324	121
896.427	249
896.531	295
896.634	-222
896.737	330
896.840	-298
896.944	340
897.047	347
897.150	467
897.253	161
897.356	-25
897.460	258
897.563	150
897.666	335
897.769	-2
897.872	32
897.975	-147
898.078	-317
898.181	225
898.284	288
898.387	637
898.490	-562
898.593	517
898.695	47
898.798	-119
898.901	213
899.004	602
899.107	361
899.209	525
899.312	-305
899.415	592
899.518	251
899.620	-185
899.723	287
899.826	-276
899.928	114
900.031	287
900.133	394
900.236	-305
900.338	225
900.441	1014
900.543	431
900.646	129
900.748	259
900.851	294
900.953	-186
901.055	-312
901.158	-168
901.260	-126
901.362	192
901.465	-71
901.567	-191
901.669	-12
901.771	-320
901.873	35
901.976	-131
902.078	464
902.180	-163
902.282	-197
902.384	348
902.486	118
902.588	404
902.690	89
902.792	40
902.894	-61
902.996	-477
903.098	-198
903.200	-1007
903.302	-178
903.404	160
903.505	-739
903.607	212
903.709	-24
903.811	-463
903.913	-83
904.014	-683
904.116	-93
904.218	-325
904.319	-305
904.421	98
904.523	437
904.624	-694
904.726	194
904.827	-561
904.929	-48
905.030	-88
905.132	-516
905.233	306
905.335	-49
905.436	306
905.537	-338
905.639	-170
905.740	-487
905.841	264
905.943	55
906.044	250
906.145	768
906.247	-223
906.348	-89
906.449	-128
906.550	541
906.651	-147
906.752	-323
906.854	-113
906.955	7
907.056	-656
907.157	293
907.258	708
907.359	-46
907.460	88
907.561	388
907.662	14
907.762	-531
907.863	-89
907.964	-450
908.065	602
908.166	-276
908.267	823
908.367	-79
908.468	-424
908.569	660
908.670	84
908.770	-97
908.871	-180
908.971	-896
909.072	-10
909.173	-393
909.273	-443
909.374	215
909.474	-529
909.575	21
909.675	-483
909.776	321
909.876	-524
909.977	-444
910.077	-113
910.177	-641
910.278	-15
910.378	-324
910.478	125
910.579	-76
910.679	-88
910.779	278
910.879	-251
910.980	-782
911.080	-464
911.180	-1271
911.280	-663
911.380	-962
911.480	119
911.580	-446
911.680	-238
911.780	209
911.880	28
911.980	-393
912.080	-161
912.180	290
912.280	-254
912.380	-372
912.480	279
912.580	38
912.679	-240
912.779	142
912.879	-54
912.979	284
913.078	-709
913.178	523
913.278	-142
913.377	303
913.477	-509
913.577	-635
913.676	116
913.776	-42
913.875	-850
913.975	247
914.074	-340
914.174	-202
914.273	-1040
914.373	493
914.472	97
914.572	-644
914.671	-603
914.770	-1069
914.870	-170
914.969	-682
915.068	-368
915.167	275
915.267	-221
915.366	402
915.465	-756
915.564	-947
915.663	180
915.763	-154
915.862	637
915.961	-1074
916.060	-361
916.159	18
916.258	-386
916.357	-265
916.456	307
916.555	-810
916.654	-301
916.752	-245
916.851	-616
916.950	355
917.049	-382
917.148	-762
917.247	153
917.345	4
917.444	-895
917.543	-289
917.642	447
917.740	-319
917.839	-282
917.937	-163
918.036	38
918.135	-159
918.233	-297
918.332	-406
918.430	-502
918.529	-733
918.627	-637
918.726	61
918.824	-170
918.923	-573
919.021	114
919.119	-845
919.218	-991
919.316	-607
919.414	-358
919.512	-257
919.611	-491
919.709	205
919.807	-253
919.905	589
920.003	-961
920.102	-181
920.200	99
920.298	-514
920.396	-316
920.494	-329
920.592	765
920.690	-213
920.788	203
920.886	-460
920.984	-33
921.082	-1631
921.180	143
921.277	-188
921.375	42
921.473	184
921.571	163
921.669	-189
921.766	-110
921.864	800
921.962	192
922.060	-737
922.157	-416
922.255	237
922.352	808
922.450	340
922.548	239
922.645	439
922.743	301
922.840	304
922.938	740
923.035	882
923.133	-342
923.230	1119
923.327	1345
923.425	1370
923.522	1335
923.619	956
923.717	955
923.814	766
923.911	-422
924.008	594
924.106	1011
924.203	-262
924.300	876
924.397	-450
924.494	855
924.591	623
924.688	1128
924.786	1232
924.883	393
924.979	970
925.077	611
925.173	140
925.270	1176
925.367	1008
925.464	887
925.561	1453
925.658	808
925.755	936
925.852	787
925.948	1212
926.045	214
926.142	612
926.239	933
926.335	729
926.432	1282
926.529	386
926.625	1337
926.722	202
926.818	988
926.915	450
927.011	146
927.108	543
927.204	735
927.301	518
927.397	516
927.494	356
927.590	25
927.687	680
927.783	1146
927.879	518
927.976	-222
928.072	483
928.168	-74
928.264	768
928.361	-127
928.457	1322
928.553	506
928.649	90
928.745	512
928.841	645
928.937	1068
929.033	1078
929.129	126
929.225	-28
929.321	799
929.417	761
929.513	429
929.609	506
929.705	-403
929.801	-145
929.897	72
929.993	54
930.089	134
930.184	-144
930.280	-26
930.376	1161
930.471	-96
930.567	-9
930.663	314
930.758	-350
930.854	70
930.950	120
931.045	802
931.141	219
931.236	993
931.332	183
931.427	-79
931.523	132
931.618	979
931.714	326
931.809	-150
931.905	407
932.000	280
932.095	-140
932.191	837
932.286	769
932.381	-308
932.476	-78
932.572	-810
932.667	140
932.762	-973
932.857	935
932.952	459
933.047	-315
933.142	-192
933.237	-272
933.332	329
933.427	12
933.522	650
933.617	600
933.712	-50
933.807	106
933.902	-334
933.997	1089
934.092	-306
934.187	139
934.282	64
934.376	-346
934.471	468
934.566	-174
934.661	989
934.755	-449
934.850	-219
934.945	672
935.039	619
935.134	-65
935.228	-289
935.323	764
935.417	-914
935.512	-913
935.606	-458
935.701	-56
935.795	432
935.890	-101
935.984	206
936.079	-656
936.173	290
936.267	238
936.362	-659
936.456	-223
936.550	25
936.644	555
936.738	-911
936.833	-618
936.927	-157
937.021	158
937.115	-300
937.209	-695
937.303	631
937.397	-828
937.491	-9
937.585	315
937.679	-146
937.773	749
937.867	-187
937.961	78
938.055	140
938.149	-587
938.243	245
938.337	349
938.430	-371
938.524	270
938.618	-193
938.712	133
938.805	28
938.899	-996
938.993	618
939.086	-490
939.180	212
939.274	-215
939.367	345
939.461	-535
939.554	138
939.648	-45
939.741	-838
939.835	-403
939.928	596
940.022	-241
940.115	-1229
940.208	165
940.302	129
940.395	436
940.488	-374
940.582	260
940.675	-954
940.768	-93
940.861	-160
940.954	512
941.048	-721
941.141	113
941.234	-1178
941.327	-320
941.420	497
941.513	-168
941.606	-1223
941.699	407
941.792	-27
941.885	-570
941.978	-803
942.071	-112
942.164	-1226
942.257	-282
942.349	78
942.442	46
942.535	-947
942.628	58
942.721	-446
942.813	-808
942.906	756
942.999	-1047
943.091	-312
943.184	-1010
943.277	-404
943.369	-440
943.462	-948
943.554	-307
943.647	-475
943.739	719
943.832	49
943.924	-1650
944.017	-212
944.109	-814
944.201	60
944.294	-382
944.386	592
944.478	-1003
944.571	-943
944.663	-173
944.755	-944
944.847	-580
944.940	-936
945.032	-488
945.124	-638
945.216	563
945.308	-193
945.400	-59
945.492	-710
945.584	-150
945.676	231
945.768	24
945.860	-74
945.952	-1190
946.044	-313
946.136	-1482
946.228	-854
946.320	303
946.412	-922
946.503	-976
946.595	687
946.687	-564
946.779	-981
946.870	-260
946.962	-421
947.054	193
947.145	48
947.237	-752
947.329	379
947.420	-810
947.512	71
947.603	-786
947.695	-294
947.786	-713
947.878	-346
947.969	-370
948.061	-1035
948.152	-151
948.243	-494
948.335	-435
948.426	-348
948.517	-431
948.609	-116
948.700	-1539
948.791	-1011
948.882	222
948.973	-1111
949.065	-185
949.156	-402
949.247	-1766
949.338	14
949.429	-695
949.520	19
949.611	-1144
949.702	622
949.793	-335
949.884	-226
949.975	-665
950.066	-406
950.157	-326
950.247	-292
950.338	-861
950.429	-699
950.520	96
950.611	-511
950.701	-290
950.792	-438
950.883	437
950.973	-364
951.064	-263
951.155	-694
951.245	188
951.336	-459
951.427	-1184
951.517	291
951.608	309
951.698	119
951.788	-501
951.879	-502
951.969	-822
952.060	-573
952.150	23
952.240	93
952.331	-1740
952.421	-175
952.511	-1045
952.602	-326
952.692	-36
952.782	-898
952.872	-1133
952.962	-592
953.052	-1220
953.143	-1507
953.233	-463
953.323	-568
953.413	-849
953.503	-493
953.593	-971
953.683	27
953.773	-1123
953.863	-687
953.953	-500
954.042	362
954.132	-780
954.222	219
954.312	-688
954.402	-1102
954.492	113
954.581	-36
954.671	-1806
954.761	-1031
954.850	-144
954.940	-720
955.030	-875
955.119	-782
955.209	-630
955.298	-1098
955.388	-923
955.477	702
955.567	-648
955.656	308
955.746	307
955.835	-1260
955.925	-1456
956.014	679
956.103	-614
956.193	-395
956.282	243
956.371	-98
956.461	-833
956.550	-1516
956.639	-413
956.728	-1232
956.817	-363
956.906	-1050
956.995	-37
957.085	-1070
957.174	-267
957.263	-1177
957.352	-572
957.441	-1050
957.530	-803
957.619	-483
957.708	-776
957.796	-576
957.885	-741
957.974	-1390
958.063	13
958.152	-615
958.241	-345
958.329	-812
958.418	-1113
958.507	-561
958.596	-208
958.684	-1447
958.773	-150
958.861	109
958.950	-1190
959.039	-727
959.127	420
959.216	-58
959.304	-915
959.393	-531
959.481	-701
959.570	-251
959.658	-1441
959.746	-571
959.835	91
959.923	-850
960.011	-1356
960.100	-642
960.188	-184
960.276	-1051
960.365	-427
960.453	-816
960.541	-1133
960.629	-900
960.717	-1006
960.805	-1751
960.893	-404
960.981	-1351
961.069	160
961.158	-456
961.245	-189
961.333	-767
961.421	-1084
961.509	-576
961.597	-575
961.685	-34
961.773	-749
961.861	-1239
961.949	-186
962.036	-1365
962.124	-699
962.212	-513
962.299	-1390
962.387	-248
962.475	-1027
962.562	-1713
962.650	173
962.738	-992
962.825	-695
962.913	-1217
963.000	-1328
963.088	-444
963.175	-707
963.263	-527
963.350	-207
963.438	-1293
963.525	-1393
963.612	-800
963.700	-1022
963.787	-160
963.874	-1109
963.962	-44
964.049	-235
964.136	-901
964.223	-796
964.310	-633
964.398	-265
964.485	-817
964.572	-412
964.659	-517
964.746	-425
964.833	-874
964.920	-1647
965.007	-553
965.094	-15
965.181	-1403
965.268	-326
965.355	-454
965.441	-219
965.528	-773
965.615	-420
965.702	-1183
965.789	-572
965.875	-452
965.962	-320
966.049	-426
966.136	-223
966.222	-1314
966.309	-923
966.395	-575
966.482	-714
966.569	-1522
966.655	-987
966.742	-1288
966.828	-257
966.915	-1454
967.001	-76
967.087	-468
967.174	-422
967.260	-539
967.347	-881
967.433	-641
967.519	-103
967.605	-914
967.692	-870
967.778	-1064
967.864	-786
967.950	-934
968.036	-1066
968.123	-564
968.209	-288
968.295	-994
968.381	811
968.467	-425
968.553	-1835
968.639	-16
968.725	-1128
968.811	-577
968.897	-621
968.983	-315
969.069	-963
969.154	-291
969.240	26
969.326	-1371
969.412	-959
969.497	-1103
969.583	-1040
969.669	387
969.755	-633
969.840	-692
969.926	-623
970.012	-684
970.097	-335
970.183	-448
970.268	-638
970.354	-9
970.439	-858
970.525	193
970.610	-1418
970.696	-544
970.781	-1036
970.866	-1807
970.952	-215
971.037	-1222
971.122	-870
971.208	-532
971.293	-1125
971.378	-1367
971.463	-790
971.549	-280
971.634	-1303
971.719	-954
971.804	-805
971.889	57
971.974	-48
972.059	-1295
972.144	-85
972.229	-608
972.314	-737
972.399	-1061
972.484	-1628
972.569	-214
972.654	-544
972.739	883
972.824	-1290
972.908	-1290
972.993	-960
973.078	-701
973.163	-490
973.247	-935
973.332	-2297
973.417	443
973.501	-1075
973.586	-880
973.671	-92
973.755	-768
973.840	-275
973.924	134
974.009	-749
974.093	-984
974.178	11
974.262	-1020
974.346	-1597
974.431	-347
974.515	-584
974.600	-375
974.684	-619
974.768	-1560
974.852	1174
974.937	-1975
975.021	125
975.105	-891
975.189	-745
975.273	-29
975.358	-387
975.442	-1255
975.526	-462
975.610	-1805
975.694	-1148
975.778	612
975.862	-214
975.946	-2837
976.030	1026
976.114	-1115
976.198	-498
976.281	-486
976.365	449
976.449	-1114
976.533	613
976.617	-1464
976.700	-602
976.784	-974
976.868	-682
976.951	-935
977.035	-1557
977.119	-1212
977.202	-1377
977.286	-228
977.369	-384
977.453	-66
977.536	-738
977.620	-1248
977.703	-610
977.787	-1669
977.870	-135
977.953	203
978.037	-1504
978.120	-142
978.203	-851
978.287	92
978.370	-998
978.453	-1277
978.536	-739
978.620	453
978.703	-1041
978.786	-705
978.869	-494
978.952	-2072
979.035	81
979.118	-243
979.201	-1151
979.284	-745
979.367	-1331
979.450	-1026
979.533	-873
979.616	-1197
979.699	-1490
979.782	-19
979.865	-466
979.948	-1327
980.030	-553
980.113	-300
980.196	-1103
980.279	-368
980.361	-758
980.444	-551
980.526	-351
980.609	-848
980.692	-1290
980.774	-801
980.857	-1473
980.939	321
981.022	-1132
981.104	44
981.187	-1619
981.269	-833
981.352	-645
981.434	-1796
981.516	-1789
981.599	-542
981.681	-290
981.763	-593
981.846	-665
981.928	-252
982.010	-1237
982.092	-1077
982.174	-331
982.256	-1634
982.339	-254
982.421	-20
982.503	-402
982.585	-1944
982.667	-268
982.749	-403
982.831	-646
982.913	-1437
982.995	361
983.077	-1077
983.158	538
983.240	-1651
983.322	-895
983.404	-189
983.486	-783
983.568	-382
983.649	-472
983.731	-300
983.813	-815
983.894	-256
983.976	-874
984.058	-1493
984.139	522
984.221	-1843
984.302	-185
984.384	-122
984.465	-881
984.547	-287
984.628	-515
984.710	-645
984.791	-331
984.872	-1045
984.954	-304
985.035	-640
985.116	-1193
985.198	-1199
985.279	301
985.360	-1115
985.441	-1178
985.522	-781
985.604	-1558
985.685	-1676
985.766	-5
985.847	-444
985.928	-2253
986.009	-35
986.090	-915
986.171	-248
986.252	-547
986.333	-268
986.414	-740
986.495	-298
986.576	-1017
986.656	-536
986.737	-886
986.818	-1363
986.899	-649
986.980	-75
987.060	140
987.141	-1252
987.222	-910
987.302	-64
987.383	-112
987.464	-878
987.544	-803
987.625	-926
987.705	-110
987.786	-226
987.866	-608
987.947	83
988.027	-715
988.108	-1581
988.188	-315
988.268	-839
988.349	-442
988.429	-1464
988.509	59
988.589	-1668
988.670	-2514
988.750	689
988.830	-516
988.910	111
988.990	-540
989.070	-1478
989.151	-857
989.231	-1498
989.311	-110
989.391	-890
989.471	-931
989.551	-729
989.631	-1155
989.711	133
989.791	-954
989.870	-1709
989.950	-611
990.030	-946
990.110	-600
990.190	-785
990.269	-1115
990.349	-912
990.429	-237
990.509	-878
990.588	-1137
990.668	-1157
990.747	-300
990.827	-250
990.907	-175
990.986	-636
991.066	-819
991.145	-2153
991.225	-22
991.304	-943
991.383	-1344
991.463	-190
991.542	-444
991.622	-1692
991.701	-979
991.780	-630
991.859	-570
991.939	-1150
992.018	-894
992.097	-642
992.176	-469
992.256	-1695
992.335	-1542
992.414	-208
992.493	-775
992.572	-837
992.651	-247
992.730	-844
992.809	-822
992.888	-922
992.967	-1317
993.046	-278
993.125	-1142
993.203	-710
993.282	-44
993.361	-712
993.440	-1430
993.519	-1794
993.597	-1431
993.676	-495
993.755	31
993.834	-1018
993.912	-1194
993.991	-319
994.069	-1395
994.148	-661
994.226	-939
994.305	-801
994.384	-1218
994.462	-57
994.540	-1882
994.619	-933
994.697	-1194
994.776	-930
994.854	-511
994.932	-1133
995.011	-1295
995.089	-1046
995.167	-607
995.245	-518
995.324	-1986
995.402	-527
995.480	-1358
995.558	-1441
995.636	-1390
995.714	-1382
995.792	-712
995.870	-1895
995.948	-1327
996.026	-1500
996.104	-1876
996.182	-784
996.260	-1196
996.338	-801
996.416	-1616
996.494	-1602
996.572	319
996.649	-1437
996.727	-760
996.805	-137
996.883	-1383
996.960	-1217
997.038	-629
997.116	-256
997.193	-1289
997.271	-871
997.348	-1558
997.426	-1454
997.504	-2262
997.581	-1147
997.658	-1236
997.736	-1702
997.813	-1828
997.891	-1005
997.968	-1989
998.046	-417
998.123	-1125
998.200	-1226
998.277	-1945
998.355	-765
998.432	-2031
998.509	-1122
998.586	-1949
998.663	-901
998.741	-899
998.818	-2007
998.895	-1211
998.972	-986
999.049	-1151
999.126	-2551
999.203	-1076
999.280	-1253
999.357	-2019
999.434	-1180
999.511	-1588
999.587	-529
999.664	-1548
999.741	-775
999.818	-1227
999.895	-1941
999.971	-1651
1000.048	-1774
1000.125	-1658
1000.202	-1663
1000.278	-1735
1000.355	-1138
1000.431	-2374
1000.508	-1658
1000.584	-1655
1000.661	-1623
1000.738	-1609
1000.814	-1676
1000.890	-813
1000.967	-1172
1001.043	-1515
1001.120	-2276
1001.196	-1108
1001.272	-2100
1001.349	-1599
1001.425	-653
1001.501	-1947
1001.577	-1823
1001.654	-1445
1001.730	-1439
1001.806	-900
1001.882	-1530
1001.958	-1232
1002.034	-1370
1002.110	-1438
1002.186	-1759
1002.262	-1996
1002.338	-2225
1002.414	-1214
1002.490	-1233
1002.566	-2239
1002.642	-2823
1002.718	-790
1002.794	-1755
1002.870	-1867
1002.945	-1689
1003.021	-1516
1003.097	-1593
1003.173	-1366
1003.248	-2340
1003.324	-1365
1003.400	-1288
1003.475	-1756
1003.551	-1367
1003.626	-1540
1003.702	-1388
1003.777	-1623
1003.853	-2925
1003.928	-1709
1004.004	-1183
1004.079	-634
1004.155	-2565
1004.230	-2089
1004.305	-655
1004.381	-1946
1004.456	-2206
1004.531	-1739
1004.607	-1003
1004.682	-1264
1004.757	-1780
1004.832	-1854
1004.907	-1500
1004.982	-807
1005.057	-1360
1005.133	-2639
1005.208	-1962
1005.283	-813
1005.358	-1334
1005.433	-2323
1005.508	-2571
1005.583	-3092
1005.657	-1474
1005.732	-1168
1005.807	-2300
1005.882	-1837
1005.957	-1179
1006.032	-1878
1006.106	-1777
1006.181	-1515
1006.256	-727
1006.331	-2261
1006.405	-1875
1006.480	-1394
1006.554	-2508
1006.629	-1458
1006.704	-1848
1006.778	-1372
1006.853	-1625
1006.927	-1962
1007.002	-1943
1007.076	-1700
1007.150	-2430
1007.225	-1721
1007.299	-1411
1007.373	-1436
1007.448	-1296
1007.522	-592
1007.596	-1699
1007.671	-1439
1007.745	-1956
1007.819	-1555
1007.893	-1961
1007.967	-603
1008.041	-2042
1008.115	-1622
1008.190	-1899
1008.264	-1784
1008.338	-2458
1008.412	-1937
1008.486	-1439
1008.560	-2487
1008.633	-2299
1008.707	-1752
1008.781	-1974
1008.855	-2193
1008.929	-1561
1009.003	-2543
1009.076	-1729
1009.150	-1766
1009.224	-1217
1009.298	-1536
1009.371	-1828
1009.445	-1339
1009.519	-1326
1009.592	-2426
1009.666	-1897
1009.739	-1548
1009.813	-2170
1009.886	-1291
1009.960	-2386
1010.033	-2011
1010.107	-1151
1010.180	-2560
1010.253	-2318
1010.327	-1830
1010.400	-1381
1010.473	-1671
1010.547	-497
1010.620	-2002
1010.693	-1752
1010.766	-2328
1010.840	-1778
1010.913	-1412
1010.986	-2258
1011.059	-2047
1011.132	-2632
1011.205	-849
1011.278	-2676
1011.351	-1751
1011.424	-1774
1011.497	-2541
1011.570	-1938
1011.643	-1466
1011.716	-2268
1011.789	-2081
1011.862	-1971
1011.934	-896
1012.007	-2445
1012.080	-1432
1012.153	-1093
1012.225	-608
1012.298	-2221
1012.371	-1048
1012.443	-1456
1012.516	-2155
1012.588	-1442
1012.661	-1824
1012.733	-1860
1012.806	-1316
1012.879	-1813
1012.951	-1520
1013.023	-1455
1013.096	-1684
1013.168	-1783
1013.241	-1057
1013.313	-1561
1013.385	-2736
1013.458	-1833
1013.530	-1171
1013.602	-1638
1013.674	-1452
1013.746	-2011
1013.819	-2226
1013.891	-1343
1013.963	-3042
1014.035	-1760
1014.107	-1133
1014.179	-2090
1014.251	-1089
1014.323	-1403
1014.395	-1961
1014.467	-1701
1014.539	-945
1014.611	-2029
1014.683	-1760
1014.754	-1375
1014.826	-1893
1014.898	-1393
1014.970	-2138
1015.042	-726
1015.113	-1795
1015.185	-1648
1015.257	-2492
1015.328	-1100
1015.400	-1599
1015.471	-1889
1015.543	-2036
1015.615	-1756
1015.686	-1983
1015.757	-1924
1015.829	-1958
1015.901	-1978
1015.972	-2098
1016.043	-1880
1016.115	-2025
1016.186	-1718
1016.257	-2416
1016.328	-2156
1016.400	-1487
1016.471	-2231
1016.542	-1550
1016.613	-1855
1016.685	-1725
1016.756	-1448
1016.827	-2135
1016.898	-2001
1016.969	-1422
1017.040	-1447
1017.111	-1819
1017.182	-2453
1017.253	-1487
1017.324	-1676
1017.395	-2033
1017.466	-2031
1017.537	-1591
1017.608	-2156
1017.678	-1368
1017.749	-1340
1017.820	-1289
1017.891	-2275
1017.961	-2368
1018.032	-1347
1018.103	-1463
1018.173	-1550
1018.244	-2059
1018.315	-1300
1018.385	-1059
1018.456	-1796
1018.526	-2521
1018.597	-2018
1018.667	-1521
1018.738	-2339
1018.808	-1927
1018.878	-1673
1018.949	-1097
1019.019	-1746
1019.089	-934
1019.160	-2699
1019.230	-2570
1019.300	-1581
1019.371	-2308
1019.441	-1657
1019.511	-2331
1019.581	-1908
1019.651	-1609
1019.721	-1568
1019.791	-2865
1019.861	-2469
1019.931	-1602
1020.001	-1791
1020.071	-1984
1020.141	-1937
1020.211	-2462
1020.281	-2442
1020.351	-1908
1020.421	-2934
1020.491	-1599
1020.560	-2313
1020.630	-1812
1020.700	-1792
1020.770	-1229
1020.839	-2251
1020.909	-1092
1020.979	-2123
1021.048	-2673
1021.118	-1772
1021.187	-1759
1021.257	-1473
1021.326	-2316
1021.396	-1948
1021.465	-1663
1021.535	-1138
1021.604	-1378
1021.674	-1793
1021.743	-1720
1021.812	-1186
1021.882	-2030
1021.951	-2812
1022.020	-1952
1022.089	-1417
1022.159	-2409
1022.228	-2077
1022.297	-1159
1022.366	-1593
1022.435	-1809
1022.504	-1236
1022.573	-2085
1022.642	-1508
1022.711	-1091
1022.781	-842
1022.849	-1611
1022.918	-2547
1022.987	-1823
1023.056	-2200
1023.125	-1495
1023.194	-1604
1023.263	-2023
1023.331	-2016
1023.400	-2772
1023.469	-1572
1023.538	-1265
1023.606	-2183
1023.675	-1572
1023.744	-2183
1023.812	-2305
1023.881	-1932
1023.949	-1745
1024.018	-1887
1024.086	-2081
1024.155	-1545
1024.223	-2226
1024.292	-1275
1024.360	-1244
1024.429	-1194
1024.497	-2038
1024.565	-2135
1024.634	-1709
1024.702	-1163
1024.770	-2194
1024.838	-1317
1024.907	-1845
1024.975	-1453
1025.043	-1552
1025.111	-2675
1025.179	-1639
1025.247	-1852
1025.315	-2303
1025.383	-2406
1025.451	-1449
1025.519	-1534
1025.587	-2208
1025.655	-2144
1025.723	-2970
1025.791	-1610
1025.859	-1684
1025.927	-2216
1025.995	-1956
1026.062	-853
1026.130	-1458
1026.198	-1505
1026.266	-2292
1026.333	-1268
1026.401	-2165
1026.469	-2305
1026.536	-1730
1026.604	-2152
1026.671	-1839
1026.739	-1684
1026.806	-1757
1026.874	-1761
1026.941	-1156
1027.009	-1941
1027.076	-2727
1027.144	-1133
1027.211	-2745
1027.278	-2758
1027.345	-1849
1027.413	-656
1027.480	-1991
1027.547	-2325
1027.614	-2797
1027.682	-1697
1027.749	-1780
1027.816	-2068
1027.883	-1449
1027.950	-1795
1028.017	-1923
1028.084	-1255
1028.151	-1437
1028.218	-2246
1028.285	-2372
1028.352	-1562
1028.419	-2197
1028.486	-2360
1028.553	-1371
1028.619	-2713
1028.686	-1959
1028.753	-2021
1028.820	-1869
1028.886	-1713
1028.953	-1898
1029.020	-2114
1029.086	-1946
1029.153	-1672
1029.220	-1952
1029.286	-1819
1029.353	-1847
1029.419	-2791
1029.486	-1606
1029.552	-2042
1029.619	-1921
1029.685	-2057
1029.751	-2078
1029.818	-1983
1029.884	-3130
1029.951	-1236
1030.017	-1904
1030.083	-1262
1030.149	-1646
1030.216	-2628
1030.282	-1381
1030.348	-2406
1030.414	-2016
1030.480	-2289
1030.546	-1224
1030.612	-1470
1030.678	-2447
1030.744	-2111
1030.810	-1816
1030.876	-2183
1030.942	-1534
1031.008	-1261
1031.074	-2473
1031.140	-1231
1031.206	-1295
1031.272	-3434
1031.337	-1592
1031.403	-1662
1031.469	-2072
1031.534	-1136
1031.600	-1763
1031.666	-2278
1031.731	-1778
1031.797	-1860
1031.863	-1541
1031.928	-2824
1031.994	-2657
1032.059	-2212
1032.125	-2131
1032.190	-2085
1032.256	-1987
1032.321	-2416
1032.386	-1966
1032.452	-1797
1032.517	-2471
1032.582	-2713
1032.647	-1723
1032.713	-2531
1032.778	-1772
1032.843	-2299
1032.908	-1917
1032.974	-1390
1033.039	-2430
1033.104	-1386
1033.169	-2275
1033.234	-2661
1033.299	-1502
1033.364	-1622
1033.429	-2408
1033.494	-1783
1033.559	-2016
1033.624	-1952
1033.688	-2024
1033.753	-2793
1033.818	-1538
1033.883	-2436
1033.948	-1984
1034.013	-1379
1034.077	-2673
1034.142	-1708
1034.207	-1724
1034.271	-1998
1034.336	-823
1034.400	-788
1034.465	-2488
1034.530	-2673
1034.594	-2266
1034.658	-2203
1034.723	-1853
1034.787	-2251
1034.852	-2758
1034.916	-3025
1034.981	-1879
1035.045	-790
1035.109	-1110
1035.173	-1521
1035.238	-1567
1035.302	-1404
1035.366	-1968
1035.430	-1455
1035.495	-2628
1035.559	-990
1035.623	-2218
1035.687	-2563
1035.751	-2278
1035.815	-1828
1035.879	-2761
1035.943	-1878
1036.007	-2495
1036.071	-1745
1036.135	-2489
1036.198	-1583
1036.262	-2564
1036.326	-2044
1036.390	-2011
1036.454	-1934
1036.517	-1666
1036.581	-2206
1036.645	-1682
1036.709	-2388
1036.772	-2772
1036.836	-2246
1036.900	-1203
1036.963	-2494
1037.026	-2240
1037.090	-1583
1037.154	-1791
1037.217	-2380
1037.280	-2811
1037.344	-1732
1037.407	-2540
1037.471	-1708
1037.534	-2242
1037.597	-2566
1037.661	-1466
1037.724	-2077
1037.787	-2259
1037.850	-2180
1037.913	-2355
1037.977	-1501
1038.040	-1801
1038.103	-2126
1038.166	-2609
1038.229	-1170
1038.292	-2202
1038.355	-2828
1038.418	-2567
1038.481	-1620
1038.544	-1852
1038.607	-2294
1038.670	-2345
1038.732	-2257
1038.795	-2615
1038.858	-2113
1038.921	-1705
1038.984	-1978
1039.046	-2175
1039.109	-2699
1039.172	-1828
1039.234	-1906
1039.297	-1413
1039.360	-1776
1039.422	-2548
1039.485	-2895
1039.547	-2065
1039.610	-1577
1039.672	-1733
1039.734	-1881
1039.797	-2104
1039.859	-1688
1039.922	-2003
1039.984	-2041
1040.046	-2288
1040.109	-2331
1040.171	-2660
1040.233	-1522
1040.295	-2243
1040.358	-2413
1040.420	-1187
1040.482	-2852
1040.544	-2143
1040.606	-2587
1040.668	-1967
1040.730	-2408
1040.792	-2107
1040.854	-920
1040.916	-1562
1040.978	-2181
1041.040	-2273
1041.102	-1558
1041.164	-2432
1041.225	-2757
1041.287	-1919
1041.349	-1853
1041.411	-2299
1041.472	-2274
1041.534	-2696
1041.596	-2298
1041.657	-1571
1041.719	-1559
1041.781	-2666
1041.842	-1463
1041.904	-2913
1041.965	-2760
1042.027	-2086
1042.088	-1607
1042.150	-1829
1042.211	-2443
1042.272	-1477
1042.334	-2474
1042.395	-2396
1042.456	-1794
1042.518	-2516
1042.579	-1836
1042.640	-1364
1042.701	-1833
1042.763	-1977
1042.824	-1889
1042.885	-2074
1042.946	-2443
1043.007	-1738
1043.068	-1393
1043.129	-793
1043.190	-1922
1043.251	-2041
1043.312	-2020
1043.373	-2088
1043.434	-2016
1043.495	-2474
1043.556	-1937
1043.616	-1943
1043.677	-1899
1043.738	-1658
1043.799	-2027
1043.859	-1939
1043.920	-2468
1043.981	-2727
1044.041	-2583
1044.102	-2572
1044.162	-2453
1044.223	-2502
1044.284	-1464
1044.344	-1966
1044.405	-2783
1044.465	-2075
1044.525	-1672
1044.586	-2739
1044.646	-2539
1044.707	-1711
1044.767	-1689
1044.827	-1867
1044.887	-2179
1044.948	-2068
1045.008	-1617
1045.068	-2210
1045.128	-1698
1045.188	-1813
1045.249	-1628
1045.309	-1989
1045.369	-1814
1045.429	-1909
1045.489	-2230
1045.549	-1434
1045.609	-2576
1045.669	-2538
1045.729	-2385
1045.789	-1610
1045.848	-2096
1045.908	-1793
1045.968	-1518
1046.028	-1976
1046.088	-1460
1046.147	-2047
1046.207	-1446
1046.267	-1498
1046.326	-1590
1046.386	-1376
1046.446	-1420
1046.505	-1127
1046.565	-802
1046.624	-956
1046.684	-911
1046.743	-648
1046.803	-495
1046.862	-187
1046.922	0
