'Start Wavelength	183.907
'End Wavelength	1046.922
'Gate Delay	5.000
'Gate Width (ms)	1.050
'Laser Output Level	0.000
'X Position	0.000
'Y Position	0.000
'Z Position	0.000
'Grid Point Number	1.000
'Shot Number	100.000
183.907	-29.000
183.977	-506.000
184.047	-219
184.116	-18
184.186	-112
184.256	-147
184.325	-35
184.395	-741
184.465	934
184.534	557
184.604	-832
184.674	106
184.743	-52
184.813	429
184.883	79
184.952	427
185.022	375
185.092	-184
185.161	-834
185.231	-98
185.301	-172
185.370	385
185.440	-284
185.509	53
185.579	-813
185.649	1027
185.718	833
185.788	652
185.857	-36
185.927	127
185.996	-1188
186.066	188
186.136	-216
186.205	-110
186.275	178
186.344	-119
186.414	108
186.483	863
186.553	233
186.622	-845
186.692	-228
186.761	-183
186.831	123
186.900	-403
186.970	-965
187.039	-297
187.109	247
187.178	-487
187.248	-503
187.317	823
187.387	-316
187.456	-190
187.526	-55
187.595	118
187.664	-42
187.734	-132
187.803	219
187.873	393
187.942	-287
188.012	363
188.081	-47
188.150	925
188.220	-110
188.289	-166
188.358	431
188.428	-39
188.497	-407
188.567	172
188.636	-801
188.705	-510
188.775	251
188.844	-838
188.913	502
188.983	-875
189.052	147
189.121	740
189.191	-605
189.260	-155
189.329	-28
189.399	-121
189.468	-936
189.537	-624
189.606	-119
189.676	742
189.745	-406
189.814	-183
189.883	-551
189.953	673
190.022	-118
190.091	-311
190.161	165
190.230	-265
190.299	-766
190.368	259
190.437	-275
190.507	-402
190.576	-742
190.645	-366
190.714	-641
190.783	-104
190.853	279
190.922	382
190.991	-554
191.060	-186
191.129	-471
191.198	106
191.268	129
191.337	-442
191.406	-80
191.475	-509
191.544	-62
191.613	306
191.682	-849
191.752	399
191.821	-508
191.890	0
191.959	-383
192.028	52
192.097	-542
192.166	407
192.235	-118
192.304	-548
192.373	-52
192.442	545
192.511	309
192.580	389
192.650	-548
192.719	-308
192.788	102
192.857	227
192.926	-301
192.995	-370
193.064	-1183
193.133	260
193.202	359
193.271	885
193.340	-47
193.409	-133
193.478	-27
193.547	-54
193.615	265
193.684	36
193.753	-411
193.822	106
193.891	188
193.960	91
194.029	-26
194.098	-281
194.167	-222
194.236	1373
194.305	-360
194.374	367
194.443	-106
194.512	16
194.580	-403
194.649	-479
194.718	568
194.787	414
194.856	-698
194.925	76
194.994	-349
195.062	319
195.131	3
195.200	-101
195.269	-254
195.338	313
195.407	-707
195.475	-14
195.544	665
195.613	-525
195.682	-428
195.751	-637
195.819	156
195.888	439
195.957	428
196.026	-434
196.094	351
196.163	-687
196.232	-457
196.301	-239
196.369	-304
196.438	-136
196.507	-400
196.576	33
196.644	330
196.713	-772
196.782	-762
196.850	-1046
196.919	-419
196.988	-24
197.056	-517
197.125	-104
197.194	-821
197.262	16
197.331	-366
197.400	159
197.468	-154
197.537	16
197.606	-169
197.674	-33
197.743	-316
197.812	-838
197.880	334
197.949	455
198.017	22
198.086	229
198.155	-1313
198.223	-60
198.292	360
198.360	-766
198.429	-10
198.497	-624
198.566	154
198.635	937
198.703	176
198.772	775
198.840	903
198.909	-592
198.977	25
199.046	-90
199.114	-225
199.183	-217
199.251	-253
199.320	-447
199.388	-310
199.457	163
199.525	-769
199.594	255
199.662	-559
199.731	-120
199.799	-414
199.867	-349
199.936	-621
200.004	302
200.073	-461
200.141	5
200.210	-217
200.278	-277
200.346	-431
200.415	-394
200.483	-93
200.552	-403
200.620	-186
200.688	376
200.757	-396
200.825	-646
200.893	-712
200.962	-186
201.030	-339
201.098	-233
201.167	-427
201.235	35
201.303	-118
201.372	416
201.440	522
201.508	272
201.577	-481
201.645	-602
201.713	480
201.781	-152
201.850	-773
201.918	511
201.986	479
202.055	260
202.123	201
202.191	185
202.259	-266
202.327	0
202.396	-415
202.464	972
202.532	-414
202.600	1067
202.669	130
202.737	-1050
202.805	18
202.873	-503
202.941	-1028
203.009	-630
203.078	-186
203.146	-406
203.214	-449
203.282	-391
203.350	122
203.418	-99
203.487	372
203.555	-117
203.623	-11
203.691	-260
203.759	-621
203.827	-563
203.895	45
203.963	192
204.031	109
204.099	-128
204.168	-279
204.236	644
204.304	370
204.372	149
204.440	329
204.508	180
204.576	-500
204.644	410
204.712	-958
204.780	97
204.848	-35
204.916	-46
204.984	120
205.052	185
205.120	-177
205.188	-380
205.256	-351
205.324	42
205.392	-1058
205.460	-349
205.528	-539
205.596	523
205.664	-60
205.732	-587
205.799	-59
205.867	484
205.935	-494
206.003	884
206.071	-536
206.139	-397
206.207	-249
206.275	-339
206.343	-436
206.411	-574
206.478	88
206.546	620
206.614	-200
206.682	364
206.750	-989
206.818	119
206.885	547
206.953	-796
207.021	62
207.089	-89
207.157	-692
207.225	334
207.292	-157
207.360	-130
207.428	-654
207.496	-335
207.563	233
207.631	419
207.699	-614
207.767	-161
207.834	-726
207.902	-431
207.970	470
208.038	490
208.105	-237
208.173	-240
208.241	42
208.309	-89
208.376	98
208.444	749
208.512	-100
208.579	-1746
208.647	347
208.715	488
208.782	193
208.850	458
208.918	-133
208.985	6
209.053	534
209.120	297
209.188	-368
209.256	370
209.323	-952
209.391	-29
209.459	-508
209.526	174
209.594	-739
209.661	44
209.729	-195
209.796	-564
209.864	281
209.932	-1797
209.999	494
210.067	134
210.134	-633
210.202	-262
210.269	220
210.337	271
210.404	-306
210.472	707
210.539	-245
210.607	-646
210.674	131
210.742	528
210.809	-282
210.877	-51
210.944	173
211.012	-1218
211.079	931
211.146	672
211.214	-280
211.281	-169
211.349	-10
211.416	366
211.484	89
211.551	245
211.618	-601
211.686	-218
211.753	-423
211.821	-46
211.888	-257
211.955	-189
212.023	-217
212.090	-758
212.157	-549
212.225	-431
212.292	375
212.359	1486
212.427	3194
212.494	502
212.561	209
212.629	199
212.696	-337
212.763	-222
212.831	-549
212.898	636
212.965	-57
213.032	185
213.100	-316
213.167	-1027
213.234	419
213.301	309
213.369	-122
213.436	-338
213.503	114
213.570	-193
213.638	-17
213.705	-402
213.772	28
213.839	-417
213.906	-100
213.973	-225
214.041	-316
214.108	431
214.175	136
214.242	173
214.309	-71
214.376	-503
214.444	-202
214.511	398
214.578	-663
214.645	298
214.712	-683
214.779	113
214.846	-568
214.913	1061
214.980	280
215.048	489
215.115	-362
215.182	-518
215.249	14
215.316	-416
215.383	191
215.450	145
215.517	76
215.584	13
215.651	-646
215.718	201
215.785	307
215.852	-777
215.919	792
215.986	707
216.053	-623
216.120	-30
216.187	46
216.254	16
216.321	211
216.388	124
216.455	-250
216.522	701
216.589	-284
216.656	1238
216.722	522
216.789	512
216.856	196
216.923	421
216.990	819
217.057	788
217.124	-8
217.191	-149
217.258	457
217.324	1339
217.391	566
217.458	1166
217.525	497
217.592	-150
217.659	-1102
217.725	823
217.792	502
217.859	1094
217.926	-901
217.993	366
218.059	-119
218.126	394
218.193	-714
218.260	288
218.327	357
218.393	-1059
218.460	-1286
218.527	-118
218.594	-288
218.660	96
218.727	994
218.794	-277
218.860	36
218.927	-35
218.994	-337
219.061	-446
219.127	-313
219.194	520
219.261	-547
219.327	2
219.394	187
219.461	-924
219.527	-90
219.594	857
219.661	-949
219.727	-417
219.794	38
219.860	-973
219.927	-97
219.994	-113
220.060	32
220.127	-56
220.193	-263
220.260	-253
220.326	671
220.393	1047
220.460	2213
220.526	970
220.593	-85
220.659	1621
220.726	32
220.792	1775
220.859	1464
220.925	2323
220.992	3845
221.058	2310
221.125	2372
221.191	1461
221.258	86
221.324	544
221.391	-161
221.457	79
221.524	56
221.590	173
221.657	1829
221.723	631
221.789	414
221.856	534
221.922	-201
221.989	527
222.055	-309
222.121	-890
222.188	913
222.254	282
222.321	-300
222.387	-105
222.453	-535
222.520	-680
222.586	-528
222.652	320
222.719	-651
222.785	470
222.851	-397
222.918	455
222.984	-1005
223.050	-554
223.116	-1317
223.183	779
223.249	-874
223.315	341
223.382	-339
223.448	-469
223.514	-218
223.580	-261
223.647	-951
223.713	-801
223.779	-191
223.845	-532
223.911	-368
223.978	-782
224.044	-282
224.110	-273
224.176	-288
224.242	432
224.309	-1098
224.375	30
224.441	-466
224.507	-209
224.573	-1481
224.639	206
224.705	-495
224.772	98
224.838	-1429
224.904	-265
224.970	-520
225.036	-466
225.102	-1151
225.168	85
225.234	-729
225.300	185
225.366	-332
225.432	181
225.499	-595
225.565	-61
225.631	-545
225.697	-758
225.763	708
225.829	-336
225.895	315
225.961	525
226.027	298
226.093	-694
226.159	251
226.225	1287
226.291	2644
226.357	5068
226.423	2147
226.489	929
226.554	449
226.620	283
226.686	834
226.752	1828
226.818	1458
226.884	5494
226.950	5779
227.016	1983
227.082	883
227.148	515
227.214	204
227.279	55
227.345	-94
227.411	87
227.477	-695
227.543	-311
227.609	-27
227.674	837
227.740	-935
227.806	-655
227.872	17
227.938	217
228.003	-228
228.069	-2
228.135	-788
228.201	-161
228.267	-70
228.332	-472
228.398	-1408
228.464	527
228.530	-626
228.595	98
228.661	-974
228.727	-726
228.792	260
228.858	-687
228.924	-2201
228.990	755
229.055	-979
229.121	628
229.187	-1001
229.252	324
229.318	-1411
229.384	638
229.449	-416
229.515	-1443
229.581	-1412
229.646	1181
229.712	123
229.777	1124
229.843	-544
229.909	99
229.974	407
230.040	428
230.105	-100
230.171	-768
230.236	501
230.302	779
230.368	-684
230.433	31
230.499	603
230.564	161
230.630	-1421
230.695	575
230.761	42
230.826	-789
230.892	851
230.957	-676
231.023	-695
231.088	-39
231.154	-613
231.219	282
231.284	-22
231.350	640
231.415	-1370
231.481	-8
231.546	-1630
231.612	231
231.677	-552
231.742	-865
231.808	833
231.873	-874
231.939	-1985
232.004	783
232.069	537
232.135	-162
232.200	-804
232.265	-334
232.331	-843
232.396	-320
232.461	-413
232.527	-390
232.592	-518
232.657	295
232.723	-24
232.788	-255
232.853	139
232.918	354
232.984	-855
233.049	-1311
233.114	-373
233.179	49
233.245	375
233.310	642
233.375	-1151
233.440	524
233.506	-696
233.571	-623
233.636	-954
233.701	355
233.766	-488
233.832	420
233.897	-288
233.962	-1623
234.027	607
234.092	-64
234.157	-363
234.222	-253
234.288	-555
234.353	2318
234.418	1019
234.483	1388
234.548	592
234.613	-28
234.678	41
234.743	-807
234.808	2175
234.873	-99
234.938	905
235.004	22
235.069	-91
235.134	-765
235.199	-306
235.264	-136
235.329	-1956
235.394	477
235.459	10
235.524	-1288
235.589	-319
235.654	-656
235.719	-1644
235.784	-189
235.849	119
235.913	459
235.978	79
236.043	1135
236.108	-134
236.173	-915
236.238	752
236.303	-696
236.368	-453
236.433	605
236.498	39
236.563	1102
236.627	701
236.692	8855
236.757	5124
236.822	1729
236.887	587
236.952	996
237.017	-1157
237.081	1034
237.146	309
237.211	3738
237.276	7558
237.341	13103
237.405	4673
237.470	2064
237.535	736
237.600	736
237.664	-180
237.729	-570
237.794	-639
237.859	2115
237.923	626
237.988	-57
238.053	619
238.118	484
238.182	2375
238.247	3126
238.312	-227
238.376	436
238.441	-1993
238.506	321
238.570	-918
238.635	269
238.700	-247
238.764	-258
238.829	12
238.893	916
238.958	566
239.023	229
239.087	-607
239.152	444
239.216	-334
239.281	435
239.346	-411
239.410	-600
239.475	-581
239.539	2492
239.604	3
239.668	987
239.733	-334
239.797	-165
239.862	-1002
239.926	1160
239.991	483
240.055	-562
240.120	-173
240.184	-428
240.249	-1286
240.313	183
240.378	-121
240.442	1291
240.507	2458
240.571	688
240.635	-166
240.700	870
240.764	-846
240.829	322
240.893	-2007
240.957	353
241.022	694
241.086	2106
241.151	127
241.215	-874
241.279	152
241.344	1080
241.408	371
241.472	-392
241.537	498
241.601	-285
241.665	-639
241.730	-886
241.794	610
241.858	151
241.922	-82
241.987	293
242.051	-218
242.115	-620
242.179	-145
242.244	-316
242.308	368
242.372	463
242.436	-833
242.501	-117
242.565	-839
242.629	-1296
242.693	297
242.757	-667
242.822	-1228
242.886	418
242.950	29
243.014	-556
243.078	-118
243.142	122
243.206	-578
243.271	-912
243.335	-741
243.399	981
243.463	1802
243.527	9234
243.591	1601
243.655	1214
243.719	-1213
243.783	1190
243.847	420
243.911	657
243.975	881
244.040	-901
244.104	1219
244.168	634
244.232	-513
244.296	551
244.360	561
244.424	-386
244.488	-369
244.552	139
244.615	-1583
244.679	-234
244.743	-698
244.807	-791
244.871	63
244.935	423
244.999	-1327
245.063	-332
245.127	716
245.191	359
245.255	-341
245.319	-198
245.383	-1386
245.446	267
245.510	-831
245.574	-59
245.638	-269
245.702	-776
245.766	1092
245.829	713
245.893	-697
245.957	-728
246.021	708
246.085	-101
246.149	-396
246.212	2628
246.276	2468
246.340	-35
246.404	767
246.467	1121
246.531	-1508
246.595	1382
246.659	774
246.722	-918
246.786	302
246.850	372
246.913	602
246.977	-1135
247.041	-355
247.104	-409
247.168	-466
247.232	1658
247.295	4328
247.359	2068
247.423	-464
247.486	1290
247.550	1149
247.614	-166
247.677	198
247.741	199
247.804	-532
247.868	733
247.932	912
247.995	4615
248.059	60
248.122	-838
248.186	1397
248.249	1048
248.313	7899
248.376	7905
248.440	3550
248.503	-61
248.567	1202
248.630	527
248.694	2598
248.757	4328
248.821	7743
248.884	5260
248.948	2950
249.011	5058
249.075	8815
249.138	7880
249.202	1881
249.265	765
249.328	2574
249.392	347
249.455	1180
249.519	194
249.582	-113
249.645	1980
249.709	24
249.772	408
249.835	-365
249.899	-460
249.962	390
250.025	75
250.089	2188
250.152	3464
250.215	403
250.279	84
250.342	581
250.405	169
250.468	-88
250.532	872
250.595	1714
250.658	8392
250.721	14781
250.785	3938
250.848	3064
250.911	248
250.974	1149
251.038	988
251.101	4145
251.164	1785
251.227	1590
251.290	2024
251.354	2485
251.417	12386
251.480	11483
251.543	7810
251.606	25171
251.669	17258
251.732	5242
251.795	5592
251.859	5477
251.922	14375
251.985	6918
252.048	2394
252.111	1028
252.174	974
252.237	3411
252.300	9963
252.363	9372
252.426	21830
252.489	6420
252.552	3670
252.615	77
252.678	3353
252.741	6423
252.804	8558
252.867	20764
252.930	11165
252.993	5130
253.056	2881
253.119	837
253.182	371
253.245	1406
253.308	2549
253.371	1251
253.434	1715
253.497	1550
253.559	4536
253.622	1984
253.685	1999
253.748	2717
253.811	241
253.874	1746
253.937	968
254.000	862
254.062	1921
254.125	3794
254.188	3773
254.251	1406
254.314	476
254.376	1739
254.439	2845
254.502	2095
254.565	2223
254.628	4938
254.690	1698
254.753	385
254.816	-219
254.878	-184
254.941	2465
255.004	2282
255.067	279
255.129	264
255.192	383
255.255	-982
255.317	327
255.380	256
255.443	-409
255.505	-1009
255.568	-1101
255.631	-1338
255.693	30
255.756	-1273
255.819	23
255.881	-1798
255.944	-426
256.006	-884
256.069	-1023
256.132	-903
256.194	-463
256.257	1151
256.319	1288
256.382	328
256.444	343
256.507	-526
256.569	-583
256.632	-382
256.694	-191
256.757	3264
256.819	12075
256.882	1929
256.944	1185
257.007	1246
257.069	-123
257.132	211
257.194	987
257.257	-183
257.319	-137
257.381	-118
257.444	2243
257.506	15426
257.569	15765
257.631	7477
257.693	3439
257.756	316
257.818	-194
257.880	253
257.943	575
258.005	-1080
258.067	41
258.130	-26
258.192	-517
258.254	551
258.317	9
258.379	216
258.441	1676
258.503	2151
258.566	2567
258.628	3041
258.690	-526
258.753	636
258.815	1078
258.877	-298
258.939	219
259.001	277
259.064	-167
259.126	-674
259.188	-405
259.250	127
259.312	1133
259.375	3395
259.437	1150
259.499	-188
259.561	-669
259.623	-55
259.685	-255
259.747	-822
259.809	2737
259.872	5515
259.934	7809
259.996	7370
260.058	1797
260.120	-502
260.182	81
260.244	-711
260.306	-489
260.368	-252
260.430	-779
260.492	274
260.554	2378
260.616	1747
260.678	2559
260.740	4645
260.802	-1
260.864	1088
260.926	-598
260.988	370
261.050	115
261.112	1196
261.174	5674
261.236	3793
261.298	743
261.359	1794
261.421	2278
261.483	-678
261.545	1021
261.607	-1331
261.669	211
261.731	330
261.793	3036
261.854	-8
261.916	198
261.978	-433
262.040	253
262.102	-500
262.164	-10
262.225	352
262.287	-305
262.349	342
262.411	947
262.472	575
262.534	-144
262.596	2363
262.658	259
262.719	-1547
262.781	139
262.843	1526
262.904	553
262.966	142
263.028	-273
263.090	4638
263.151	14367
263.213	3518
263.275	1494
263.336	330
263.398	95
263.459	-1019
263.521	-449
263.583	1092
263.644	603
263.706	-509
263.767	-727
263.829	-313
263.891	-878
263.952	-845
264.014	-946
264.075	-394
264.137	992
264.198	600
264.260	-936
264.321	-1258
264.383	939
264.444	2652
264.506	-15
264.567	-628
264.629	378
264.690	944
264.752	65
264.813	-784
264.875	-557
264.936	-268
264.998	-910
265.059	-367
265.120	151
265.182	409
265.243	5995
265.305	5495
265.366	941
265.427	-95
265.489	495
265.550	-1557
265.611	-626
265.673	-517
265.734	-409
265.795	-285
265.857	-263
265.918	-154
265.979	742
266.040	10436
266.102	7411
266.163	1031
266.224	199
266.286	-448
266.347	-984
266.408	-645
266.469	75
266.530	-746
266.592	-914
266.653	111
266.714	1226
266.775	-689
266.836	-274
266.898	-1789
266.959	-879
267.020	-905
267.081	-30
267.142	-1242
267.203	-994
267.264	-1326
267.326	15
267.387	-1362
267.448	-1437
267.509	-1204
267.570	-1073
267.631	-764
267.692	-833
267.753	-789
267.814	-1573
267.875	23
267.936	1525
267.997	-967
268.058	52
268.119	-964
268.180	-225
268.241	-1270
268.302	-244
268.363	-1228
268.424	-919
268.485	-920
268.546	-875
268.607	-1579
268.668	-545
268.729	-1487
268.790	-803
268.851	-998
268.912	951
268.972	832
269.033	-431
269.094	-1387
269.155	-837
269.216	-1585
269.277	-592
269.338	-763
269.398	-265
269.459	-1744
269.520	-110
269.581	-619
269.642	-174
269.702	-860
269.763	-587
269.824	-1161
269.885	-1355
269.945	407
270.006	-349
270.067	-925
270.128	-1594
270.188	-1302
270.249	-1192
270.310	-1116
270.370	-145
270.431	-1373
270.492	-1597
270.553	-1417
270.613	257
270.674	2173
270.734	542
270.795	-379
270.856	-579
270.916	-685
270.977	-34
271.038	111
271.098	-500
271.159	-268
271.219	-323
271.280	-957
271.340	-384
271.401	-1351
271.462	285
271.522	138
271.583	-697
271.643	-951
271.704	-969
271.764	-564
271.825	1189
271.885	6613
271.946	9232
272.006	1757
272.066	3179
272.127	6185
272.187	1118
272.248	-410
272.308	-669
272.369	4579
272.429	1873
272.489	325
272.550	436
272.610	2090
272.671	-50
272.731	187
272.791	566
272.852	-591
272.912	-242
272.972	-203
273.033	-925
273.093	-396
273.153	858
273.214	-721
273.274	-492
273.334	1531
273.394	7018
273.455	740
273.515	1607
273.575	4700
273.635	1598
273.696	2196
273.756	6323
273.816	881
273.876	733
273.936	1352
273.997	4293
274.057	-350
274.117	-1048
274.177	864
274.237	7501
274.297	6680
274.358	3558
274.418	4279
274.478	3415
274.538	-477
274.598	532
274.658	2864
274.718	3855
274.778	307
274.838	-288
274.898	825
274.958	6060
275.018	5950
275.078	3571
275.138	982
275.198	-43
275.258	-966
275.318	90
275.378	550
275.438	1056
275.498	244
275.558	2567
275.618	7195
275.678	4570
275.738	1747
275.798	579
275.858	320
275.918	-953
275.978	-1054
276.038	-160
276.098	-1338
276.157	750
276.217	3731
276.277	1403
276.337	-517
276.397	-1084
276.457	-575
276.517	-465
276.576	-12
276.636	-966
276.696	-1096
276.756	1082
276.815	491
276.875	-641
276.935	-752
276.995	-630
277.055	-1139
277.114	-674
277.174	-1179
277.234	3234
277.293	4
277.353	-424
277.413	-368
277.472	-1166
277.532	-1228
277.592	-481
277.651	1454
277.711	3643
277.771	17
277.830	6408
277.890	4441
277.950	2677
278.009	10112
278.069	2762
278.128	2062
278.188	3903
278.248	15
278.307	3499
278.367	1893
278.426	-752
278.486	-1212
278.545	-897
278.605	-825
278.664	-795
278.724	-1011
278.783	910
278.843	6307
278.902	985
278.962	-453
279.021	99
279.081	561
279.140	154
279.199	-675
279.259	-274
279.318	261
279.378	347
279.437	2168
279.496	12907
279.556	32220
279.615	22471
279.675	4929
279.734	2219
279.793	5134
279.853	11768
279.912	3028
279.971	1147
280.031	857
280.090	3427
280.149	7803
280.208	3270
280.268	20004
280.327	19812
280.386	2283
280.445	2347
280.505	1869
280.564	279
280.623	-574
280.682	1000
280.742	2223
280.801	-294
280.860	-1254
280.919	-361
280.978	-1523
281.037	-781
281.097	-1294
281.156	-295
281.215	-1298
281.274	-851
281.333	3874
281.392	2541
281.451	-965
281.510	-833
281.569	-508
281.628	-979
281.688	-782
281.747	-1099
281.806	-812
281.865	-1096
281.924	-1190
281.983	-633
282.042	-1733
282.101	-1186
282.160	-1085
282.219	-1166
282.278	-1442
282.337	1711
282.396	-458
282.454	-748
282.513	-660
282.572	3513
282.631	728
282.690	-847
282.749	-1085
282.808	-639
282.867	-756
282.926	-1184
282.985	-926
283.043	-753
283.102	-858
283.161	-1446
283.220	864
283.279	3409
283.338	130
283.396	-1456
283.455	-823
283.514	-1035
283.573	29
283.631	-96
283.690	-445
283.749	-1518
283.808	226
283.866	279
283.925	-1377
283.984	201
284.043	-721
284.101	-725
284.160	-2134
284.219	-407
284.277	-262
284.336	-603
284.395	3681
284.453	2958
284.512	-246
284.570	833
284.629	-223
284.688	-498
284.746	-773
284.805	405
284.863	394
284.922	559
284.981	767
285.039	2579
285.098	5639
285.156	17192
285.215	45742
285.273	43213
285.332	18447
285.390	8576
285.449	4616
285.507	2188
285.566	764
285.624	679
285.683	467
285.741	-370
285.799	-456
285.858	-14
285.916	-1062
285.975	-1094
286.033	-1295
286.091	-740
286.150	-1083
286.208	-178
286.267	-873
286.325	-313
286.383	-1133
286.442	-293
286.500	-2168
286.558	-912
286.616	-1428
286.675	-550
286.733	-1378
286.791	-879
286.850	-1273
286.908	-821
286.966	108
287.024	-1250
287.083	-614
287.141	-1375
287.199	-1333
287.257	-308
287.315	-1420
287.374	-618
287.432	1040
287.490	103
287.548	-726
287.606	-1486
287.664	-1224
287.723	-390
287.781	192
287.839	-369
287.897	-1034
287.955	-332
288.013	687
288.071	2245
288.129	16598
288.187	51229
288.245	19174
288.303	3967
288.361	1572
288.419	719
288.477	-306
288.535	-636
288.593	-774
288.651	-1041
288.709	-1783
288.767	-539
288.825	-939
288.883	-1902
288.941	-1308
288.999	-1654
289.057	-1659
289.115	-1259
289.173	-1957
289.231	-1002
289.289	-2145
289.346	-1449
289.404	-1411
289.462	-118
289.520	-824
289.578	-1865
289.636	-1142
289.694	-1239
289.751	-778
289.809	-1114
289.867	-1712
289.925	-745
289.983	-954
290.040	-1311
290.098	-1499
290.156	-1337
290.214	-1924
290.271	-1573
290.329	-1844
290.387	-1529
290.444	-1408
290.502	-1735
290.560	-1081
290.617	-1180
290.675	-1208
290.733	-1021
290.790	-1892
290.848	-908
290.906	-1767
290.963	-1541
291.021	-1732
291.078	-988
291.136	-1702
291.194	49
291.251	2987
291.309	-9
291.366	-1411
291.424	-571
291.481	-1662
291.539	-2050
291.596	-1718
291.654	-1485
291.711	-1262
291.769	-1335
291.826	-703
291.884	-794
291.941	-1692
291.999	-1148
292.056	-1209
292.114	-1104
292.171	-1715
292.228	-1477
292.286	-1573
292.343	-153
292.401	-372
292.458	43
292.515	-778
292.573	-775
292.630	-1125
292.687	-1160
292.745	-674
292.802	-1051
292.859	460
292.917	3687
292.974	1431
293.031	-49
293.089	-1803
293.146	-894
293.203	-1828
293.260	-1517
293.318	-976
293.375	-660
293.432	-1412
293.489	-918
293.546	-1378
293.604	-1056
293.661	896
293.718	7388
293.775	1890
293.832	47
293.889	-569
293.947	-332
294.004	-874
294.061	-358
294.118	185
294.175	3771
294.232	3481
294.289	1261
294.346	-859
294.403	-1009
294.460	-630
294.517	-1142
294.574	-1099
294.631	-1504
294.688	-1474
294.745	714
294.802	8093
294.859	7766
294.916	2283
294.973	862
295.030	71
295.087	-735
295.144	-1362
295.201	-616
295.258	-1506
295.315	-457
295.372	2690
295.429	5829
295.486	1116
295.542	-194
295.599	1901
295.656	5588
295.713	2446
295.770	4749
295.827	907
295.883	128
295.940	-1435
295.997	629
296.054	-262
296.111	-1380
296.167	-40
296.224	-853
296.281	-2148
296.338	-1640
296.394	-1105
296.451	-831
296.508	930
296.564	4069
296.621	2037
296.678	6275
296.734	9594
296.791	2092
296.848	609
296.904	576
296.961	3161
297.018	7138
297.074	3572
297.131	1018
297.187	-309
297.244	1000
297.301	6467
297.357	12399
297.414	3962
297.470	853
297.527	-839
297.583	-696
297.640	-959
297.696	-751
297.753	-1055
297.809	-1304
297.866	-1367
297.922	-449
297.979	-1076
298.035	-1733
298.092	-741
298.148	3594
298.204	2314
298.261	527
298.317	2083
298.374	8157
298.430	3280
298.486	110
298.543	-42
298.599	-790
298.656	-217
298.712	1478
298.768	4173
298.824	2774
298.881	-853
298.937	350
298.993	-398
299.050	-303
299.106	-1395
299.162	-1518
299.218	-1447
299.275	-1378
299.331	-1417
299.387	-122
299.443	6874
299.500	6292
299.556	1008
299.612	-667
299.668	-890
299.724	-161
299.780	-916
299.837	-1220
299.893	-206
299.949	5216
300.005	5050
300.061	4079
300.117	9566
300.173	3173
300.229	-201
300.285	626
300.341	1272
300.397	390
300.453	-715
300.510	-707
300.566	-1062
300.622	-1003
300.678	-613
300.734	3071
300.790	3891
300.845	6229
300.901	2729
300.957	3859
301.013	3882
301.069	174
301.125	-854
301.181	270
301.237	-189
301.293	-1921
301.349	-1059
301.405	-1665
301.461	-1905
301.516	-340
301.572	-1374
301.628	171
301.684	-316
301.740	1605
301.796	2875
301.851	1666
301.907	3693
301.963	3951
302.019	6943
302.074	23798
302.130	21399
302.186	8830
302.242	2118
302.297	1271
302.353	558
302.409	4210
302.464	2892
302.520	1759
302.576	7024
302.631	8110
302.687	3523
302.743	569
302.798	-1266
302.854	-852
302.910	-761
302.965	125
303.021	805
303.076	882
303.132	1743
303.187	1454
303.243	522
303.299	-549
303.354	-827
303.410	-439
303.465	-917
303.521	-720
303.576	-971
303.632	-164
303.687	412
303.743	5923
303.798	5469
303.853	1444
303.909	-645
303.964	-29
304.020	-47
304.075	1141
304.130	291
304.186	3373
304.241	4184
304.297	2101
304.352	75
304.358	46
304.407	-186
304.449	263
304.463	416
304.518	-558
304.539	-372
304.573	-103
304.629	-630
304.630	-611
304.684	361
304.720	3308
304.739	4762
304.794	7692
304.811	6068
304.850	2192
304.902	580
304.905	481
304.960	-499
304.992	-595
305.015	-692
305.071	-350
305.083	-503
305.126	-1028
305.173	-701
305.181	-633
305.236	-718
305.264	-551
305.292	-453
305.347	-527
305.354	-551
305.402	-510
305.445	156
305.457	303
305.512	72
305.535	109
305.567	204
305.622	105
305.626	159
305.678	1766
305.716	5955
305.733	7340
305.788	7710
305.807	6332
305.843	4342
305.897	7382
305.898	7411
305.953	6432
305.988	3955
306.008	2734
306.063	903
306.078	697
306.118	244
306.168	-50
306.173	-73
306.228	-365
306.259	-127
306.283	48
306.338	-533
306.349	-382
306.393	211
306.440	-54
306.448	-69
306.503	379
306.530	358
306.558	469
306.613	2334
306.620	2547
306.668	4367
306.711	6799
306.723	6995
306.778	4580
306.801	3322
306.833	2180
306.888	331
306.892	259
306.943	-342
306.982	-562
306.997	-592
307.052	-59
307.072	-170
307.107	-358
307.162	617
307.163	615
307.217	1032
307.253	1476
307.272	1435
307.327	1381
307.343	1125
307.381	837
307.434	483
307.436	541
307.491	3228
307.524	5491
307.546	6115
307.600	6126
307.614	5343
307.655	2648
307.704	671
307.710	643
307.765	1224
307.795	2095
307.819	2655
307.874	3994
307.885	3983
307.929	3482
307.975	3092
307.984	3267
308.038	5050
308.065	6252
308.093	11797
308.148	26326
308.156	29639
308.202	43042
308.246	48977
308.257	47508
308.312	25242
308.336	17541
308.366	13173
308.421	7583
308.426	7149
308.475	4725
308.517	2448
308.530	2011
308.585	2185
308.607	2086
308.639	1986
308.694	2532
308.697	2549
308.748	4022
308.787	5568
308.803	5449
308.857	4023
308.877	3162
308.912	2683
308.967	3165
308.967	3167
309.021	4920
309.058	6561
309.076	8996
309.130	16995
309.148	20130
309.185	35428
309.238	63448
309.239	63593
309.293	65135
309.328	56514
309.348	48392
309.402	23013
309.418	16895
309.457	11224
309.508	6629
309.511	6549
309.566	5726
309.598	5652
309.620	6143
309.674	8016
309.688	8508
309.729	7819
309.778	6000
309.783	5890
309.837	4524
309.868	3901
309.892	5446
309.946	9752
309.959	10984
310.001	13404
310.049	15422
310.055	14899
310.109	8076
310.139	4542
310.163	3331
310.218	1312
310.229	913
310.272	913
310.319	1056
310.326	1081
310.381	1454
310.409	1520
310.435	1268
310.489	780
310.499	703
310.543	991
310.589	1306
310.598	1320
310.652	1248
310.679	1212
310.706	994
310.760	671
310.769	585
310.814	834
310.859	1129
310.868	1140
310.923	1102
310.948	1122
310.977	1538
311.031	2130
311.038	2232
311.085	1753
311.128	1114
311.139	1114
311.193	1106
311.218	1104
311.247	1175
311.301	1371
311.308	1372
311.356	1062
311.398	801
311.410	874
311.464	1099
311.488	1235
311.518	1330
311.572	1507
311.578	1506
311.626	1594
311.668	1735
311.680	1766
311.734	1827
311.758	1822
311.788	1653
311.842	1377
311.847	1341
311.896	2210
311.937	2932
311.950	2797
312.004	2183
312.027	1891
312.058	1614
312.112	1113
312.117	1060
312.165	1193
312.207	1301
312.297	2538
312.386	926
312.476	800
312.566	2785
312.656	1844
312.745	1814
312.835	2216
312.925	735
313.015	1502
313.104	1072
313.194	2067
313.284	848
313.374	1699
313.463	1837
313.553	1066
313.643	1031
313.732	1172
313.822	541
313.912	1240
314.001	1719
314.091	2030
314.180	1755
314.270	2226
314.360	1806
314.449	1874
314.539	959
314.628	1399
314.718	164
314.808	2054
314.897	1351
314.987	1371
315.076	1654
315.166	2785
315.255	2026
315.345	1964
315.434	1408
315.524	1841
315.613	1804
315.703	2510
315.792	1793
315.881	1376
315.971	713
316.060	3212
316.150	3617
316.239	2674
316.328	1568
316.418	1778
316.507	1255
316.597	1834
316.686	1324
316.775	2204
316.865	2548
316.954	1092
317.043	684
317.133	1119
317.222	657
317.311	1249
317.400	231
317.490	2900
317.579	842
317.668	877
317.757	1032
317.847	2077
317.936	2965
318.025	4474
318.114	2129
318.203	1946
318.293	2606
318.382	4266
318.471	4435
318.560	5871
318.649	13710
318.738	2184
318.828	2224
318.917	1873
319.006	2258
319.095	5602
319.184	19149
319.273	9512
319.362	4626
319.451	1128
319.540	1597
319.629	4109
319.718	5834
319.807	2568
319.896	5638
319.985	23037
320.074	5610
320.163	2036
320.252	2648
320.341	3320
320.430	2167
320.519	3532
320.608	1322
320.697	1802
320.786	1535
320.875	2304
320.964	2132
321.053	4021
321.142	6230
321.230	5567
321.319	4388
321.408	11354
321.497	3587
321.586	5026
321.675	3998
321.764	4102
321.852	3013
321.941	6530
322.030	3078
322.119	4229
322.207	11331
322.296	5447
322.385	3071
322.474	4173
322.562	14262
322.651	5300
322.740	4815
322.829	7157
322.917	5074
323.006	3945
323.095	3302
323.183	2398
323.272	4151
323.361	6259
323.449	14398
323.538	4821
323.626	11622
323.715	5474
323.804	2987
323.892	9909
323.981	4924
324.069	1761
324.158	6119
324.246	3394
324.335	2306
324.424	4353
324.512	1819
324.601	2198
324.689	2602
324.778	3966
324.866	3490
324.954	1481
325.043	1039
325.131	2379
325.220	4210
325.308	4560
325.397	3268
325.485	2437
325.574	1575
325.662	1309
325.750	640
325.839	1854
325.927	718
326.015	1747
326.104	1896
326.192	1993
326.280	739
326.369	1195
326.457	2075
326.545	3841
326.634	827
326.722	1510
326.810	1172
326.898	1364
326.987	1057
327.075	2720
327.163	2739
327.251	618
327.340	1137
327.428	2558
327.516	363
327.604	812
327.692	525
327.781	170
327.869	2113
327.957	1202
328.045	1312
328.133	1644
328.221	454
328.309	572
328.397	196
328.485	1565
328.574	2304
328.662	7090
328.750	2001
328.838	1342
328.926	1341
329.014	829
329.102	1035
329.190	4472
329.278	2737
329.366	1050
329.454	337
329.542	904
329.630	735
329.718	580
329.806	1095
329.893	1782
329.981	952
330.069	1562
330.157	4390
330.245	13185
330.333	5016
330.421	1300
330.509	1562
330.597	9743
330.684	4220
330.772	1907
330.860	2457
330.948	2963
331.036	881
331.123	334
331.211	572
331.299	976
331.387	3381
331.475	5088
331.562	815
331.650	798
331.738	1073
331.825	1344
331.913	522
332.001	810
332.089	1144
332.176	1620
332.264	4878
332.352	2421
332.439	1493
332.527	738
332.614	288
332.702	814
332.790	1528
332.877	1998
332.965	4090
333.052	914
333.140	965
333.228	2402
333.315	221
333.403	759
333.490	3793
333.578	1348
333.665	3527
333.753	2598
333.840	-68
333.928	1222
334.015	3376
334.103	6553
334.190	19768
334.278	3552
334.365	1115
334.452	1459
334.540	331
334.627	1298
334.715	978
334.802	3205
334.889	16808
334.977	12291
335.064	1425
335.151	1059
335.239	1133
335.326	2187
335.413	12395
335.501	12510
335.588	2016
335.675	766
335.762	906
335.850	2984
335.937	1192
336.024	4718
336.111	17938
336.199	5271
336.286	600
336.373	974
336.460	773
336.547	1342
336.635	1029
336.722	1531
336.809	722
336.896	1416
336.983	6618
337.070	16474
337.157	21540
337.245	11499
337.332	6186
337.419	818
337.506	-151
337.593	1470
337.680	5474
337.767	16183
337.854	4004
337.941	3723
338.028	3684
338.115	1184
338.202	1792
338.289	3965
338.376	10736
338.463	3387
338.550	9303
338.637	8623
338.724	2332
338.811	3482
338.898	623
338.984	425
339.071	814
339.158	1418
339.245	4652
339.332	2689
339.419	2696
339.506	1965
339.593	14
339.679	1107
339.766	272
339.853	846
339.940	2895
340.027	923
340.113	909
340.200	1990
340.287	984
340.374	930
340.460	2712
340.547	276
340.634	1931
340.720	9370
340.807	4034
340.894	1424
340.980	1410
341.067	190
341.154	1277
341.240	2130
341.327	3892
341.414	2174
341.500	793
341.587	1400
341.674	985
341.760	2869
341.847	3044
341.933	1200
342.020	-179
342.106	1438
342.193	1183
342.279	1650
342.366	1042
342.452	2975
342.539	899
342.625	4205
342.712	8510
342.798	3910
342.885	1264
342.971	-549
343.058	111
343.144	99
343.230	1298
343.317	472
343.403	217
343.490	163
343.576	279
343.662	839
343.749	782
343.835	886
343.921	2504
344.008	19051
344.094	36591
344.180	7346
344.267	2412
344.353	11123
344.439	9209
344.525	4444
344.612	3533
344.698	3336
344.784	1615
344.870	1288
344.957	1235
345.043	2072
345.129	487
345.215	2746
345.301	1060
345.387	618
345.474	-111
345.560	431
345.646	549
345.732	66
345.818	775
345.904	1250
345.990	935
346.076	915
346.162	837
346.249	1409
346.335	249
346.421	347
346.507	4802
346.593	15682
346.679	2479
346.765	1434
346.851	667
346.937	22
347.023	1683
347.108	1556
347.194	430
347.280	750
347.366	997
347.452	4848
347.538	17281
347.624	14050
347.710	9700
347.796	1416
347.882	-323
347.967	745
348.053	817
348.139	731
348.225	92
348.311	915
348.397	581
348.482	610
348.568	768
348.654	373
348.740	135
348.825	-828
348.911	1987
348.997	8972
349.083	15872
349.168	1308
349.254	839
349.340	1063
349.425	475
349.511	540
349.597	466
349.682	3718
349.768	11563
349.854	4104
349.939	513
350.025	201
350.110	767
350.196	355
350.282	-434
350.367	739
350.453	-29
350.538	1147
350.624	529
350.709	1895
350.795	-808
350.880	278
350.966	900
351.051	1278
351.137	629
351.222	1164
351.308	3411
351.393	10068
351.479	2191
351.564	426
351.649	23
351.735	505
351.820	1105
351.906	501
351.991	417
352.076	6645
352.162	8757
352.247	2321
352.332	1274
352.418	2388
352.503	2822
352.588	16217
352.673	10315
352.759	1946
352.844	399
352.929	897
353.014	1229
353.100	1349
353.185	4109
353.270	3282
353.355	3055
353.441	1796
353.526	443
353.611	2843
353.696	2637
353.781	2667
353.866	-112
353.952	703
354.037	2550
354.122	6953
354.207	5341
354.292	1432
354.377	763
354.462	230
354.547	1663
354.632	1601
354.717	2518
354.802	3809
354.887	1145
354.972	443
355.057	96
355.142	432
355.227	564
355.312	1628
355.397	4619
355.482	10031
355.567	4217
355.652	3477
355.737	3299
355.822	12859
355.907	8793
355.991	1610
356.076	376
356.161	861
356.246	354
356.331	882
356.416	2155
356.501	20909
356.585	17864
356.670	1709
356.755	2034
356.840	2506
356.924	17369
357.009	46840
357.094	15145
357.179	3909
357.263	1879
357.348	1852
357.433	1615
357.517	2643
357.602	1364
357.687	1237
357.771	2918
357.856	7570
357.941	4215
358.025	12291
358.110	45110
358.195	18207
358.279	2676
358.364	1800
358.448	9544
358.533	25465
358.617	16797
358.702	17163
358.787	4854
358.871	3617
358.956	2259
359.040	-87
359.125	-233
359.209	838
359.294	3806
359.378	4873
359.462	1664
359.547	1581
359.631	125
359.716	-833
359.800	134
359.885	2180
359.969	-114
360.053	943
360.138	69
360.222	1337
360.306	2469
360.391	2814
360.475	3931
360.559	8468
360.644	7273
360.728	4603
360.812	13010
360.896	29286
360.981	10916
361.065	5162
361.149	1575
361.233	2121
361.318	186
361.402	766
361.486	1394
361.570	542
361.654	1379
361.739	3910
361.823	20585
361.907	28200
361.991	3853
362.075	2472
362.159	4616
362.243	3774
362.327	946
362.411	2878
362.495	1503
362.580	1205
362.664	706
362.748	-110
362.832	241
362.916	-515
363.000	3673
363.084	17856
363.168	28928
363.252	5906
363.336	2037
363.420	3887
363.503	15767
363.587	16575
363.671	2073
363.755	1000
363.839	2641
363.923	-260
364.007	2750
364.091	3004
364.175	3946
364.258	25757
364.342	8691
364.426	4274
364.510	238
364.594	4300
364.677	6804
364.761	24676
364.845	16103
364.929	5318
365.013	3963
365.096	3868
365.180	3727
365.264	6938
365.347	24729
365.431	9065
365.515	1684
365.598	176
365.682	1902
365.766	1092
365.849	2480
365.933	934
366.017	3198
366.100	422
366.184	-591
366.267	1039
366.351	197
366.435	522
366.518	-66
366.602	519
366.685	-93
366.769	1157
366.852	2145
366.936	3238
367.019	1075
367.103	412
367.186	3145
367.270	1013
367.353	-320
367.436	568
367.520	681
367.603	687
367.687	822
367.770	3437
367.853	1680
367.937	8961
368.020	12409
368.104	2282
368.187	2823
368.270	4186
368.353	3067
368.437	3603
368.520	6185
368.603	5932
368.687	9302
368.770	15682
368.853	2954
368.936	3780
369.020	2917
369.103	773
369.186	-592
369.269	4
369.352	2216
369.436	2748
369.519	1380
369.602	-401
369.685	2513
369.768	242
369.851	1348
369.934	179
370.018	158
370.101	1348
370.184	3699
370.267	1589
370.350	2449
370.433	4108
370.516	13163
370.599	13508
370.682	2008
370.765	10205
370.848	12429
370.931	21200
371.014	7540
371.097	376
371.180	1085
371.263	851
371.346	-928
371.429	326
371.511	85
371.594	1167
371.677	2787
371.760	4375
371.843	3258
371.926	19269
372.009	36662
372.091	13670
372.174	8207
372.257	18860
372.340	6600
372.423	4690
372.505	5882
372.588	2161
372.671	8163
372.754	20005
372.836	9013
372.919	8306
373.002	14297
373.085	3590
373.167	3516
373.250	9284
373.332	19776
373.415	28546
373.498	47805
373.580	18761
373.663	23667
373.746	28793
373.828	5183
373.911	3931
373.993	3138
374.076	13165
374.159	12002
374.241	6554
374.324	17500
374.406	11502
374.489	15487
374.571	42308
374.654	15340
374.736	8614
374.819	25468
374.901	38042
374.983	33370
375.066	6132
375.148	1624
375.231	12441
375.313	20869
375.395	5988
375.478	1389
375.560	283
375.643	1158
375.725	8845
375.807	31213
375.890	23005
375.972	5769
376.054	4641
376.136	4789
376.219	2015
376.301	10197
376.383	27153
376.465	9500
376.548	5612
376.630	7832
376.712	23485
376.794	9526
376.877	923
376.959	-336
377.041	908
377.123	1645
377.205	3597
377.287	-270
377.369	211
377.452	-356
377.534	289
377.616	380
377.698	-400
377.780	-1126
377.862	465
377.944	570
378.026	-421
378.108	612
378.190	543
378.272	419
378.354	-286
378.436	57
378.518	560
378.600	4560
378.682	5942
378.764	12863
378.846	8995
378.928	1360
379.010	2888
379.091	2004
379.173	43
379.255	-395
379.337	422
379.419	5977
379.501	17825
379.583	5503
379.664	1502
379.746	3764
379.828	14284
379.910	16655
379.991	14484
380.073	2032
380.155	1011
380.237	1244
380.318	188
380.400	-280
380.482	2512
380.564	3235
380.645	3572
380.727	4294
380.809	2468
380.890	995
380.972	1090
381.053	691
381.135	1927
381.217	4272
381.298	13213
381.380	4877
381.461	4626
381.543	23579
381.624	26878
381.706	3847
381.787	2261
381.869	2554
381.951	11765
382.032	36482
382.113	24343
382.195	3247
382.276	3709
382.358	8181
382.439	21603
382.521	25180
382.602	34664
382.684	16185
382.765	27663
382.846	25315
382.928	28909
383.009	14056
383.090	10475
383.172	42948
383.253	62657
383.334	24360
383.416	30462
383.497	15113
383.578	4383
383.659	9116
383.741	39063
383.822	92855
383.903	45890
383.984	20188
384.066	40648
384.147	23160
384.228	4719
384.309	2273
384.390	1296
384.471	1478
384.553	1880
384.634	2199
384.715	2535
384.796	605
384.877	2047
384.958	11855
385.039	13394
385.120	3549
385.201	2311
385.282	1136
385.363	2650
385.444	974
385.525	4249
385.606	15954
385.687	13487
385.768	2505
385.849	3108
385.930	20344
386.011	31622
386.092	7441
386.173	1151
386.254	925
386.335	2162
386.416	1591
386.496	8068
386.577	12085
386.658	3205
386.739	496
386.820	2176
386.901	478
386.981	1493
387.062	-112
387.143	1980
387.224	11103
387.304	12374
387.385	3740
387.466	514
387.547	1864
387.627	401
387.708	4335
387.789	22120
387.869	25353
387.950	6290
388.031	541
388.111	-1714
388.192	3388
388.273	5214
388.353	1631
388.434	1929
388.514	4020
388.595	20576
388.676	26281
388.756	12324
388.837	11636
388.917	6057
388.998	-618
389.078	1387
389.159	1172
389.239	-880
389.320	3078
389.400	-316
389.480	5517
389.561	12661
389.641	6418
389.722	1794
389.802	2187
389.883	6786
389.963	15516
390.043	9416
390.124	1163
390.204	4696
390.284	13476
390.365	7824
390.445	8692
390.525	18001
390.605	15356
390.686	6019
390.766	1112
390.846	1206
390.927	193
391.007	-671
391.087	1243
391.167	121
391.247	-539
391.328	1008
391.408	2904
391.488	2182
391.568	-630
391.648	299
391.728	1702
391.808	2500
391.888	1711
391.969	7105
392.049	11094
392.129	4826
392.209	4700
392.289	15680
392.369	7618
392.449	5264
392.529	2011
392.609	2095
392.689	3376
392.769	14094
392.849	10615
392.929	8155
393.009	17736
393.089	9862
393.169	2697
393.248	6652
393.328	35876
393.408	36332
393.488	6556
393.568	1657
393.648	1654
393.728	940
393.807	-322
393.887	1628
393.967	1119
394.047	1901
394.127	2618
394.206	6615
394.286	29509
394.366	107394
394.446	107834
394.525	25978
394.605	5440
394.685	5504
394.764	9740
394.844	14634
394.924	8760
395.003	2471
395.083	1506
395.163	1958
395.242	1748
395.322	1882
395.402	-228
395.481	3429
395.561	5407
395.640	16131
395.720	12541
395.799	18684
395.879	15308
395.958	11393
396.038	44136
396.117	138573
396.197	140331
396.276	45386
396.356	12732
396.435	7649
396.515	4568
396.594	3149
396.673	4058
396.753	10536
396.832	34360
396.912	32553
396.991	10677
397.070	2583
397.150	-16
397.229	424
397.308	229
397.388	524
397.467	1336
397.546	836
397.625	-1475
397.705	2481
397.784	1156
397.863	20
397.942	350
398.022	279
398.101	4957
398.180	16517
398.259	6212
398.338	1916
398.417	-45
398.497	-121
398.576	1495
398.655	-674
398.734	-51
398.813	872
398.892	5383
398.971	18102
399.050	7890
399.129	101
399.208	-194
399.287	678
399.366	-415
399.445	-2
399.524	558
399.603	-862
399.682	1497
399.761	5058
399.840	19705
399.919	14762
399.998	1493
400.077	-230
400.156	-912
400.235	1802
400.313	73
400.392	118
400.471	7110
400.550	10356
400.629	1235
400.708	1244
400.786	-444
400.865	2575
400.944	2942
401.023	2853
401.102	-836
401.180	-33
401.259	328
401.338	-648
401.416	1255
401.495	293
401.574	335
401.652	-220
401.731	1113
401.810	384
401.888	-588
401.967	-878
402.046	-273
402.124	921
402.203	186
402.281	804
402.360	-119
402.438	4347
402.517	916
402.596	849
402.674	546
402.753	100
402.831	221
402.910	288
402.988	6013
403.066	21311
403.145	12182
403.223	8012
403.302	19167
403.380	16042
403.459	16038
403.537	5402
403.615	1180
403.694	-902
403.772	495
403.850	-286
403.929	-274
404.007	446
404.085	3902
404.164	3064
404.242	642
404.320	5691
404.398	17023
404.477	17817
404.555	31928
404.633	27737
404.711	12997
404.789	7571
404.868	1004
404.946	52
405.024	-284
405.102	-383
405.180	-1120
405.258	-1082
405.336	584
405.415	-555
405.493	1427
405.571	2627
405.649	-430
405.727	-1044
405.805	918
405.883	867
405.961	668
406.039	-26
406.117	-787
406.195	1466
406.273	6527
406.351	25731
406.429	14724
406.507	1394
406.585	-289
406.663	256
406.740	633
406.818	-406
406.896	-508
406.974	1079
407.052	1853
407.130	16084
407.208	20455
407.285	4674
407.363	-1037
407.441	136
407.519	-873
407.596	706
407.674	1056
407.752	2773
407.830	3830
407.907	2139
407.985	227
408.063	357
408.141	-758
408.218	1090
408.296	-106
408.373	367
408.451	515
408.529	140
408.606	-880
408.684	-465
408.762	-1303
408.839	-911
408.917	-866
408.994	-536
409.072	-1281
409.149	-648
409.227	-39
409.304	-778
409.382	-710
409.459	-695
409.537	-566
409.614	-478
409.692	-1258
409.769	-1036
409.846	-963
409.924	848
410.001	-1925
410.079	-66
410.156	1041
410.233	-33
410.311	-653
410.388	-737
410.465	-149
410.543	-1292
410.620	387
410.697	-8
410.775	-32
410.852	-1751
410.929	423
411.006	464
411.083	-1480
411.161	425
411.238	466
411.315	-39
411.392	-943
411.469	829
411.547	33
411.624	-1887
411.701	-867
411.778	136
411.855	631
411.932	-623
412.009	-763
412.086	-15
412.163	-588
412.240	-630
412.317	382
412.394	-532
412.471	-292
412.548	-551
412.625	527
412.702	203
412.779	1055
412.856	-131
412.933	-1182
413.010	-50
413.087	604
413.164	5686
413.241	8180
413.318	127
413.395	1154
413.471	338
413.548	170
413.625	119
413.702	-877
413.779	-253
413.855	-321
413.932	-886
414.009	-2151
414.086	-253
414.162	-688
414.239	810
414.316	5991
414.393	14008
414.469	3658
414.546	-945
414.623	-651
414.699	-482
414.776	223
414.853	-939
414.929	296
415.006	-146
415.082	-282
415.159	5
415.236	-219
415.312	-496
415.389	693
415.465	398
415.542	-382
415.618	-1212
415.695	-284
415.771	-1265
415.848	-706
415.924	-224
416.000	-736
416.077	-181
416.153	-1462
416.230	-1827
416.306	-453
416.383	-469
416.459	-50
416.535	-1165
416.612	-1014
416.688	-592
416.764	-737
416.841	-1284
416.917	-1159
416.993	453
417.069	-870
417.146	-368
417.222	424
417.298	-54
417.374	-1094
417.451	508
417.527	90
417.603	-503
417.679	-155
417.755	-820
417.831	-1658
417.908	226
417.984	-412
418.060	-1398
418.136	1181
418.212	1571
418.288	-167
418.364	-545
418.440	-894
418.516	-71
418.592	227
418.668	2153
418.744	3336
418.820	1922
418.896	-693
418.972	-1103
419.048	-510
419.124	1783
419.200	-1086
419.276	-690
419.352	-741
419.428	-139
419.504	-1079
419.579	88
419.655	-572
419.731	53
419.807	2197
419.883	4206
419.959	1797
420.034	35
420.110	1009
420.186	7083
420.262	5598
420.337	144
420.413	-1181
420.489	-266
420.565	-728
420.640	-828
420.716	-570
420.792	-1823
420.867	435
420.943	-1201
421.019	-14
421.094	-268
421.170	-567
421.245	-712
421.321	-297
421.397	-319
421.472	203
421.548	235
421.623	974
421.699	415
421.774	-225
421.850	-681
421.925	519
422.001	-304
422.076	-808
422.152	-367
422.227	-32
422.302	960
422.378	-248
422.453	52
422.529	3109
422.604	18206
422.679	42493
422.755	19664
422.830	2268
422.905	505
422.981	-1001
423.056	95
423.131	-227
423.207	-623
423.282	-469
423.357	1491
423.432	52
423.508	1680
423.583	2526
423.658	1778
423.733	-165
423.808	39
423.883	112
423.959	-231
424.034	-681
424.109	49
424.184	-1213
424.259	-441
424.334	-279
424.409	-128
424.484	-866
424.559	-43
424.634	-363
424.709	-1092
424.784	82
424.859	-521
424.934	-292
425.009	5701
425.084	9425
425.159	2276
425.234	-169
425.309	-1017
425.384	1289
425.459	934
425.534	-198
425.609	-455
425.683	-664
425.758	-1166
425.833	-404
425.908	1053
425.983	3200
426.058	9348
426.132	3875
426.207	-263
426.282	715
426.357	-285
426.431	-1257
426.506	595
426.581	-792
426.655	-430
426.730	-476
426.805	-1121
426.879	-474
426.954	-345
427.029	83
427.103	9768
427.178	21977
427.253	9193
427.327	908
427.402	-147
427.476	2735
427.551	1066
427.625	-622
427.700	521
427.774	-1098
427.849	-644
427.923	-817
427.998	-649
428.072	-1054
428.147	1341
428.221	1351
428.296	4180
428.370	159
428.444	-74
428.519	402
428.593	2506
428.667	2262
428.742	2501
428.816	1154
428.890	4851
428.965	5050
429.039	2511
429.113	2502
429.188	485
429.262	-743
429.336	819
429.410	3958
429.485	1981
429.559	2384
429.633	1636
429.707	150
429.781	317
429.855	6516
429.930	10255
430.004	8140
430.078	15322
430.152	10022
430.226	3406
430.300	3290
430.374	-860
430.448	0
430.522	4240
430.596	14937
430.670	8232
430.744	13227
430.818	22162
430.892	3596
430.966	188
431.040	-483
431.114	-915
431.188	-1961
431.262	-251
431.336	-1285
431.410	1100
431.484	2270
431.557	2354
431.631	-1505
431.705	-829
431.779	-687
431.853	1423
431.927	432
432.000	-845
432.074	-354
432.148	-165
432.222	-1563
432.295	183
432.369	-1159
432.443	630
432.516	8346
432.590	22180
432.664	7695
432.737	72
432.811	-1445
432.885	-521
432.958	-794
433.032	-1802
433.106	-1387
433.179	-824
433.253	-1125
433.326	-542
433.400	-1029
433.473	-517
433.547	-1513
433.620	-103
433.694	-103
433.767	278
433.841	-1192
433.914	-1098
433.988	-876
434.061	-478
434.134	-215
434.208	-1390
434.281	-1261
434.355	-1455
434.428	-1151
434.501	-1483
434.575	-998
434.648	-316
434.721	-1068
434.795	-771
434.868	-1261
434.941	-1952
435.014	-1335
435.088	-473
435.161	-635
435.234	-737
435.307	288
435.381	-476
435.454	-1241
435.527	22
435.600	-1254
435.673	-1455
435.746	-659
435.819	-501
435.892	-1491
435.966	-1041
436.039	-1453
436.112	-237
436.185	-1165
436.258	-1046
436.331	-1289
436.404	-1052
436.477	-1239
436.550	-969
436.623	-1180
436.696	-997
436.769	-1041
436.842	-673
436.915	-861
436.987	-618
437.060	-902
437.133	-1073
437.206	-1278
437.279	-515
437.352	-1521
437.425	-1098
437.498	-538
437.570	787
437.643	430
437.716	-901
437.789	-1456
437.861	222
437.934	262
438.007	-46
438.080	-1471
438.152	39
438.225	624
438.298	12143
438.370	31628
438.443	11664
438.516	922
438.588	-552
438.661	-1285
438.734	-1065
438.806	-1502
438.879	-296
438.951	-928
439.024	51
439.096	-1267
439.169	-767
439.241	-1116
439.314	-614
439.386	-747
439.459	-159
439.531	-203
439.604	-487
439.676	-1229
439.749	-860
439.821	-960
439.893	-57
439.966	-1067
440.038	-653
440.110	-387
440.183	-329
440.255	-689
440.327	330
440.400	4718
440.472	20164
440.544	12841
440.617	138
440.689	427
440.761	-130
440.833	483
440.905	218
440.978	-1690
441.050	-1280
441.122	-101
441.194	-907
441.266	-1934
441.338	-800
441.411	-35
441.483	6075
441.555	8709
441.627	1184
441.699	328
441.771	-915
441.843	-586
441.915	-752
441.987	-1109
442.059	-1004
442.131	-889
442.203	-305
442.275	297
442.347	628
442.419	-641
442.491	-412
442.563	662
442.635	1068
442.706	3941
442.778	3332
442.850	-652
442.922	-1148
442.994	-764
443.066	-328
443.137	-449
443.209	-904
443.281	-627
443.353	-25
443.425	608
443.496	2575
443.568	1094
443.640	23
443.711	-497
443.783	-841
443.855	-1401
443.926	-454
443.998	-1502
444.070	-276
444.141	-420
444.213	316
444.285	17
444.356	-47
444.428	-416
444.499	-268
444.571	-758
444.642	-773
444.714	-1003
444.785	-37
444.857	147
444.928	2503
445.000	768
445.071	1319
445.143	1639
445.214	444
445.285	624
445.357	3928
445.428	4382
445.500	6738
445.571	5513
445.642	2088
445.714	2432
445.785	5077
445.856	911
445.928	370
445.999	-308
446.070	-74
446.141	161
446.213	504
446.284	-499
446.355	-196
446.426	-1268
446.497	159
446.569	223
446.640	585
446.711	650
446.782	-861
446.853	-677
446.924	-90
446.995	-12
447.066	-285
447.138	-151
447.209	-125
447.280	-1002
447.351	-585
447.422	-1217
447.493	-281
447.564	-497
447.635	50
447.706	-733
447.777	-617
447.847	-979
447.918	-1036
447.989	-778
448.060	155
448.131	1837
448.202	1478
448.273	1069
448.344	727
448.414	-752
448.485	-347
448.556	-221
448.627	-259
448.698	-201
448.768	-1016
448.839	-805
448.910	-529
448.981	-472
449.051	-754
449.122	-548
449.193	-590
449.263	-1696
449.334	-633
449.405	-261
449.475	1088
449.546	867
449.616	693
449.687	679
449.758	-371
449.828	-1036
449.899	-907
449.969	-1614
450.040	-1311
450.110	-820
450.181	-402
450.251	-810
450.322	-118
450.392	-1008
450.463	-363
450.533	-1572
450.604	-334
450.674	-453
450.744	-549
450.815	-1022
450.885	294
450.955	-673
451.026	-529
451.096	-1240
451.166	-565
451.237	751
451.307	3327
451.377	1079
451.447	-965
451.518	-957
451.588	-374
451.658	-655
451.728	235
451.799	3607
451.869	5283
451.939	1056
452.009	-378
452.079	-158
452.149	329
452.219	570
452.289	4332
452.360	3372
452.430	-464
452.500	-308
452.570	-226
452.640	-320
452.710	1873
452.780	4350
452.850	3258
452.920	1572
452.990	-317
453.060	168
453.129	372
453.199	-204
453.269	5619
453.339	13638
453.409	21697
453.479	19871
453.549	31644
453.619	32903
453.688	13434
453.758	1238
453.828	-513
453.898	-489
453.968	57
454.037	-416
454.087	-768
454.107	-920
454.168	-610
454.177	-571
454.247	-86
454.249	-115
454.316	-995
454.330	-822
454.386	-192
454.411	686
454.456	2133
454.492	3043
454.525	3863
454.574	1767
454.595	855
454.655	-452
454.665	-658
454.734	-730
454.736	-695
454.804	63
454.817	836
454.873	3999
454.898	4582
454.943	5703
454.979	3404
455.013	1294
455.060	215
455.082	-276
455.141	-144
455.152	-115
455.221	3046
455.222	3105
455.291	6789
455.303	6657
455.360	5925
455.384	7453
455.430	10044
455.465	8002
455.499	6127
455.546	5031
455.569	4519
455.627	3574
455.638	3420
455.707	-758
455.708	-751
455.777	-648
455.789	-543
455.846	-32
455.869	-99
455.916	-303
455.950	-365
455.985	-401
456.031	-35
456.054	112
456.112	-73
456.124	-86
456.193	-705
456.193	-715
456.262	-277
456.274	-115
456.332	585
456.355	248
456.401	-365
456.436	-139
456.470	-2
456.516	-470
456.540	-694
456.597	-811
456.609	-793
456.678	-84
456.678	-88
456.747	-122
456.759	-252
456.817	-730
456.840	-590
456.886	-411
456.920	-490
456.955	-534
457.001	-96
457.024	136
457.082	-441
457.093	-597
457.162	113
457.163	117
457.232	-521
457.243	-385
457.301	63
457.324	-322
457.370	-773
457.405	-155
457.439	327
457.485	-80
457.508	-304
457.566	-198
457.577	-178
457.646	-152
457.647	-149
457.715	-33
457.727	-28
457.784	-99
457.808	-114
457.853	-342
457.889	-295
457.922	-61
457.969	-32
457.991	-85
458.050	-841
458.060	-946
458.129	333
458.130	338
458.198	189
458.211	160
458.267	-135
458.292	-208
458.336	-255
458.372	-213
458.405	-62
458.453	-256
458.474	-423
458.533	66
458.543	169
458.611	579
458.614	587
458.680	307
458.694	178
458.749	-19
458.775	207
458.818	516
458.855	312
458.887	42
458.936	-187
458.955	-310
459.016	-255
459.024	-150
459.093	826
459.097	835
459.162	-22
459.177	4
459.230	572
459.257	432
459.299	-25
459.338	194
459.368	475
459.418	523
459.437	484
459.499	326
459.505	320
459.574	-257
459.579	-207
459.643	500
459.659	441
459.711	221
459.740	356
459.780	153
459.820	-55
459.849	225
459.900	214
459.917	27
459.981	62
459.986	96
460.054	671
460.061	654
460.123	394
460.141	514
460.191	882
460.222	928
460.260	813
460.302	793
460.328	715
460.382	335
460.397	379
460.462	641
460.465	652
460.534	1433
460.543	1422
460.602	2081
460.623	2500
460.671	3637
460.703	5598
460.739	5954
460.783	5014
460.808	4751
460.864	2026
460.876	1651
460.944	537
460.945	521
461.013	267
461.024	297
461.081	728
461.104	783
461.150	553
461.184	338
461.218	369
461.264	429
461.286	317
461.345	227
461.355	267
461.423	512
461.425	513
461.491	569
461.505	626
461.559	1286
461.585	1502
461.628	2467
461.665	3957
461.696	4305
461.745	5004
461.764	4679
461.825	1711
461.832	1655
461.901	718
461.905	744
461.969	91
461.985	-75
462.037	307
462.065	440
462.105	563
462.145	863
462.173	1266
462.225	2036
462.241	2148
462.305	2832
462.310	2765
462.378	1993
462.385	1716
462.446	906
462.465	906
462.514	589
462.545	378
462.582	140
462.625	50
462.650	396
462.705	1076
462.718	968
462.785	313
462.786	317
462.854	524
462.865	619
462.922	1000
462.945	1092
462.990	944
463.025	637
463.058	778
463.104	963
463.126	784
463.184	681
463.194	795
463.262	963
463.264	994
463.330	1261
463.344	1182
463.398	928
463.424	924
463.466	497
463.504	238
463.533	842
463.583	1593
463.601	1476
463.663	879
463.669	864
463.737	1171
463.743	1173
463.805	2303
463.823	2713
463.873	4013
463.903	4808
463.940	4392
463.982	4201
464.008	3705
464.062	1741
464.076	1803
464.142	1639
464.144	1604
464.211	1104
464.221	1018
464.279	812
464.301	687
464.347	1109
464.381	1660
464.414	1410
464.461	787
464.482	838
464.540	1300
464.550	1318
464.617	1068
464.620	1056
464.685	1307
464.699	1400
464.753	2243
464.779	2686
464.820	2701
464.859	2773
464.888	2401
464.938	1578
464.956	1704
465.018	2154
465.023	2166
465.091	2432
465.098	2412
465.158	1778
465.177	1721
465.226	1907
465.257	1942
465.293	1957
465.336	1974
465.361	2189
465.416	2585
465.428	2764
465.495	3856
465.496	3869
465.563	4804
465.575	5026
465.631	5671
465.654	5974
465.698	4367
465.734	2646
465.765	2659
465.813	2528
465.833	2160
465.893	1579
465.900	1642
465.968	2066
465.972	2093
466.035	926
466.052	620
466.102	601
466.131	581
466.170	1115
466.210	1598
466.237	1556
466.290	1624
466.304	1641
466.369	1608
466.372	1612
466.439	1738
466.449	1735
466.506	1887
466.528	1976
466.573	3602
466.607	4773
466.641	5810
466.687	7349
466.708	7568
466.766	8181
466.775	7581
466.842	2979
466.845	2755
466.909	2641
466.925	2660
466.977	2423
467.004	2293
467.044	2842
467.083	3435
467.111	3594
467.163	3858
467.178	3783
467.242	3464
467.245	3457
467.312	3283
467.321	3259
467.379	2977
467.400	2871
467.446	3483
467.480	3923
467.559	3252
467.638	2971
467.717	2329
467.796	3213
467.875	2853
467.955	2415
468.034	4458
468.113	9232
468.192	10721
468.271	2784
468.350	2174
468.429	2756
468.508	2553
468.588	2477
468.667	2495
468.746	2764
468.825	2134
468.904	2899
468.983	2768
469.062	4141
469.141	4758
469.220	2377
469.299	2207
469.378	2124
469.456	4138
469.535	3570
469.614	3002
469.693	2973
469.772	3679
469.851	5136
469.930	3150
470.009	2627
470.088	2848
470.166	2494
470.245	2899
470.324	3008
470.403	2491
470.482	3018
470.560	2597
470.639	1863
470.718	1528
470.797	2622
470.875	2695
470.954	3152
471.033	3672
471.111	1915
471.190	2215
471.269	2638
471.347	2490
471.426	2600
471.505	2991
471.583	2589
471.662	1835
471.740	2259
471.819	2366
471.898	2127
471.976	1718
472.055	1967
472.133	2327
472.212	4288
472.290	3017
472.369	2125
472.447	2534
472.526	1716
472.604	3086
472.683	2273
472.761	2654
472.839	2039
472.918	2133
472.996	1671
473.075	2005
473.153	2284
473.231	1743
473.310	2696
473.388	2549
473.466	2001
473.545	1729
473.623	3001
473.701	2505
473.780	3024
473.858	1040
473.936	3405
474.014	1940
474.093	2733
474.171	3644
474.249	3710
474.327	1687
474.405	1274
474.484	1980
474.562	1582
474.640	1654
474.718	1580
474.796	1564
474.874	2082
474.952	1580
475.030	1926
475.108	955
475.187	1883
475.265	2375
475.343	3249
475.421	4676
475.499	1594
475.577	2297
475.655	3407
475.733	4338
475.811	6594
475.889	6459
475.966	3483
476.044	2028
476.122	3511
476.200	2848
476.278	2982
476.356	804
476.434	1057
476.512	3010
476.590	3025
476.667	3390
476.745	2103
476.823	1427
476.901	2326
476.979	2013
477.056	2013
477.134	1269
477.212	2292
477.290	1602
477.367	1462
477.445	1894
477.523	1554
477.601	1444
477.678	1278
477.756	2204
477.834	2659
477.911	1939
477.989	2159
478.066	1963
478.144	2366
478.222	2816
478.299	3766
478.377	2941
478.454	1994
478.532	1890
478.609	1295
478.687	2108
478.764	1745
478.842	2303
478.919	1628
478.997	1201
479.074	1608
479.152	2320
479.229	1867
479.307	1324
479.384	1293
479.461	1806
479.539	1454
479.616	1785
479.694	864
479.771	634
479.848	1002
479.926	799
480.003	2514
480.080	2021
480.157	1989
480.235	1080
480.312	585
480.389	1526
480.467	1780
480.544	2584
480.621	1253
480.698	1238
480.775	1408
480.853	2044
480.930	1705
481.007	718
481.084	1210
481.161	1955
481.238	1953
481.315	1056
481.392	1543
481.470	624
481.547	1100
481.624	1289
481.701	1643
481.778	1533
481.855	1701
481.932	2988
482.009	4083
482.086	2125
482.163	1581
482.240	3399
482.317	5018
482.393	3642
482.470	2117
482.547	1929
482.624	824
482.701	1190
482.778	351
482.855	1232
482.932	1086
483.009	1540
483.085	1539
483.162	1481
483.239	1685
483.316	924
483.393	2000
483.469	1647
483.546	1137
483.623	1181
483.699	1201
483.776	1296
483.853	1610
483.930	2746
484.006	6058
484.083	10689
484.160	6879
484.236	12481
484.313	7957
484.389	5611
484.466	5915
484.543	4940
484.619	4829
484.696	5773
484.772	5606
484.849	6263
484.925	5268
485.002	5205
485.078	5906
485.155	5018
485.231	4342
485.308	4633
485.384	5853
485.461	5985
485.537	7698
485.614	7563
485.690	5147
485.766	4837
485.843	5384
485.919	6831
485.995	5817
486.072	4422
486.148	4321
486.224	4229
486.301	5001
486.377	4734
486.453	4573
486.530	5368
486.606	8394
486.682	7693
486.758	7506
486.835	7968
486.911	6540
486.987	10197
487.063	9260
487.139	9831
487.215	7258
487.292	5874
487.368	4141
487.444	4327
487.520	5448
487.596	4052
487.672	4737
487.748	5860
487.824	6315
487.900	4480
487.976	4240
488.052	4565
488.128	5433
488.204	3193
488.280	4405
488.356	5996
488.432	9027
488.508	9962
488.584	4546
488.660	3395
488.736	4739
488.812	3439
488.888	5812
488.964	5880
489.039	10443
489.115	13837
489.191	8729
489.267	3959
489.343	3967
489.418	3322
489.494	3810
489.570	2119
489.646	4629
489.722	3194
489.797	2930
489.873	4675
489.949	8675
490.024	6175
490.100	2775
490.176	3103
490.251	4019
490.327	3480
490.403	3002
490.478	2885
490.554	3340
490.629	3245
490.705	2073
490.781	3453
490.856	2806
490.932	2926
491.007	2633
491.083	1565
491.158	2562
491.234	3764
491.309	6854
491.385	5658
491.460	2338
491.536	3414
491.611	1730
491.686	2557
491.762	4055
491.837	6668
491.913	9697
491.988	13041
492.063	13720
492.139	4450
492.214	3289
492.289	2527
492.365	1935
492.440	2783
492.515	1602
492.590	2189
492.666	2013
492.741	2443
492.816	3519
492.891	1105
492.967	2154
493.042	1870
493.117	1061
493.192	2742
493.267	6437
493.342	13629
493.418	14712
493.493	3028
493.568	1415
493.643	1636
493.718	2117
493.793	2661
493.868	2625
493.943	1615
494.018	2472
494.093	862
494.168	1934
494.243	1016
494.318	1853
494.393	2227
494.468	821
494.543	1378
494.618	2190
494.693	1657
494.768	889
494.842	976
494.917	2004
494.992	1462
495.067	1701
495.142	853
495.217	1185
495.292	1352
495.366	1152
495.441	1904
495.516	3080
495.591	4716
495.665	13638
495.740	25439
495.815	7624
495.890	1912
495.964	18
496.039	3753
496.114	1854
496.188	1865
496.263	1566
496.338	1410
496.412	1618
496.487	3262
496.561	3300
496.636	1829
496.710	1340
496.785	2017
496.860	1872
496.934	1201
497.009	2586
497.083	1901
497.158	1873
497.232	2272
497.307	3349
497.381	2771
497.455	3127
497.530	3608
497.604	2328
497.679	2559
497.753	4453
497.827	3911
497.902	3696
497.976	6768
498.050	22146
498.125	62054
498.199	43499
498.273	5451
498.348	4545
498.422	3511
498.496	3248
498.570	3475
498.645	2570
498.719	863
498.793	3211
498.867	5770
498.941	9351
499.016	30800
499.090	58950
499.164	12747
499.238	2888
499.312	2432
499.386	2788
499.460	2255
499.534	2512
499.609	2727
499.683	4570
499.757	5634
499.831	15370
499.905	43631
499.979	28260
500.053	5128
500.127	4926
500.201	2820
500.275	2562
500.349	2451
500.422	2997
500.496	4344
500.570	10521
500.644	26719
500.718	36711
500.792	5238
500.866	3057
500.940	3676
501.013	2590
501.087	1977
501.161	4415
501.235	5371
501.309	17146
501.382	38238
501.456	24608
501.530	6861
501.603	9633
501.677	2220
501.751	1186
501.825	4166
501.898	6661
501.972	13673
502.046	5888
502.119	1688
502.193	7843
502.266	14680
502.340	4988
502.413	7727
502.487	12321
502.561	4717
502.634	1435
502.708	2368
502.781	1526
502.855	1525
502.928	392
503.002	2067
503.075	874
503.149	893
503.222	902
503.295	1222
503.369	3190
503.442	3441
503.516	12622
503.589	23723
503.662	11229
503.736	4699
503.809	12139
503.882	8258
503.956	15427
504.029	8566
504.102	3132
504.175	2591
504.249	181
504.322	2181
504.395	1620
504.468	1470
504.542	375
504.615	393
504.688	1382
504.761	-675
504.834	2778
504.907	2162
504.980	3062
505.053	1027
505.127	133
505.200	4431
505.273	1447
505.346	193
505.419	-693
505.492	1481
505.565	765
505.638	1307
505.711	261
505.784	68
505.857	446
505.930	1963
506.003	-8
506.076	2441
506.149	801
506.221	-149
506.294	4049
506.367	6822
506.440	18640
506.513	7484
506.586	1218
506.659	753
506.731	1454
506.804	25
506.877	1513
506.950	1390
507.022	1299
507.095	156
507.168	2029
507.241	1868
507.313	111
507.386	-823
507.459	2904
507.531	570
507.604	-413
507.677	241
507.749	-533
507.822	2745
507.894	3125
507.967	4873
508.040	1452
508.112	1625
508.185	2009
508.257	757
508.330	3661
508.402	1005
508.475	1085
508.547	1760
508.620	1851
508.692	2249
508.765	1984
508.837	859
508.909	2450
508.982	874
509.054	1341
509.127	1243
509.199	1283
509.271	499
509.344	1362
509.416	406
509.488	1669
509.560	1626
509.633	448
509.705	1454
509.777	1443
509.849	2903
509.922	1047
509.994	722
510.066	1795
510.138	733
510.210	5769
510.283	3110
510.355	3529
510.427	3102
510.499	2312
510.571	1634
510.643	1137
510.715	4125
510.787	1486
510.859	3072
510.931	1992
511.003	2893
511.076	3379
511.148	1446
511.219	1517
511.291	3337
511.363	4100
511.435	1183
511.507	482
511.579	2455
511.651	2713
511.723	2518
511.795	862
511.867	1703
511.939	1823
512.010	3547
512.082	3473
512.154	645
512.226	1526
512.298	4471
512.369	4905
512.441	4113
512.513	3722
512.585	719
512.656	3646
512.728	1740
512.800	1521
512.871	3302
512.943	2141
513.015	294
513.086	2400
513.158	1827
513.230	1391
513.301	2174
513.373	3596
513.444	1128
513.516	2112
513.588	981
513.659	1549
513.731	2786
513.802	1392
513.874	5074
513.945	5283
514.016	1641
514.088	2070
514.159	348
514.231	3664
514.302	2434
514.374	2847
514.445	1436
514.516	6690
514.588	2099
514.659	2235
514.730	3478
514.802	3648
514.873	-54
514.944	4774
515.016	2591
515.087	2345
515.158	2931
515.229	4292
515.301	658
515.372	2398
515.443	1707
515.514	1610
515.585	651
515.656	2975
515.728	2445
515.799	1094
515.870	1720
515.941	1930
516.012	614
516.083	3409
516.154	1516
516.225	3772
516.296	2944
516.367	2084
516.438	2145
516.509	1815
516.580	4983
516.651	16072
516.722	37377
516.793	14386
516.864	3787
516.935	5218
517.006	4609
517.077	6741
517.148	15817
517.219	43763
517.289	51243
517.360	21322
517.431	6005
517.502	1444
517.573	2496
517.643	2126
517.714	2528
517.785	3171
517.856	2097
517.926	4013
517.997	2491
518.068	2722
518.138	5375
518.209	7884
518.280	34722
518.350	89440
518.421	23235
518.492	3924
518.562	2161
518.633	2755
518.703	-205
518.774	3181
518.845	3062
518.915	2976
518.986	1826
519.056	3638
519.127	5790
519.197	10464
519.268	22018
519.338	10438
519.408	2703
519.479	4062
519.549	818
519.620	2790
519.690	1598
519.760	1974
519.831	720
519.901	1558
519.971	2311
520.042	1613
520.112	1009
520.182	2597
520.253	2641
520.323	1613
520.393	2297
520.463	4730
520.534	253
520.604	5191
520.674	2700
520.744	2879
520.814	3512
520.885	4719
520.955	10455
521.025	25353
521.095	5242
521.165	2830
521.235	1174
521.305	621
521.375	1964
521.445	1637
521.515	895
521.585	2506
521.655	-309
521.725	1941
521.795	2236
521.865	-527
521.935	3598
522.005	588
522.075	860
522.145	2203
522.215	818
522.285	2531
522.355	3319
522.424	6116
522.494	2688
522.564	2580
522.634	6103
522.704	13484
522.774	3547
522.843	2612
522.913	1384
522.983	1286
523.053	824
523.122	1969
523.192	1868
523.262	7417
523.331	3892
523.401	1657
523.471	1651
523.540	1059
523.610	609
523.680	676
523.749	860
523.819	2122
523.888	-192
523.958	343
524.027	1109
524.097	1184
524.166	939
524.236	-591
524.305	1997
524.375	-312
524.444	-20
524.514	1726
524.583	244
524.653	366
524.722	1750
524.791	-16
524.861	2363
524.930	316
524.999	40
525.069	1734
525.138	1132
525.207	-132
525.277	1587
525.346	794
525.415	950
525.484	1280
525.554	539
525.623	719
525.692	692
525.761	879
525.830	723
525.900	-436
525.969	1281
526.038	1140
526.107	-300
526.176	2911
526.245	582
526.314	2639
526.383	2909
526.452	495
526.522	5742
526.591	5362
526.660	3996
526.729	963
526.797	4639
526.867	10347
526.935	39900
527.004	21998
527.073	5951
527.142	428
527.211	1040
527.280	1027
527.349	544
527.418	-687
527.487	1354
527.555	-156
527.624	240
527.693	-1093
527.762	786
527.831	-864
527.899	636
527.968	220
528.037	-971
528.106	1002
528.174	2441
528.243	1374
528.312	2551
528.380	1974
528.449	131
528.518	2658
528.586	-856
528.655	807
528.723	524
528.792	-643
528.861	-458
528.929	-1254
528.998	1477
529.066	101
529.135	-373
529.203	76
529.272	-1238
529.340	1219
529.409	1669
529.477	-1155
529.545	-757
529.614	1311
529.682	-327
529.751	488
529.819	2405
529.887	-132
529.956	-297
530.024	1824
530.092	-1054
530.161	1667
530.229	814
530.297	-432
530.365	391
530.434	431
530.502	-1378
530.570	274
530.638	-1283
530.707	546
530.775	2069
530.843	-261
530.911	-119
530.979	756
531.047	30
531.115	-91
531.183	710
531.252	826
531.320	466
531.388	238
531.456	429
531.524	-1824
531.592	996
531.660	2305
531.728	-828
531.796	279
531.864	626
531.932	650
532.000	-770
532.067	62
532.135	382
532.203	1695
532.271	321
532.339	2709
532.407	5491
532.475	2970
532.542	1397
532.610	2273
532.678	1766
532.746	16995
532.814	26617
532.881	3969
532.949	527
533.017	851
533.084	118
533.152	-291
533.220	-62
533.287	-450
533.355	-13
533.423	435
533.490	-669
533.558	673
533.625	230
533.693	12
533.761	789
533.828	1096
533.896	-396
533.963	3064
534.031	2566
534.098	4567
534.166	1118
534.233	-3
534.300	1542
534.368	1396
534.435	298
534.503	1031
534.570	381
534.637	-39
534.705	83
534.772	457
534.840	-324
534.907	1554
534.974	837
535.041	237
535.109	595
535.176	-68
535.243	106
535.310	-793
535.378	-778
535.445	828
535.512	256
535.579	874
535.646	-452
535.714	1012
535.781	863
535.848	1755
535.915	2469
535.982	426
536.049	559
536.116	2024
536.183	-290
536.250	93
536.317	-145
536.384	1118
536.451	1802
536.518	1340
536.585	-637
536.652	2852
536.719	3127
536.786	-267
536.853	742
536.920	3003
536.987	2467
537.053	3411
537.120	17036
537.187	10417
537.254	231
537.321	-602
537.388	1863
537.454	-814
537.521	-308
537.588	-412
537.654	1806
537.721	1071
537.788	1221
537.855	-289
537.921	669
537.988	-398
538.055	735
538.121	67
538.188	853
538.254	1219
538.321	2834
538.388	1239
538.454	314
538.521	824
538.587	115
538.654	-295
538.720	84
538.787	579
538.853	932
538.920	1202
538.986	1022
539.053	262
539.119	-162
539.185	310
539.252	1019
539.318	1334
539.385	1996
539.451	-100
539.517	1404
539.583	3325
539.650	5185
539.716	9729
539.782	1495
539.849	491
539.915	953
539.981	59
540.047	154
540.114	792
540.180	1222
540.246	289
540.312	1137
540.378	2695
540.444	4371
540.510	6005
540.576	11906
540.643	1181
540.709	-309
540.775	391
540.841	442
540.907	1800
540.973	3502
541.039	1904
541.105	1863
541.171	690
541.237	646
541.303	545
541.369	3182
541.435	1731
541.500	3127
541.566	-210
541.632	345
541.698	306
541.764	811
541.830	464
541.896	-172
541.961	1055
542.027	31
542.093	1129
542.159	998
542.224	-506
542.290	1957
542.356	2704
542.421	2789
542.487	2579
542.553	179
542.618	913
542.684	-232
542.750	785
542.815	1776
542.881	2602
542.947	11976
543.012	5467
543.078	90
543.143	594
543.209	821
543.274	298
543.340	1042
543.405	4133
543.471	3833
543.536	1352
543.602	697
543.667	-1318
543.732	1162
543.798	-827
543.863	543
543.928	-47
543.994	583
544.059	603
544.124	765
544.190	447
544.255	-189
544.320	479
544.386	819
544.451	1766
544.516	862
544.581	941
544.646	7308
544.712	9729
544.777	1756
544.842	1819
544.907	1027
544.972	1117
545.037	1406
545.102	1470
545.168	848
545.233	2261
545.298	1937
545.363	840
545.428	1300
545.493	5893
545.558	7048
545.623	3053
545.688	836
545.753	1995
545.818	1786
545.883	1842
545.947	707
546.012	991
546.077	726
546.142	1986
546.207	347
546.272	1802
546.337	968
546.401	1902
546.466	1251
546.531	434
546.596	2215
546.661	1220
546.725	2275
546.790	1417
546.855	1097
546.919	793
546.984	1178
547.049	986
547.113	181
547.178	96
547.243	2529
547.307	2113
547.372	1764
547.436	628
547.501	852
547.565	552
547.630	1716
547.695	1001
547.759	1194
547.823	754
547.888	1941
547.952	765
548.017	1429
548.081	898
548.146	1807
548.210	1529
548.274	911
548.339	517
548.403	989
548.468	52
548.532	272
548.596	789
548.660	-559
548.725	1343
548.789	1006
548.853	2318
548.917	293
548.982	1447
549.046	1220
549.110	664
549.174	772
549.238	847
549.303	404
549.367	1852
549.431	707
549.495	1092
549.559	802
549.623	1291
549.687	865
549.751	2043
549.815	454
549.879	1568
549.943	-483
550.007	1229
550.071	1013
550.135	1922
550.199	825
550.263	1684
550.327	2044
550.391	1636
550.455	454
550.519	1066
550.582	2217
550.646	1796
550.710	452
550.774	621
550.838	1592
550.901	1411
550.965	1406
551.029	387
551.093	2493
551.156	3102
551.220	6095
551.284	3046
551.347	2730
551.411	8080
551.475	5445
551.538	1618
551.602	1072
551.666	1168
551.729	56
551.793	1500
551.856	1258
551.920	411
551.983	1069
552.047	765
552.110	916
552.174	65
552.237	916
552.301	662
552.364	497
552.428	46
552.491	566
552.554	1345
552.618	1250
552.681	1624
552.745	352
552.808	3192
552.871	2275
552.934	1665
552.998	560
553.061	1206
553.124	874
553.187	1153
553.251	1452
553.314	1402
553.377	1461
553.440	4666
553.503	13757
553.567	15203
553.630	1315
553.693	411
553.756	32
553.819	697
553.882	638
553.945	375
554.008	478
554.071	-141
554.134	1371
554.197	-207
554.260	341
554.323	1604
554.386	1164
554.449	748
554.512	1919
554.575	676
554.638	714
554.701	361
554.764	1348
554.827	1433
554.889	53
554.952	691
555.015	117
555.078	495
555.141	1205
555.203	-335
555.266	741
555.329	520
555.391	213
555.454	758
555.517	1138
555.580	-62
555.642	968
555.705	-310
555.768	77
555.830	-290
555.893	791
555.955	497
556.018	1078
556.080	11
556.143	638
556.206	378
556.268	608
556.330	570
556.393	878
556.455	163
556.518	1508
556.580	1073
556.643	-84
556.705	276
556.767	-498
556.830	364
556.892	1520
556.955	1472
557.017	1218
557.079	947
557.142	315
557.204	981
557.266	2821
557.328	1797
557.391	-216
557.453	101
557.515	341
557.577	979
557.639	1379
557.701	901
557.764	328
557.826	78
557.888	772
557.950	84
558.012	631
558.074	439
558.136	381
558.198	2153
558.260	578
558.322	-81
558.384	558
558.446	1528
558.508	1305
558.570	1640
558.632	3448
558.694	4329
558.756	2219
558.818	4099
558.880	8372
558.942	1690
559.003	1704
559.065	-339
559.127	597
559.189	822
559.251	883
559.312	173
559.374	1881
559.436	4676
559.498	1863
559.559	1159
559.621	141
559.683	841
559.744	2285
559.806	4421
559.868	3960
559.929	743
559.991	1208
560.052	1833
560.114	2437
560.176	1558
560.237	1491
560.299	1736
560.360	1093
560.422	592
560.483	1765
560.545	1043
560.606	1612
560.667	733
560.729	1211
560.790	634
560.852	1338
560.913	835
560.974	865
561.036	243
561.097	788
561.158	1589
561.220	2381
561.281	993
561.342	765
561.403	2006
561.465	1960
561.526	5981
561.587	6188
561.648	738
561.709	1139
561.771	576
561.832	1331
561.893	343
561.954	740
562.015	1033
562.076	962
562.137	1075
562.198	1283
562.259	1113
562.320	1047
562.381	1462
562.442	1645
562.503	2011
562.564	1324
562.625	1266
562.686	700
562.747	1346
562.808	1607
562.869	1661
562.930	2344
562.991	1269
563.051	1940
563.112	749
563.173	963
563.234	751
563.294	1796
563.355	619
563.416	1081
563.477	1074
563.537	600
563.598	1376
563.659	2440
563.720	872
563.780	1628
563.841	1471
563.901	1318
563.962	1564
564.023	1165
564.083	875
564.144	1715
564.204	1528
564.265	954
564.325	1777
564.386	4105
564.446	2170
564.507	1564
564.567	888
564.628	977
564.688	1243
564.749	1026
564.809	1253
564.869	1289
564.930	1208
564.990	1948
565.050	875
565.111	1064
565.171	1356
565.231	1650
565.292	2017
565.352	-56
565.412	1270
565.472	1001
565.532	800
565.593	1675
565.653	947
565.713	991
565.773	1483
565.833	1727
565.893	1716
565.953	1671
566.013	832
566.074	1778
566.134	2459
566.194	3480
566.254	3107
566.314	2607
566.374	1293
566.434	722
566.494	2395
566.554	623
566.614	1130
566.673	838
566.733	2135
566.793	2308
566.853	835
566.913	1965
566.973	1589
567.033	1973
567.092	1425
567.152	1566
567.212	1746
567.272	1616
567.331	2580
567.391	1686
567.451	1949
567.511	2992
567.570	2556
567.630	1872
567.690	1640
567.749	1213
567.809	1061
567.868	2318
567.928	2685
567.988	1859
568.047	2895
568.107	1704
568.166	3352
568.226	5114
568.285	5676
568.345	4900
568.404	4769
568.464	3433
568.523	2368
568.582	3615
568.642	3357
568.701	4240
568.761	6356
568.820	9866
568.879	9643
568.939	6867
568.998	5401
569.057	4803
569.116	3630
569.176	2220
569.235	1793
569.294	1654
569.353	868
569.413	1151
569.472	1564
569.531	2035
569.590	1399
569.649	1368
569.708	856
569.767	1713
569.827	2191
569.886	1162
569.945	1509
570.004	756
570.063	1358
570.122	1477
570.181	1144
570.240	2151
570.299	1474
570.358	1812
570.417	1302
570.475	755
570.534	1247
570.593	756
570.652	1839
570.711	824
570.770	771
570.829	1353
570.887	1783
570.946	1598
571.005	1544
571.064	620
571.122	1920
571.181	1246
571.240	677
571.299	1533
571.357	1011
571.416	1686
571.475	2017
571.533	1655
571.592	864
571.650	794
571.709	764
571.768	413
571.826	1516
571.885	1808
571.943	1239
572.002	797
572.060	910
572.119	614
572.177	292
572.236	1771
572.294	888
572.352	1727
572.411	1577
572.469	838
572.528	698
572.586	1009
572.644	756
572.703	1607
572.761	499
572.819	906
572.877	1049
572.936	1489
572.994	532
573.052	353
573.110	47
573.169	896
573.227	217
573.285	559
573.343	1661
573.401	681
573.459	1626
573.517	773
573.576	449
573.634	1003
573.692	989
573.750	744
573.808	672
573.866	696
573.924	1517
573.982	1931
574.040	1409
574.098	1210
574.155	1421
574.213	328
574.271	1529
574.329	228
574.387	231
574.445	1426
574.503	1591
574.560	-136
574.618	172
574.676	40
574.734	708
574.792	906
574.849	41
574.907	163
574.965	307
575.022	-227
575.080	816
575.138	1061
575.195	1682
575.253	521
575.311	1664
575.368	1031
575.426	-369
575.483	969
575.541	188
575.598	231
575.656	412
575.713	1073
575.771	854
575.828	13
575.886	665
575.943	1589
576.001	879
576.058	252
576.115	1202
576.173	1231
576.230	1400
576.287	1548
576.345	1346
576.402	798
576.459	1564
576.517	981
576.574	1856
576.631	1119
576.688	947
576.746	515
576.803	1742
576.860	828
576.917	740
576.974	1155
577.031	1342
577.089	1459
577.146	1059
577.203	479
577.260	2077
577.317	1043
577.374	1754
577.431	600
577.488	775
577.545	918
577.602	1534
577.659	1598
577.716	1529
577.773	1201
577.830	1091
577.886	1843
577.943	1357
578.000	1285
578.057	1454
578.114	1799
578.171	3198
578.227	3893
578.284	1727
578.341	1369
578.398	2149
578.454	2243
578.511	1831
578.568	2296
578.625	1216
578.681	1549
578.738	1019
578.794	1616
578.851	1963
578.908	903
578.964	2034
579.021	297
579.077	1084
579.134	888
579.190	1513
579.247	294
579.303	338
579.360	478
579.416	336
579.473	255
579.529	743
579.586	571
579.642	1687
579.698	1670
579.755	2333
579.811	1845
579.867	1298
579.924	1072
579.980	1146
580.036	1930
580.093	3655
580.149	5612
580.205	5491
580.261	4180
580.317	2808
580.374	2770
580.430	2901
580.486	1588
580.542	1307
580.598	1825
580.619	1493
580.654	915
580.692	1142
580.710	1253
580.765	950
580.767	937
580.823	1453
580.838	1582
580.879	1913
580.911	1268
580.935	784
580.984	1085
580.991	1129
581.047	1739
581.057	1766
581.103	1870
581.130	1786
581.159	1693
581.203	2229
581.215	2376
581.270	2493
581.276	2447
581.326	1948
581.349	1801
581.382	1581
581.422	1829
581.438	1942
581.494	2096
581.494	2095
581.550	1827
581.567	1914
581.606	2107
581.640	1564
581.661	1231
581.713	2198
581.717	2275
581.773	1927
581.786	1777
581.829	1187
581.859	1646
581.885	2071
581.932	1679
581.940	1614
581.996	1272
582.004	1415
582.052	2130
582.077	1540
582.107	816
582.150	1156
582.163	1257
582.219	1723
582.223	1687
582.274	1447
582.296	1507
582.330	1457
582.368	1653
582.386	1810
582.441	1955
582.441	1953
582.497	1539
582.514	1586
582.552	1787
582.587	2222
582.608	2487
582.659	2848
582.663	2862
582.719	2184
582.732	2280
582.774	2598
582.805	2260
582.830	2059
582.877	1698
582.885	1632
582.941	2339
582.950	2498
582.996	3062
583.023	2681
583.052	2588
583.095	3185
583.107	3320
583.162	4756
583.168	4767
583.218	4545
583.240	4321
583.273	3963
583.313	3888
583.328	3865
583.384	3436
583.385	3429
583.439	3053
583.458	2717
583.494	2333
583.531	2198
583.549	2169
583.603	2336
583.605	2329
583.660	2070
583.676	2174
583.715	2607
583.748	2995
583.770	3292
583.820	2804
583.825	2738
583.881	2953
583.893	2911
583.936	2993
583.965	2958
583.991	2688
584.038	2955
584.046	3098
584.101	2690
584.110	2750
584.156	2745
584.183	2432
584.211	2138
584.255	2561
584.266	2651
584.321	2913
584.328	2906
584.376	3220
584.400	3270
584.431	3207
584.472	3209
584.486	3107
584.541	3047
584.545	2989
584.596	2428
584.617	2433
584.651	2887
584.689	3668
584.706	3698
584.761	3273
584.762	3262
584.816	2896
584.834	3204
584.871	3621
584.906	3500
584.926	3659
584.978	3343
584.980	3316
585.035	3840
585.051	3804
585.090	4082
585.123	4036
585.145	3850
585.195	3874
585.200	3905
585.254	4164
585.267	4405
585.309	5130
585.340	5022
585.364	4951
585.412	4819
585.419	4757
585.473	4836
585.484	4709
585.528	4833
585.556	5163
585.583	5304
585.628	5250
585.637	5345
585.692	6793
585.700	6850
585.747	6818
585.772	6565
585.801	5812
585.845	4935
585.856	4814
585.910	5208
585.917	5120
585.965	5051
585.989	5223
586.019	5344
586.061	4951
586.074	4853
586.128	5100
586.133	5132
586.183	5684
586.205	5635
586.237	5603
586.277	5729
586.292	5764
586.346	6316
586.349	6288
586.401	5874
586.421	6096
586.455	6570
586.493	6938
586.509	7497
586.564	9150
586.565	9189
586.618	12213
586.637	12438
586.672	10236
586.709	7997
586.727	7207
586.781	6666
586.781	6684
586.835	7246
586.853	7521
586.889	7474
586.925	6942
586.944	6969
586.996	7754
586.998	7783
587.052	7717
587.068	7680
587.106	7764
587.140	8140
587.161	8225
587.212	7513
587.215	7535
587.269	8418
587.284	8567
587.323	8454
587.356	8381
587.377	8587
587.427	9176
587.431	9246
587.485	9583
587.499	9743
587.539	10100
587.571	10077
587.593	10156
587.643	11083
587.648	11205
587.702	11350
587.715	11586
587.755	12222
587.786	12259
587.810	12466
587.858	12961
587.864	13066
587.917	14058
587.930	14290
587.971	15870
588.001	16810
588.025	17190
588.073	18320
588.079	18601
588.133	20453
588.145	20929
588.187	22665
588.217	23702
588.241	25295
588.288	28704
588.295	29251
588.348	33843
588.360	34657
588.402	39104
588.431	42723
588.456	45953
588.503	51721
588.510	52882
588.564	62508
588.575	64675
588.617	76159
588.646	85068
588.671	96767
588.718	121068
588.725	128196
588.778	188933
588.789	203096
588.832	316755
588.861	399039
588.886	502035
588.932	692992
588.939	701300
588.993	712683
589.004	708176
589.047	544666
589.075	429143
589.100	340190
589.147	189188
589.154	182150
589.207	132801
589.218	123256
589.261	114810
589.290	110143
589.314	116011
589.361	130568
589.368	137983
589.421	204000
589.433	219379
589.475	357563
589.504	459556
589.528	540868
589.576	672006
589.582	656134
589.635	464576
589.647	421921
589.689	254073
589.718	143779
589.742	118083
589.790	70501
589.795	68835
589.849	53421
589.861	49963
589.902	44419
589.932	39775
589.955	36287
590.004	29102
590.009	28843
590.062	25828
590.075	24992
590.115	23344
590.146	21975
590.168	21442
590.218	20192
590.222	20176
590.275	19048
590.289	18794
590.328	18613
590.360	18137
590.381	17739
590.431	16848
590.435	16856
590.488	16097
590.503	15845
590.541	15773
590.574	15551
590.594	15342
590.645	14790
590.647	14859
590.700	15263
590.716	15329
590.753	14192
590.787	13206
590.806	13366
590.859	13586
590.859	13633
590.912	13605
590.930	13578
590.965	13528
591.001	13391
591.018	13338
591.071	13006
591.072	12957
591.124	13689
591.143	13802
591.177	13361
591.214	12952
591.230	13370
591.283	14519
591.285	14510
591.336	13607
591.356	13207
591.389	13640
591.427	13935
591.442	13655
591.495	12483
591.498	12353
591.547	13047
591.569	13273
591.600	13105
591.640	12739
591.653	12812
591.706	12986
591.711	12959
591.759	13023
591.782	12949
591.811	13400
591.853	13949
591.864	13963
591.917	13679
591.924	13604
591.969	13330
591.995	13076
592.022	12765
592.066	12106
592.075	12338
592.127	13511
592.137	13688
592.180	14142
592.208	14306
592.233	13733
592.279	12552
592.285	12641
592.338	13003
592.350	13032
592.390	12359
592.421	11801
592.443	11903
592.491	11969
592.495	12031
592.548	12316
592.562	12355
592.600	12579
592.633	12689
592.653	12486
592.704	11782
592.705	11850
592.775	11843
592.846	11754
592.916	11704
592.987	12994
593.058	12272
593.128	12093
593.199	12184
593.270	11994
593.341	11882
593.411	11586
593.482	10807
593.553	12105
593.623	10404
593.694	11591
593.764	11196
593.835	10696
593.906	11370
593.976	10638
594.047	10731
594.117	12841
594.188	11224
594.258	10363
594.329	10360
594.399	10354
594.470	10849
594.540	10806
594.611	10035
594.681	10324
594.751	9289
594.822	10749
594.892	9810
594.963	10929
595.033	10918
595.103	9702
595.174	11569
595.244	14465
595.314	16166
595.384	10513
595.455	9818
595.525	10613
595.595	10130
595.665	10718
595.736	10193
595.806	10711
595.876	10516
595.946	9747
596.016	9631
596.087	10891
596.157	9382
596.227	10080
596.297	9880
596.367	10383
596.437	10539
596.507	14205
596.577	15078
596.647	11123
596.717	10047
596.787	10666
596.857	10391
596.927	10191
596.997	9596
597.067	10308
597.137	10826
597.207	11009
597.277	9611
597.347	9940
597.417	10997
597.487	11223
597.557	9857
597.626	10626
597.696	9568
597.766	11980
597.836	14196
597.906	10358
597.975	10012
598.045	10428
598.115	9154
598.185	8701
598.254	10573
598.324	10891
598.394	8861
598.464	9631
598.533	9393
598.603	9344
598.672	10152
598.742	9472
598.812	9458
598.881	9415
598.951	8575
599.020	8977
599.090	8344
599.159	9170
599.229	8482
599.299	8148
599.368	8539
599.437	8733
599.507	8945
599.576	8975
599.646	10377
599.715	9990
599.785	8366
599.854	8650
599.924	9759
599.993	9277
600.062	8619
600.132	9400
600.201	8366
600.270	9258
600.340	8623
600.409	8354
600.478	8754
600.547	8994
600.617	9246
600.686	8596
600.755	8300
600.824	9567
600.894	8954
600.963	8400
601.032	8568
601.101	7979
601.170	8181
601.239	8732
601.308	9350
601.378	9202
601.447	8296
601.516	8122
601.585	8744
601.654	9990
601.723	7982
601.792	8324
601.861	8612
601.930	10083
601.999	9181
602.068	8336
602.137	10071
602.206	9659
602.275	8509
602.343	9122
602.412	8731
602.481	8477
602.550	7030
602.619	8722
602.688	8444
602.756	7801
602.825	7958
602.894	7518
602.963	7001
603.032	7313
603.100	7411
603.169	7647
603.238	7275
603.307	8561
603.375	7591
603.444	7380
603.513	7002
603.581	7811
603.650	7317
603.719	7609
603.787	7320
603.856	7910
603.924	6829
603.993	7257
604.061	7281
604.130	7858
604.198	7078
604.267	6896
604.335	6795
604.404	6821
604.472	6411
604.541	7408
604.609	6660
604.678	7417
604.746	8175
604.815	6621
604.883	7073
604.951	7838
605.020	6650
605.088	6681
605.156	7000
605.225	7256
605.293	6694
605.361	7594
605.429	6401
605.498	7270
605.566	6642
605.634	7942
605.702	7060
605.771	7514
605.839	7894
605.907	7048
605.975	7284
606.043	7328
606.111	7616
606.180	7775
606.248	8132
606.316	8966
606.384	7253
606.452	10486
606.520	9798
606.588	7175
606.656	5859
606.724	6063
606.792	7112
606.860	5915
606.928	5538
606.996	6211
607.064	5971
607.132	5816
607.200	5807
607.267	6455
607.335	5683
607.403	6715
607.471	6337
607.539	6329
607.607	6153
607.674	5966
607.742	6521
607.810	6063
607.878	6249
607.946	6263
608.013	5705
608.081	6651
608.149	6156
608.216	5862
608.284	6762
608.352	6991
608.419	5106
608.487	9782
608.555	6565
608.622	6555
608.690	6615
608.757	6347
608.825	6018
608.893	6377
608.960	6339
609.028	7883
609.095	8795
609.163	6614
609.230	5445
609.298	7021
609.365	5306
609.432	7275
609.500	7355
609.567	7631
609.635	8154
609.702	7326
609.769	7112
609.837	7332
609.904	7437
609.971	7359
610.039	9709
610.106	12442
610.173	18460
610.241	41803
610.308	73334
610.375	52253
610.442	12995
610.509	8444
610.577	7189
610.644	7868
610.711	7139
610.778	7113
610.845	6439
610.912	7279
610.980	6617
611.047	10340
611.114	8048
611.181	6568
611.248	6068
611.315	8353
611.382	6002
611.449	6222
611.516	6814
611.583	6554
611.650	5854
611.717	6739
611.784	5805
611.851	6314
611.918	6793
611.984	5839
612.051	8409
612.118	12290
612.185	22796
612.252	16103
612.319	6486
612.386	6883
612.452	6235
612.519	7410
612.586	9926
612.653	8118
612.719	6757
612.786	6098
612.853	5537
612.919	6217
612.986	6902
613.053	5255
613.120	5243
613.186	5272
613.253	8006
613.319	6075
613.386	6203
613.453	4709
613.519	7916
613.586	7850
613.652	11654
613.719	9071
613.785	8425
613.852	6350
613.918	5323
613.985	7325
614.051	8880
614.118	16606
614.184	15232
614.250	5887
614.317	5416
614.383	5141
614.449	5453
614.516	5427
614.582	5813
614.648	4871
614.715	5064
614.781	5531
614.847	5504
614.914	5722
614.980	6172
615.046	7130
615.112	5882
615.179	4656
615.245	5396
615.311	6275
615.377	8207
615.443	8229
615.509	7069
615.575	6832
615.642	5842
615.708	7026
615.774	6149
615.840	8094
615.906	8173
615.972	9880
616.038	13771
616.104	21027
616.170	31838
616.236	25765
616.302	12176
616.368	8171
616.434	6648
616.500	7707
616.565	7901
616.631	8195
616.697	6893
616.763	7590
616.829	7742
616.895	11106
616.961	9327
617.026	8128
617.092	6674
617.158	8620
617.224	6826
617.289	7097
617.355	6788
617.421	6198
617.487	7650
617.552	7395
617.618	6331
617.684	5839
617.749	8450
617.815	7360
617.880	5962
617.946	7620
618.012	6987
618.077	7340
618.143	7103
618.208	7880
618.274	7156
618.339	8666
618.405	6382
618.470	8983
618.536	7361
618.601	9028
618.667	8321
618.732	8394
618.798	7835
618.863	7799
618.928	6628
618.994	8718
619.059	9388
619.124	11848
619.190	8582
619.255	7928
619.320	7150
619.386	7973
619.451	6224
619.516	8139
619.581	7756
619.647	8030
619.712	7543
619.777	8444
619.842	8151
619.907	7724
619.972	7580
620.038	8565
620.103	7707
620.168	6978
620.233	7558
620.298	6955
620.363	7363
620.428	6610
620.493	7640
620.558	7145
620.623	6619
620.688	7445
620.753	7345
620.818	7682
620.883	8123
620.948	6884
621.013	7164
621.078	6817
621.143	5563
621.207	10303
621.272	7348
621.337	8272
621.402	9081
621.467	11221
621.532	10708
621.596	9173
621.661	9622
621.726	8355
621.791	8904
621.855	9617
621.920	10340
621.985	8407
622.049	10346
622.114	9402
622.179	9165
622.243	9914
622.308	9935
622.373	11310
622.437	9907
622.502	10105
622.566	9024
622.631	9014
622.695	10390
622.760	9986
622.824	9697
622.889	10428
622.953	10007
623.018	14059
623.082	12694
623.147	9786
623.211	8168
623.276	9834
623.340	7864
623.404	9998
623.469	9476
623.533	9027
623.597	8235
623.662	9059
623.726	9088
623.790	8448
623.854	8402
623.919	9045
623.983	8137
624.047	9478
624.111	7754
624.176	9063
624.240	9206
624.304	10603
624.368	8618
624.432	9335
624.496	9789
624.560	9560
624.625	8486
624.689	9121
624.753	8563
624.817	8771
624.881	7741
624.945	8198
625.009	8574
625.073	8796
625.137	8068
625.201	10714
625.265	9960
625.329	9748
625.393	9236
625.456	8879
625.520	8026
625.584	8727
625.648	9939
625.712	15304
625.776	28930
625.839	33802
625.903	13857
625.967	8831
626.031	15062
626.095	19895
626.158	9082
626.222	7660
626.286	7501
626.349	6848
626.413	6284
626.477	9296
626.540	7637
626.604	7447
626.668	8813
626.731	7269
626.795	7067
626.858	7652
626.922	6469
626.986	8318
627.049	5561
627.113	6949
627.176	7170
627.240	7176
627.303	6960
627.366	7548
627.430	6995
627.493	7113
627.557	6628
627.620	7621
627.684	7089
627.747	7057
627.810	5111
627.874	6966
627.937	6148
628.000	8540
628.064	6750
628.127	5203
628.190	6743
628.253	5950
628.317	5727
628.380	6164
628.443	4976
628.506	6923
628.569	5983
628.632	5390
628.696	5860
628.759	6153
628.822	5326
628.885	5606
628.948	5429
629.011	4937
629.074	6545
629.137	4922
629.200	5245
629.263	7554
629.326	4806
629.389	5324
629.452	5489
629.515	6224
629.578	5094
629.641	7053
629.704	5647
629.767	5862
629.830	5647
629.892	5575
629.955	4604
630.018	7349
630.081	5012
630.144	7815
630.207	5779
630.269	7617
630.332	5663
630.395	5702
630.458	5496
630.520	4342
630.583	5969
630.646	5106
630.708	5009
630.771	4342
630.834	4958
630.896	4255
630.959	4993
631.021	4645
631.084	4622
631.146	5743
631.209	5357
631.272	4389
631.334	4679
631.397	4847
631.459	3860
631.522	5130
631.584	4913
631.646	5574
631.709	4667
631.771	5892
631.834	4876
631.896	5040
631.958	4176
632.021	5179
632.083	3266
632.145	4558
632.208	4135
632.270	5623
632.332	4122
632.395	3826
632.457	4550
632.519	4119
632.581	4371
632.643	3632
632.706	4705
632.768	4283
632.830	4172
632.892	4428
632.954	3753
633.016	5771
633.078	3698
633.141	3812
633.203	3483
633.265	4720
633.327	3531
633.389	3462
633.451	4749
633.513	5193
633.575	5219
633.637	3960
633.698	3591
633.760	4766
633.822	3968
633.884	4806
633.946	3140
634.008	3783
634.070	3947
634.132	4527
634.193	3493
634.255	4396
634.317	3653
634.379	4658
634.441	3785
634.502	3836
634.564	4071
634.626	3785
634.687	4064
634.749	4926
634.811	3134
634.873	3217
634.934	2614
634.996	4546
635.057	3169
635.119	3246
635.181	3903
635.242	5074
635.304	1837
635.365	5438
635.427	2602
635.488	3910
635.550	2687
635.611	3968
635.673	1349
635.734	5142
635.796	2958
635.857	4216
635.918	2896
635.980	4475
636.041	2111
636.102	3596
636.164	3528
636.225	4738
636.286	1735
636.348	4655
636.409	3045
636.470	2647
636.531	3154
636.593	3672
636.654	3450
636.715	3042
636.776	2391
636.838	2300
636.899	4020
636.960	3503
637.021	2354
637.082	3256
637.143	2775
637.204	2500
637.265	1897
637.326	3676
637.387	2790
637.448	1163
637.509	2700
637.570	2788
637.631	3156
637.692	2046
637.753	1838
637.814	3847
637.875	1894
637.936	3508
637.997	1788
638.058	2433
638.119	2638
638.179	2729
638.240	1403
638.301	2613
638.362	2047
638.423	3547
638.483	3169
638.544	1877
638.605	2646
638.666	1684
638.726	2917
638.787	3333
638.848	1547
638.908	2679
638.969	3188
639.030	3017
639.090	949
639.151	2174
639.211	2997
639.272	3699
639.332	5564
639.393	3982
639.453	1505
639.514	2482
639.574	2873
639.635	2080
639.695	2869
639.756	1845
639.816	2155
639.877	2925
639.937	4358
639.997	5650
640.058	1787
640.118	2150
640.178	3064
640.239	1869
640.299	1678
640.359	1373
640.420	2683
640.480	2457
640.540	1819
640.600	1825
640.661	2137
640.721	1184
640.781	3527
640.841	1879
640.901	2840
640.961	2946
641.021	1928
641.082	1457
641.142	4442
641.202	4013
641.262	-112
641.322	3090
641.382	733
641.442	2995
641.502	1961
641.562	2367
641.622	1365
641.682	2348
641.742	2015
641.802	2110
641.861	2529
641.921	1869
641.981	2225
642.041	2856
642.101	3263
642.161	1743
642.221	2055
642.280	1604
642.340	882
642.400	1028
642.460	2367
642.519	2206
642.579	1396
642.639	3269
642.698	-317
642.758	4232
642.818	2070
642.877	553
642.937	1657
642.997	2716
643.056	3659
643.116	1196
643.175	3132
643.235	1669
643.294	668
643.354	2370
643.414	1705
643.473	2667
643.532	1156
643.592	1762
643.651	2284
643.711	4240
643.770	5120
643.830	8707
643.889	18259
643.948	5779
644.008	2320
644.067	1241
644.126	110
644.186	659
644.245	1840
644.304	687
644.363	2789
644.423	506
644.482	2035
644.541	2195
644.600	-633
644.659	2379
644.719	623
644.778	1254
644.837	1741
644.896	3744
644.955	4060
645.014	1713
645.073	2353
645.132	1836
645.191	1670
645.250	1868
645.309	2728
645.368	1365
645.427	2204
645.486	792
645.545	2258
645.604	1568
645.663	1739
645.722	1233
645.781	1565
645.840	999
645.898	1324
645.957	3251
646.016	1009
646.075	2838
646.134	2785
646.192	8410
646.251	11521
646.310	1545
646.369	572
646.427	1331
646.486	574
646.545	1646
646.603	1431
646.662	1144
646.721	1973
646.779	1699
646.838	210
646.896	1239
646.955	1500
647.014	1998
647.072	1382
647.131	2649
647.189	814
647.248	369
647.306	1451
647.365	2633
647.423	9
647.481	2290
647.540	-640
647.598	541
647.657	777
647.715	2825
647.773	326
647.832	1659
647.890	-127
647.948	845
648.007	2286
648.065	345
648.123	113
648.181	2761
648.240	2304
648.298	1257
648.356	576
648.414	1636
648.472	783
648.531	1358
648.589	969
648.647	864
648.705	721
648.763	492
648.821	1392
648.879	489
648.937	1270
648.995	1286
649.053	664
649.111	1749
649.169	653
649.227	2654
649.285	2296
649.343	6895
649.401	5199
649.459	7056
649.516	4918
649.574	1825
649.632	5630
649.690	7857
649.748	2867
649.806	2209
649.863	5542
649.921	2090
649.979	1278
650.037	1788
650.094	-161
650.152	1411
650.210	-9
650.268	1623
650.325	540
650.383	652
650.440	104
650.498	931
650.556	984
650.613	627
650.671	1086
650.728	1519
650.786	950
650.843	1077
650.901	-755
650.958	1178
651.016	619
651.073	390
651.131	458
651.188	-604
651.246	802
651.303	-63
651.360	1018
651.418	628
651.475	648
651.532	609
651.590	426
651.647	-300
651.704	1038
651.762	60
651.819	1155
651.876	142
651.933	278
651.990	1676
652.048	-708
652.105	262
652.162	1123
652.219	217
652.276	633
652.333	936
652.390	-711
652.448	1294
652.505	159
652.562	914
652.619	909
652.676	2767
652.733	2816
652.790	300
652.847	-887
652.904	1245
652.961	-910
653.017	-485
653.074	1166
653.131	983
653.188	-591
653.245	88
653.302	963
653.359	127
653.415	590
653.472	726
653.529	1020
653.586	720
653.642	11
653.699	220
653.756	-94
653.813	1024
653.869	350
653.926	-511
653.983	-705
654.039	640
654.096	-397
654.152	1504
654.209	-883
654.266	1839
654.322	-332
654.379	858
654.435	551
654.492	139
654.548	1357
654.605	2171
654.661	735
654.717	802
654.774	630
654.830	543
654.887	466
654.943	911
655.000	521
655.056	1068
655.112	581
655.168	-240
655.225	-176
655.281	641
655.337	733
655.394	1558
655.450	1622
655.506	1365
655.562	1505
655.618	1488
655.675	-1431
655.731	822
655.787	62
655.843	675
655.899	-763
655.955	836
656.011	140
656.067	-641
656.123	-411
656.179	-266
656.235	1675
656.291	-765
656.347	1031
656.403	634
656.459	149
656.515	991
656.571	24
656.627	611
656.683	-30
656.739	507
656.795	640
656.850	501
656.906	-437
656.962	680
657.018	-1279
657.074	475
657.129	206
657.185	927
657.241	788
657.297	-937
657.352	-190
657.408	189
657.464	1111
657.519	-259
657.575	-322
657.630	518
657.686	-467
657.742	-427
657.797	-453
657.853	477
657.908	554
657.964	-502
658.019	208
658.075	258
658.130	407
658.186	-535
658.241	797
658.297	-1001
658.352	-497
658.407	13
658.463	128
658.518	190
658.573	-24
658.629	166
658.684	-863
658.739	1308
658.795	-468
658.850	74
658.905	-113
658.960	1228
659.016	-930
659.071	-503
659.126	372
659.181	370
659.236	1920
659.291	2049
659.346	598
659.401	308
659.457	872
659.512	973
659.567	1597
659.622	43
659.677	692
659.732	168
659.787	108
659.842	983
659.897	334
659.952	1289
660.007	261
660.061	590
660.116	-358
660.171	249
660.226	59
660.281	1665
660.336	-63
660.391	935
660.445	-606
660.500	670
660.555	-21
660.610	81
660.664	292
660.719	-52
660.774	220
660.828	404
660.883	268
660.938	304
660.992	-508
661.047	274
661.101	-399
661.156	28
661.211	-827
661.265	-105
661.320	116
661.374	1035
661.429	138
661.483	842
661.538	-747
661.592	325
661.647	66
661.701	520
661.755	97
661.810	118
661.864	-123
661.919	532
661.973	208
662.027	-77
662.081	-907
662.136	19
662.190	479
662.244	253
662.299	-408
662.353	433
662.407	114
662.461	583
662.515	229
662.569	231
662.624	712
662.678	185
662.732	-583
662.786	796
662.840	157
662.894	658
662.948	563
663.002	181
663.056	466
663.110	-298
663.164	357
663.218	37
663.272	-54
663.326	804
663.380	-691
663.434	517
663.488	-528
663.542	815
663.595	1144
663.649	94
663.703	-253
663.757	-202
663.811	-264
663.864	561
663.918	175
663.972	569
664.026	349
664.079	10
664.133	36
664.187	-1
664.240	241
664.294	526
664.348	589
664.401	652
664.455	-255
664.508	336
664.562	75
664.615	648
664.669	59
664.722	503
664.776	-28
664.829	31
664.883	-523
664.936	5
664.990	-85
665.043	465
665.097	-580
665.150	612
665.203	261
665.257	374
665.310	592
665.363	407
665.417	-496
665.470	205
665.523	-227
665.576	1008
665.630	4
665.683	594
665.736	526
665.789	1532
665.842	-768
665.895	281
665.949	37
666.002	129
666.055	201
666.108	1184
666.161	209
666.214	993
666.267	46
666.320	1018
666.373	129
666.426	471
666.479	299
666.532	1085
666.585	-373
666.638	1632
666.691	-383
666.744	1135
666.796	-194
666.849	446
666.902	303
666.955	557
667.008	-93
667.060	48
667.113	-286
667.166	40
667.219	-271
667.271	-42
667.324	-365
667.377	611
667.430	397
667.482	752
667.535	465
667.587	392
667.640	-310
667.693	871
667.745	817
667.798	1614
667.850	17
667.903	-265
667.955	-493
668.008	54
668.060	93
668.113	128
668.165	148
668.218	-116
668.270	-92
668.322	718
668.375	-512
668.427	289
668.479	166
668.532	709
668.584	792
668.636	420
668.689	-283
668.741	-390
668.793	347
668.845	55
668.898	238
668.950	143
669.002	-391
669.054	365
669.106	-108
669.158	382
669.211	277
669.263	1038
669.315	555
669.367	-378
669.419	329
669.471	955
669.523	931
669.575	1124
669.627	-13
669.679	478
669.731	378
669.783	785
669.835	1359
669.886	555
669.938	408
669.990	1037
670.042	159
670.094	1165
670.146	-23
670.197	2332
670.249	1914
670.301	3382
670.353	4873
670.404	7769
670.456	11888
670.508	20034
670.560	33198
670.611	59315
670.663	102708
670.715	230256
670.766	321861
670.818	115556
670.869	24333
670.921	12297
670.972	6882
671.024	5100
671.075	3658
671.127	2539
671.178	1765
671.230	1514
671.281	1591
671.333	1320
671.384	1068
671.436	1078
671.487	826
671.538	374
671.590	995
671.641	776
671.692	218
671.744	1526
671.795	1445
671.846	1327
671.897	539
671.949	1235
672.000	706
672.051	563
672.102	1085
672.153	-56
672.204	260
672.256	608
672.307	830
672.358	727
672.409	-187
672.460	-94
672.511	195
672.562	6
672.613	-1033
672.664	331
672.715	540
672.766	255
672.817	191
672.868	272
672.919	502
672.970	-308
673.021	-10
673.071	-963
673.122	-32
673.173	63
673.224	615
673.275	235
673.326	-92
673.376	6
673.427	223
673.478	-114
673.528	86
673.579	-91
673.630	3
673.680	1992
673.731	-682
673.782	-407
673.832	-7
673.883	561
673.934	-293
673.984	-57
674.035	-66
674.085	522
674.136	265
674.186	-632
674.237	-277
674.287	430
674.338	-57
674.388	-260
674.438	-894
674.489	264
674.539	595
674.589	369
674.640	-161
674.690	201
674.740	-866
674.791	-119
674.841	-342
674.891	541
674.942	-610
674.992	338
675.042	55
675.092	925
675.142	-598
675.193	452
675.243	-673
675.293	183
675.343	-746
675.393	46
675.443	-728
675.493	174
675.543	-577
675.593	-430
675.643	-790
675.693	206
675.743	-540
675.793	417
675.843	-894
675.893	157
675.943	-470
675.993	-334
676.043	-114
676.093	-375
676.142	-693
676.192	60
676.242	-981
676.292	-234
676.341	-1091
676.391	198
676.441	-819
676.491	-672
676.540	-616
676.590	-75
676.640	-830
676.689	-269
676.739	-1015
676.789	-416
676.838	-407
676.888	254
676.937	-779
676.987	-514
677.037	-1234
677.086	-1269
677.136	-678
677.185	-328
677.235	-1082
677.284	-725
677.333	-1001
677.383	-198
677.432	-1000
677.482	-650
677.531	-300
677.580	0
677.630	-313
677.679	-295
677.728	-799
677.778	372
677.827	-405
677.876	-837
677.925	-597
677.975	-1108
678.024	-1246
678.073	-574
678.122	-851
678.171	-27
678.220	-1033
678.269	-875
678.319	-212
678.368	-546
678.417	-1074
678.466	-389
678.515	152
678.564	-656
678.613	-579
678.662	-609
678.711	-844
678.760	-726
678.809	-580
678.857	-940
678.906	-1285
678.955	-141
679.004	-538
679.053	-662
679.102	-1514
679.151	-562
679.199	-774
679.248	-92
679.297	-804
679.346	-223
679.394	-910
679.443	430
679.492	-728
679.540	-86
679.589	-625
679.638	-901
679.686	-713
679.735	-902
679.784	-1669
679.832	180
679.881	-1068
679.929	-185
679.978	-930
680.026	-1122
680.075	-905
680.123	-900
680.172	-502
680.220	-999
680.268	-761
680.317	-423
680.365	-865
680.414	-614
680.462	-485
680.510	81
680.559	-640
680.607	-527
680.655	-698
680.703	-286
680.752	-1432
680.800	-694
680.848	-799
680.896	-882
680.945	-837
680.993	-499
681.041	-893
681.089	-483
681.137	-833
681.185	-139
681.233	-1499
681.258	-991
681.281	-540
681.329	-2015
681.377	-441
681.380	-426
681.425	-687
681.473	-360
681.502	-630
681.521	-873
681.569	-299
681.617	-711
681.624	-680
681.665	-702
681.713	-230
681.745	-200
681.761	-225
681.809	-616
681.857	492
681.867	213
681.904	-872
681.952	-137
681.989	-536
682.000	-683
682.048	46
682.096	-230
682.111	-149
682.143	-106
682.191	57
682.233	766
682.239	849
682.286	194
682.334	54
682.354	267
682.382	503
682.430	831
682.476	17
682.477	-26
682.525	783
682.572	-233
682.598	552
682.620	1195
682.667	345
682.715	1437
682.720	1444
682.763	1264
682.810	577
682.841	932
682.857	1082
682.905	446
682.952	1198
682.963	1239
683.000	1302
683.047	1026
683.085	2022
683.095	2253
683.142	931
683.190	1565
683.206	1415
683.237	1114
683.284	1940
683.328	1274
683.332	1200
683.379	1920
683.426	1550
683.449	1594
683.473	1573
683.521	1753
683.568	1717
683.571	1726
683.615	1604
683.662	2395
683.693	1945
683.709	1675
683.757	1331
683.804	2674
683.814	2555
683.851	2022
683.898	2199
683.936	2424
683.945	2467
683.992	1674
684.039	2208
684.057	2095
684.086	1841
684.133	2761
684.179	1809
684.180	1767
684.227	2447
684.274	2710
684.300	3213
684.321	3489
684.368	2218
684.415	3381
684.422	3216
684.462	2198
684.509	3154
684.543	2725
684.556	2562
684.603	2832
684.649	2171
684.665	2674
684.696	3706
684.743	2805
684.786	3683
684.790	3748
684.837	3064
684.883	4289
684.908	3741
684.930	3167
684.977	4365
685.023	3687
685.029	3722
685.070	3805
685.117	3819
685.150	4147
685.164	4303
685.210	4591
685.257	4733
685.272	4655
685.303	4264
685.350	4564
685.393	3945
685.396	3905
685.443	3897
685.490	4379
685.514	4431
685.536	4389
685.583	4899
685.629	4614
685.636	4567
685.675	4275
685.722	4816
685.757	4700
685.768	4637
685.815	5069
685.861	4366
685.878	4752
685.908	5439
685.954	5043
686.000	4550
686.000	4539
686.047	4972
686.093	5490
686.121	5690
686.139	5609
686.185	6079
686.232	5252
686.242	5144
686.278	4881
686.324	5533
686.363	5418
686.370	5395
686.416	4609
686.463	5121
686.484	4971
686.509	4849
686.555	5126
686.601	5187
686.606	5234
686.647	5399
686.693	4682
686.727	5356
686.739	5694
686.785	4923
686.831	5791
686.848	5738
686.877	5463
686.923	5278
686.969	5008
686.969	5007
687.015	5541
687.061	5643
687.090	6268
687.107	6474
687.153	6085
687.199	5802
687.211	5642
687.245	5322
687.291	5396
687.332	5496
687.336	5523
687.382	6046
687.428	5835
687.453	6049
687.474	6071
687.520	5840
687.565	6187
687.574	6051
687.611	5742
687.657	5980
687.695	6510
687.702	6610
687.748	6295
687.794	6330
687.816	6463
687.839	6524
687.885	5846
687.931	6595
687.937	6551
687.976	6316
688.022	6495
688.058	6155
688.067	6110
688.113	6592
688.158	6121
688.179	6367
688.204	6651
688.249	6992
688.295	6720
688.300	6728
688.340	6877
688.386	7286
688.421	7241
688.431	7167
688.477	7350
688.522	6271
688.542	6503
688.567	6985
688.613	6882
688.658	7094
688.663	7134
688.703	7147
688.749	7449
688.784	6950
688.794	6875
688.839	6905
688.884	6645
688.905	6771
688.930	7019
688.975	6878
689.020	7273
689.026	7251
689.065	7162
689.110	7286
689.146	7604
689.155	7623
689.201	7365
689.246	7163
689.267	7149
689.291	7314
689.336	7756
689.381	7825
689.388	7813
689.426	7791
689.471	7958
689.509	7618
689.516	7551
689.561	8010
689.606	7421
689.630	7439
689.651	7547
689.696	8070
689.741	8055
689.750	8062
689.785	7926
689.830	7864
689.871	7846
689.875	7865
689.920	7951
689.965	7547
689.992	7680
690.010	7867
690.054	7676
690.099	8132
690.112	8039
690.144	7870
690.189	8354
690.233	8433
690.233	8446
690.278	8472
690.323	8118
690.354	8337
690.367	8518
690.412	8389
690.457	8927
690.474	8982
690.501	9127
690.546	8940
690.590	9488
690.595	9498
690.635	10052
690.680	10663
690.716	11238
690.724	11560
690.769	12409
690.813	14807
690.836	15264
690.857	16939
690.902	21380
690.946	26136
690.957	27135
690.991	36934
691.035	50292
691.077	63187
691.080	63307
691.124	61014
691.168	59636
691.198	58602
691.213	54344
691.257	42457
691.301	29243
691.318	24409
691.346	22281
691.390	18209
691.434	14292
691.439	13853
691.478	13074
691.522	12291
691.559	11357
691.567	11309
691.611	11160
691.655	10647
691.680	10624
691.699	10756
691.743	10307
691.787	10292
691.800	10194
691.831	10082
691.875	10538
691.919	10191
691.921	10179
691.964	10659
692.008	10445
692.041	10787
692.052	10837
692.096	10488
692.139	10212
692.162	10096
692.183	10029
692.227	10015
692.271	9851
692.282	9755
692.315	9754
692.359	9755
692.402	10323
692.403	10349
692.447	9905
692.490	10515
692.523	10263
692.534	10268
692.578	10848
692.622	10993
692.643	11160
692.666	11115
692.709	10992
692.753	10600
692.763	10510
692.797	10609
692.840	11002
692.884	10964
692.884	10989
692.928	11135
692.971	10997
693.004	11120
693.015	11235
693.059	11221
693.102	11424
693.124	11423
693.146	11527
693.189	12080
693.233	12376
693.245	12467
693.276	13222
693.320	13914
693.363	14783
693.365	14778
693.407	16004
693.450	17563
693.485	18661
693.493	19437
693.537	23159
693.580	26463
693.605	28859
693.624	33423
693.667	43470
693.710	54369
693.725	57937
693.753	77794
693.797	109283
693.840	140868
693.845	144246
693.883	140788
693.926	135925
693.966	132331
693.970	129667
694.013	98796
694.056	68452
694.086	47282
694.099	44808
694.142	36517
694.185	28351
694.206	24438
694.229	23350
694.272	20869
694.315	18617
694.326	17939
694.358	16912
694.401	15935
694.444	14533
694.446	14434
694.487	14290
694.530	13964
694.566	13628
694.573	13506
694.616	12513
694.659	11869
694.686	11190
694.702	11138
694.745	11245
694.787	11041
694.806	10932
694.830	10991
694.873	11237
694.916	11270
694.926	11299
694.959	11509
695.002	11686
695.044	11603
695.046	11583
695.087	11539
695.130	11239
695.166	10927
695.172	11000
695.215	11258
695.258	11857
695.286	11940
695.301	11822
695.343	11504
695.386	11079
695.406	10949
695.428	10963
695.471	10913
695.514	10811
695.526	10694
695.556	10656
695.599	11053
695.641	10924
695.646	10912
695.684	10993
695.726	10802
695.766	10819
695.769	10876
695.811	11053
695.854	11465
695.886	11586
695.896	11483
695.938	11028
695.981	10500
696.005	10207
696.023	10410
696.065	10797
696.108	11086
696.125	11207
696.150	11313
696.192	11510
696.235	11578
696.245	11584
696.277	11573
696.319	11464
696.361	11465
696.365	11418
696.404	11574
696.446	11864
696.485	11963
696.488	11988
696.530	11861
696.572	11796
696.604	11770
696.614	11758
696.656	11428
696.698	11255
696.724	10986
696.740	10858
696.783	10658
696.825	10348
696.844	10166
696.867	10402
696.909	10724
696.951	11094
696.964	11212
696.992	11017
697.034	10549
697.076	10180
697.083	10072
697.118	10521
697.160	11090
697.202	11652
697.203	11630
697.244	11150
697.286	10750
697.323	10415
697.327	10465
697.369	10581
697.411	10547
697.442	10667
697.453	10763
697.494	10889
697.536	10988
697.562	11102
697.578	11134
697.620	10981
697.661	10885
697.682	10790
697.703	10758
697.744	10731
697.786	10691
697.801	10595
697.828	10883
697.869	11333
697.911	11835
697.921	11921
697.952	11663
697.994	11246
698.035	10873
698.040	10782
698.077	10735
698.118	10784
698.160	10724
698.160	10691
698.201	10669
698.243	10539
698.279	10477
698.284	10542
698.325	10810
698.367	11053
698.399	11196
698.408	11128
698.449	10716
698.491	10265
698.518	9939
698.532	10078
698.573	10384
698.614	10705
698.638	10861
698.656	11007
698.697	11256
698.738	11518
698.757	11603
698.779	11512
698.820	11271
698.862	11034
698.877	10909
698.903	11180
698.944	11570
698.985	11956
698.996	12028
699.026	11850
699.067	11551
699.116	11162
699.235	10830
699.354	11016
699.474	10368
699.593	12388
699.713	11550
699.832	11350
699.951	11647
700.070	11315
700.190	10685
700.309	10972
700.428	11108
700.547	10750
700.667	11531
700.786	10981
700.905	10072
701.024	11186
701.143	10057
701.262	9876
701.381	9648
701.500	9758
701.619	9608
701.738	9960
701.857	10081
701.976	10236
702.095	9800
702.214	10442
702.333	10548
702.452	9466
702.571	8511
702.690	8773
702.809	9483
702.928	9541
703.047	9595
703.165	10169
703.284	9389
703.403	9513
703.522	8490
703.640	10453
703.759	10228
703.878	12152
703.997	9366
704.115	9561
704.234	8386
704.353	8716
704.471	8323
704.590	8724
704.708	7846
704.827	8603
704.946	9414
705.064	9546
705.183	9527
705.301	11347
705.420	16867
705.538	15162
705.656	12778
705.775	13012
705.893	21566
706.012	27620
706.130	13411
706.249	12964
706.367	12563
706.485	12884
706.604	12699
706.722	12403
706.840	13394
706.958	13726
707.077	12774
707.195	11946
707.313	11146
707.431	11984
707.549	12172
707.668	11276
707.786	11626
707.904	10523
708.022	10707
708.140	10789
708.258	11229
708.376	11661
708.494	10992
708.612	11948
708.730	16943
708.848	17458
708.966	14407
709.084	14185
709.202	13419
709.320	14640
709.438	14950
709.556	14525
709.674	13563
709.791	14206
709.909	13658
710.027	13200
710.145	14114
710.263	14258
710.380	12988
710.498	13449
710.616	13407
710.733	12355
710.851	13694
710.969	13644
711.086	12773
711.204	12405
711.322	12640
711.439	12660
711.557	12627
711.674	12614
711.792	12289
711.909	13367
712.027	13819
712.144	12568
712.262	12481
712.379	12944
712.497	19665
712.614	19411
712.732	16386
712.849	15220
712.966	15668
713.084	17351
713.201	16243
713.318	16621
713.436	15477
713.553	15357
713.670	16044
713.787	16239
713.905	16222
714.022	14877
714.139	14850
714.256	15018
714.373	13963
714.490	15006
714.608	15331
714.725	21009
714.842	20912
714.959	14071
715.076	14447
715.193	13460
715.310	12968
715.427	13499
715.544	13099
715.661	13275
715.778	13641
715.895	15631
716.011	13968
716.128	14134
716.245	13405
716.362	14238
716.479	13027
716.596	13295
716.713	13943
716.829	12360
716.946	13084
717.063	11774
717.180	13651
717.296	12652
717.413	12032
717.530	11556
717.646	11488
717.763	11964
717.880	10677
717.996	11110
718.113	10597
718.229	11497
718.346	10022
718.462	10960
718.579	11849
718.695	14393
718.812	13934
718.928	13276
719.045	10851
719.161	9942
719.277	10101
719.394	10325
719.510	11247
719.626	10055
719.743	13753
719.859	11414
719.975	10698
720.092	12003
720.208	13450
720.324	12298
720.440	10565
720.557	11034
720.673	13225
720.789	17028
720.905	29630
721.021	15637
721.137	10464
721.253	10051
721.369	10284
721.486	11269
721.602	13858
721.718	11026
721.834	8351
721.950	10224
722.066	7793
722.181	9138
722.297	9384
722.413	9623
722.529	8253
722.645	8710
722.761	9160
722.877	9326
722.993	8902
723.108	9616
723.224	9483
723.340	9745
723.456	8156
723.571	9130
723.687	7900
723.803	9179
723.918	8401
724.034	8481
724.150	8091
724.265	9148
724.381	12940
724.497	16226
724.612	8791
724.728	7599
724.843	7610
724.959	7644
725.074	12131
725.190	14604
725.305	7307
725.421	7629
725.536	6756
725.651	7248
725.767	8293
725.882	7333
725.997	7390
726.113	6545
726.228	6387
726.343	7493
726.459	6895
726.574	7109
726.689	7416
726.804	6201
726.920	6993
727.035	7305
727.150	6919
727.265	6261
727.380	6594
727.495	7197
727.610	6136
727.725	6996
727.841	7791
727.956	13068
728.071	11260
728.186	6455
728.301	6534
728.416	7229
728.531	6310
728.645	5868
728.760	5936
728.875	6633
728.990	6886
729.105	5990
729.220	5867
729.335	6258
729.449	6348
729.564	5775
729.679	6580
729.794	6208
729.908	6995
730.023	6876
730.138	5729
730.253	5590
730.367	6096
730.482	5526
730.596	5638
730.711	5880
730.826	5166
730.940	5927
731.055	5791
731.169	4842
731.284	5359
731.398	5707
731.513	6248
731.627	5094
731.742	6140
731.856	6506
731.970	4898
732.085	4954
732.199	5574
732.313	5146
732.428	5578
732.542	6768
732.656	6159
732.771	4405
732.885	4808
732.999	5149
733.113	5020
733.227	4862
733.342	5012
733.456	5037
733.570	4989
733.684	4250
733.798	4772
733.912	5168
734.026	4216
734.140	4799
734.254	4769
734.368	7460
734.482	8676
734.596	4304
734.710	5368
734.824	5048
734.938	5174
735.052	4064
735.166	5593
735.280	4941
735.393	4384
735.507	4624
735.621	5791
735.735	8154
735.849	5991
735.962	5093
736.076	4651
736.190	5032
736.303	5493
736.417	7539
736.531	4616
736.644	5337
736.758	4117
736.872	4248
736.985	4305
737.099	4839
737.212	3278
737.326	5090
737.439	4454
737.553	4442
737.666	4973
737.780	4455
737.893	5228
738.007	3817
738.120	4510
738.233	4884
738.347	4231
738.460	5306
738.573	3541
738.687	4571
738.800	3362
738.913	4812
739.026	4130
739.140	4182
739.253	5150
739.366	4394
739.479	3414
739.592	4160
739.705	3482
739.818	4449
739.932	3627
740.045	4378
740.158	4383
740.271	3897
740.384	4458
740.497	3780
740.610	4043
740.723	4274
740.836	4654
740.949	4910
741.062	4549
741.174	4912
741.287	4068
741.400	4113
741.513	4875
741.626	4500
741.739	4394
741.851	3714
741.964	3936
742.077	3632
742.189	3784
742.302	4121
742.415	3463
742.527	4034
742.640	3066
742.753	4058
742.865	4042
742.978	3463
743.090	3742
743.203	4128
743.316	3836
743.428	4523
743.541	4169
743.653	3958
743.766	3162
743.878	3746
743.990	3425
744.103	4260
744.215	3347
744.327	4139
744.440	3904
744.552	5318
744.664	3934
744.777	3441
744.889	3745
745.001	4074
745.113	3859
745.226	3653
745.338	3354
745.450	4131
745.562	3374
745.674	3370
745.786	3645
745.898	3585
746.010	3035
746.122	3320
746.234	3163
746.347	3885
746.459	3659
746.570	4052
746.682	3183
746.794	3886
746.906	3224
747.018	4223
747.130	4027
747.242	3773
747.354	3683
747.466	3600
747.577	3780
747.689	3598
747.801	2892
747.913	3414
748.024	2467
748.136	3630
748.248	4024
748.359	3729
748.471	3425
748.583	3063
748.694	3576
748.806	4328
748.918	4081
749.029	3311
749.141	3734
749.252	3845
749.364	3506
749.475	4700
749.587	3943
749.698	4147
749.809	3622
749.921	3527
750.032	3749
750.144	3345
750.255	2986
750.366	3836
750.478	3767
750.589	4106
750.700	3570
750.811	4400
750.923	4561
751.034	5093
751.145	6013
751.256	3745
751.367	3512
751.479	3411
751.590	3912
751.701	3300
751.812	3647
751.923	3596
752.034	4132
752.145	3107
752.256	2930
752.367	3800
752.478	3272
752.589	4097
752.700	3831
752.811	3573
752.922	3148
753.032	2784
753.143	3692
753.254	2519
753.365	4495
753.476	3805
753.586	3791
753.697	3422
753.808	3397
753.919	3836
754.029	3563
754.140	3692
754.251	3420
754.361	3788
754.472	3906
754.582	3040
754.693	3588
754.804	4082
754.914	3569
755.025	3633
755.135	4167
755.246	4301
755.356	3125
755.466	4581
755.577	3661
755.687	3655
755.798	3721
755.908	4043
756.018	4178
756.129	4277
756.239	3572
756.349	4325
756.460	3261
756.570	4681
756.680	4148
756.790	4131
756.900	4348
757.011	3900
757.121	4958
757.231	4916
757.341	4529
757.451	3983
757.561	4217
757.671	5142
757.781	3692
757.891	5478
758.001	4936
758.111	4980
758.221	4892
758.331	4420
758.441	5335
758.551	5848
758.661	5075
758.771	5535
758.880	5228
758.990	5675
759.100	5939
759.210	5950
759.320	6013
759.429	5972
759.539	6065
759.649	5730
759.758	6367
759.868	6231
759.978	5427
760.087	6285
760.197	6447
760.307	6887
760.416	6428
760.526	6220
760.635	7004
760.745	6842
760.854	7355
760.964	7036
761.073	7609
761.182	6938
761.292	7788
761.401	8048
761.511	7936
761.620	7736
761.729	8296
761.839	8037
761.948	9631
762.057	8901
762.166	9491
762.276	8672
762.385	11231
762.494	10288
762.603	11252
762.712	10960
762.822	11127
762.931	12465
763.040	12451
763.149	12606
763.258	13713
763.367	14206
763.476	15823
763.585	16235
763.694	16538
763.803	17105
763.912	18644
764.021	19542
764.130	20400
764.238	22475
764.347	24343
764.456	26129
764.565	28092
764.674	30925
764.783	33908
764.891	36583
765.000	41352
765.109	47323
765.217	55035
765.326	64517
765.435	76769
765.543	92313
765.652	115094
765.761	149625
765.869	199399
765.978	278926
766.086	400512
766.195	583636
766.303	753411
766.412	602644
766.520	543583
766.629	734879
766.737	570797
766.846	385203
766.954	266803
767.062	192800
767.171	146093
767.279	112377
767.387	88811
767.496	75097
767.604	62302
767.712	55141
767.820	49090
767.928	45360
768.037	41659
768.145	39414
768.253	36148
768.361	36494
768.469	35811
768.577	37681
768.685	39645
768.793	41870
768.901	46071
769.009	54184
769.117	65477
769.225	83102
769.333	113660
769.441	168571
769.549	267944
769.657	454168
769.765	661941
769.873	534118
769.981	626345
770.088	461762
770.196	271705
770.304	175410
770.412	123628
770.519	92098
770.627	72324
770.735	57487
770.842	49441
770.950	42995
771.058	36221
771.165	32485
771.273	28730
771.380	26449
771.488	23931
771.595	20943
771.703	19516
771.810	18842
771.918	17612
772.025	16744
772.133	15608
772.240	13888
772.348	13941
772.455	13243
772.562	12125
772.670	11797
772.777	11906
772.884	11727
772.991	9564
773.099	10581
773.206	9027
773.313	9741
773.420	8754
773.528	8254
773.635	8185
773.742	9300
773.849	8320
773.956	8723
774.063	7439
774.170	6711
774.277	7415
774.384	7464
774.491	6108
774.598	6764
774.705	6855
774.812	7291
774.919	7215
775.026	7022
775.133	6205
775.239	6200
775.346	5987
775.453	5695
775.560	5870
775.667	6345
775.773	6181
775.880	5493
775.987	5544
776.093	6556
776.200	4804
776.307	5478
776.413	5471
776.520	4349
776.627	6172
776.733	5385
776.840	3805
776.946	6049
777.053	4373
777.159	5521
777.266	3801
777.372	5451
777.478	4202
777.585	5263
777.691	4047
777.798	4020
777.904	4814
778.010	4988
778.117	4346
778.223	4311
778.329	3511
778.435	4423
778.542	4303
778.648	3634
778.754	2845
778.860	3173
778.966	3938
779.072	4652
779.178	3748
779.284	4477
779.391	3944
779.497	3968
779.603	6738
779.708	7992
779.815	19921
779.920	66868
780.026	150248
780.132	26952
780.238	5751
780.344	4719
780.450	3404
780.556	3267
780.661	2995
780.767	3423
780.873	2668
780.979	3101
781.085	1854
781.190	3052
781.296	3018
781.402	2567
781.507	3331
781.613	2799
781.719	2264
781.824	2806
781.930	3573
782.035	2880
782.141	2581
782.246	2172
782.352	2378
782.457	3107
782.563	2309
782.668	2277
782.773	1852
782.879	2946
782.984	3722
783.090	2545
783.195	3117
783.300	2540
783.405	2625
783.511	2600
783.616	2409
783.721	1877
783.826	2269
783.932	3305
784.037	2331
784.142	1913
784.247	2672
784.352	1728
784.457	2751
784.562	1731
784.667	2298
784.772	3370
784.877	1731
784.982	2717
785.087	2129
785.192	2855
785.297	1649
785.402	2671
785.507	1923
785.611	1636
785.716	2042
785.821	2225
785.926	1637
786.031	3042
786.135	1533
786.240	2094
786.345	554
786.450	3222
786.554	1953
786.659	1617
786.763	458
786.868	3151
786.973	2878
787.077	1433
787.182	1704
787.286	2451
787.391	1935
787.495	2086
787.600	2036
787.704	1890
787.809	2272
787.913	1057
788.017	1573
788.122	1642
788.226	1673
788.330	1266
788.435	1304
788.539	1067
788.643	1152
788.747	1275
788.852	1217
788.956	1187
789.060	2430
789.164	2346
789.268	1259
789.372	1571
789.476	1607
789.580	1035
789.684	2196
789.788	2092
789.892	1367
789.996	1723
790.100	1266
790.204	1679
790.308	2003
790.412	1614
790.516	2060
790.620	1299
790.724	1764
790.828	1950
790.931	818
791.035	3123
791.139	1826
791.242	1769
791.346	2149
791.450	1829
791.554	1404
791.657	1203
791.761	2195
791.864	2398
791.968	1139
792.072	1145
792.175	1274
792.279	1415
792.382	1614
792.486	1848
792.589	1918
792.693	1704
792.796	305
792.899	2044
793.003	1668
793.106	358
793.209	979
793.313	2943
793.416	-66
793.519	2647
793.623	1862
793.726	2289
793.829	3013
793.932	1838
794.035	542
794.138	2532
794.242	2318
794.345	2230
794.448	4904
794.551	9736
794.654	36265
794.757	85786
794.860	17385
794.963	2876
795.066	1761
795.169	2054
795.272	1060
795.375	1913
795.477	693
795.580	2161
795.683	-372
795.786	1148
795.889	107
795.991	1821
796.094	2140
796.197	-710
796.300	2715
796.402	739
796.505	632
796.608	350
796.710	1590
796.813	1330
796.915	705
797.018	1746
797.120	1331
797.223	431
797.326	2067
797.428	785
797.530	1130
797.633	338
797.735	1589
797.838	1631
797.940	2251
798.042	787
798.145	434
798.247	1205
798.349	136
798.452	1771
798.554	386
798.656	81
798.758	1474
798.860	491
798.962	331
799.065	506
799.167	113
799.269	970
799.371	1307
799.473	1168
799.575	265
799.677	816
799.779	1997
799.881	231
799.983	1072
800.085	971
800.187	783
800.289	34
800.390	989
800.492	1194
800.594	2257
800.696	771
800.798	-207
800.899	669
801.001	653
801.103	673
801.205	258
801.306	1104
801.408	-728
801.509	1085
801.611	247
801.713	917
801.814	211
801.916	-61
802.017	863
802.119	534
802.220	966
802.322	-260
802.423	2356
802.525	324
802.626	888
802.727	1197
802.829	1497
802.930	-1100
803.031	1083
803.133	-24
803.234	218
803.335	1244
803.436	-35
803.538	905
803.639	-621
803.740	815
803.841	-135
803.942	989
804.043	500
804.144	-432
804.245	118
804.346	403
804.447	-255
804.548	727
804.649	1230
804.750	464
804.851	-6
804.952	939
805.053	475
805.154	46
805.255	112
805.355	663
805.456	196
805.557	31
805.658	-545
805.758	927
805.859	597
805.960	274
806.061	188
806.161	726
806.262	287
806.362	319
806.463	5
806.564	1257
806.664	719
806.765	489
806.865	511
806.966	345
807.066	-77
807.166	1557
807.267	587
807.367	918
807.468	871
807.568	-370
807.668	1028
807.769	1143
807.869	-810
807.969	1021
808.069	596
808.170	1469
808.270	-121
808.370	255
808.470	489
808.570	5
808.670	357
808.770	568
808.870	-1032
808.970	732
809.070	66
809.170	388
809.271	566
809.370	-122
809.470	614
809.570	-71
809.670	374
809.770	247
809.870	390
809.970	1076
810.070	-342
810.169	1363
810.269	-1285
810.369	1291
810.469	590
810.568	-161
810.668	186
810.768	-354
810.867	192
810.967	-325
811.066	39
811.166	233
811.265	402
811.365	-88
811.464	-252
811.564	790
811.663	-402
811.763	-1071
811.862	270
811.962	261
812.061	637
812.160	-134
812.260	983
812.359	721
812.458	1611
812.557	3685
812.657	6675
812.756	2346
812.855	273
812.954	-84
813.053	79
813.153	393
813.252	-1259
813.351	517
813.450	-97
813.549	207
813.648	63
813.747	624
813.846	330
813.945	-559
814.044	-246
814.143	557
814.242	526
814.341	272
814.439	92
814.538	422
814.637	99
814.736	-198
814.835	464
814.933	69
815.032	558
815.131	151
815.229	-141
815.328	612
815.427	-803
815.525	1022
815.624	-60
815.722	-396
815.821	274
815.919	335
816.018	-833
816.116	912
816.215	126
816.313	393
816.412	187
816.510	446
816.609	2251
816.707	566
816.805	595
816.904	-80
817.002	1358
817.100	1468
817.198	1656
817.296	147
817.395	250
817.493	1394
817.591	422
817.689	1379
817.787	1300
817.885	4553
817.983	7074
818.081	16219
818.179	39945
818.277	103958
818.375	107381
818.473	29850
818.571	10253
818.669	5648
818.767	5022
818.865	4721
818.963	6013
819.061	8389
819.158	16000
819.256	34799
819.354	80872
819.452	192211
819.549	147934
819.647	41684
819.745	14365
819.842	9047
819.940	5192
820.038	3235
820.135	2377
820.233	2749
820.330	1402
820.428	1566
820.525	1082
820.623	575
820.720	397
820.818	775
820.915	398
821.012	1612
821.110	-487
821.207	1159
821.304	3
821.402	758
821.499	897
821.596	771
821.693	-287
821.791	910
821.888	396
821.985	1815
822.082	-4
822.179	1116
822.276	-116
822.373	561
822.470	-153
822.567	507
822.664	-437
822.761	1167
822.858	-553
822.955	1177
823.052	197
823.149	-543
823.246	-178
823.343	-1061
823.440	415
823.536	-713
823.633	-762
823.730	56
823.827	-387
823.923	-595
824.020	1787
824.117	-330
824.213	-902
824.310	-94
824.407	131
824.503	-53
824.600	551
824.696	-111
824.793	-716
824.889	-736
824.986	-84
825.082	-8
825.179	-300
825.275	4
825.371	-207
825.468	356
825.564	-388
825.660	-75
825.757	-173
825.853	1193
825.949	-238
826.045	-771
826.142	-729
826.238	539
826.334	-387
826.430	-1113
826.526	485
826.622	153
826.718	49
826.814	-248
826.910	847
827.006	-599
827.102	245
827.198	1118
827.294	-1164
827.390	20
827.486	1185
827.582	-810
827.678	-1082
827.774	792
827.869	-697
827.965	1243
828.061	-1015
828.157	-204
828.252	-62
828.348	-501
828.444	714
828.539	-1248
828.635	52
828.731	512
828.826	-796
828.922	-111
829.017	-370
829.113	56
829.208	-1457
829.304	-975
829.399	521
829.495	-225
829.590	419
829.685	-1158
829.781	-50
829.876	-809
829.971	-277
830.066	-113
830.162	291
830.257	-1017
830.352	-913
830.447	52
830.543	400
830.638	-1688
830.733	635
830.828	-300
830.923	424
831.018	-639
831.113	20
831.208	-818
831.303	-722
831.398	-325
831.493	-1129
831.588	-318
831.683	-1280
831.778	297
831.873	-335
831.967	-252
832.062	-887
832.157	-1129
832.252	270
832.346	318
832.441	-128
832.536	243
832.631	1085
832.725	1205
832.820	-881
832.914	-1344
833.009	-542
833.104	-484
833.198	166
833.293	-560
833.387	-899
833.482	-85
833.576	-1217
833.670	224
833.765	-1005
833.859	-880
833.954	-41
834.048	-248
834.142	-1028
834.237	-342
834.331	276
834.425	-451
834.519	-1317
834.613	281
834.708	-635
834.802	-327
834.896	-724
834.990	-889
835.084	-507
835.178	-839
835.272	-406
835.366	-614
835.460	-273
835.554	-901
835.648	-601
835.742	-569
835.836	-828
835.930	-831
836.024	41
836.117	345
836.211	10
836.305	-435
836.399	-262
836.493	-1103
836.586	237
836.680	-1019
836.774	-840
836.867	896
836.961	-989
837.055	-1438
837.148	-754
837.242	-37
837.335	-605
837.429	-343
837.522	-776
837.616	-499
837.709	797
837.803	116
837.896	-139
837.989	-1072
838.083	794
838.176	135
838.269	69
838.363	-334
838.456	-727
838.549	229
838.642	-38
838.735	1777
838.829	829
838.922	-577
839.015	-498
839.108	-404
839.201	-414
839.294	214
839.387	-211
839.480	227
839.573	-385
839.666	404
839.759	-482
839.852	-808
839.945	-474
840.038	-363
840.131	-616
840.223	-50
840.316	-155
840.409	-516
840.502	-1114
840.594	524
840.687	-1182
840.780	480
840.873	-436
840.965	-261
841.058	-33
841.150	1021
841.243	-431
841.336	532
841.428	-327
841.521	-285
841.613	-1511
841.706	-149
841.798	-1167
841.890	-431
841.983	-228
842.075	-123
842.167	-194
842.260	-274
842.352	-50
842.444	322
842.537	1274
842.629	2609
842.721	222
842.813	-610
842.905	-844
842.997	-221
843.090	-579
843.182	185
843.274	894
843.366	4311
843.458	7088
843.550	5208
843.642	9
843.734	140
843.826	-398
843.918	96
844.009	-143
844.101	-640
844.193	-415
844.285	-492
844.377	-325
844.469	1236
844.560	-562
844.652	135
844.744	-392
844.835	-362
844.927	-1097
845.019	-229
845.110	-267
845.202	-359
845.293	-235
845.385	-872
845.476	-625
845.568	384
845.659	-564
845.751	838
845.842	-1230
845.934	-1039
846.025	-1445
846.116	266
846.208	-1089
846.299	-403
846.390	-87
846.482	283
846.573	570
846.664	118
846.755	-624
846.846	272
846.937	-1496
847.029	-567
847.120	-1015
847.211	-806
847.302	-304
847.393	-1415
847.484	-34
847.575	-825
847.666	-682
847.757	-1105
847.847	-228
847.938	195
848.029	-1155
848.120	-222
848.211	-626
848.302	-870
848.392	-807
848.483	224
848.574	-1021
848.664	37
848.755	-1017
848.846	114
848.936	-472
849.027	-285
849.118	-653
849.208	-978
849.299	-819
849.389	-242
849.480	100
849.570	-601
849.661	-353
849.751	-479
849.841	-237
849.932	-1299
850.022	-1292
850.112	300
850.203	-443
850.293	-1305
850.383	-223
850.474	-660
850.564	-619
850.654	218
850.744	255
850.834	-587
850.924	-225
851.014	-600
851.104	-771
851.194	-784
851.284	-664
851.374	-187
851.464	-862
851.554	-90
851.644	-331
851.734	709
851.824	-552
851.914	-46
852.004	785
852.094	563
852.183	-556
852.273	-883
852.363	-1031
852.452	-345
852.542	-1218
852.632	-799
852.721	-649
852.811	-1232
852.901	-597
852.990	-1509
853.080	-392
853.169	-593
853.259	-834
853.348	-950
853.438	-736
853.527	-674
853.617	-1788
853.706	77
853.795	-12
853.885	-9
853.974	-218
854.063	675
854.152	390
854.242	216
854.331	-1014
854.420	-973
854.509	-1305
854.598	-1044
854.687	-872
854.777	-590
854.866	-1216
854.955	-314
855.044	-1126
855.133	-1006
855.222	-455
855.311	-1376
855.400	135
855.488	-870
855.577	-1382
855.666	727
855.755	360
855.844	-41
855.933	-473
856.021	-503
856.110	-821
856.199	-766
856.288	-631
856.376	-1363
856.465	-1589
856.554	-410
856.642	-1063
856.731	-563
856.819	-772
856.908	-370
856.996	-920
857.085	-498
857.173	-775
857.262	-588
857.350	195
857.438	-565
857.527	-1032
857.615	-256
857.703	-178
857.792	-1165
857.880	-890
857.968	-789
858.056	-1340
858.145	-577
858.233	-1140
858.321	-474
858.409	-647
858.497	-1285
858.585	-644
858.673	74
858.761	-1392
858.849	-619
858.937	-317
859.025	-814
859.113	-119
859.201	-940
859.289	1
859.377	-280
859.465	-466
859.552	-703
859.640	-919
859.728	-369
859.816	-1060
859.903	-253
859.991	-723
860.079	-413
860.166	-175
860.254	-1120
860.342	-584
860.429	-777
860.517	-1132
860.604	-91
860.692	-723
860.779	-805
860.867	-751
860.954	-948
861.042	-266
861.129	-429
861.216	-693
861.304	-1403
861.391	-200
861.478	-366
861.565	-661
861.653	-491
861.740	-1081
861.827	-780
861.914	-844
862.001	-1027
862.089	-1094
862.176	-801
862.263	-455
862.350	-600
862.437	-1000
862.524	-691
862.611	-1128
862.698	-167
862.785	-654
862.871	-597
862.958	-1399
863.045	-496
863.132	-1007
863.219	-971
863.306	-1845
863.392	-63
863.479	-892
863.566	-47
863.652	-741
863.739	-1335
863.826	-775
863.912	-1186
863.999	-1660
864.086	-1021
864.172	-824
864.259	308
864.345	-1539
864.432	-1250
864.518	-950
864.604	-1197
864.691	-1761
864.777	-477
864.863	-338
864.950	-618
865.036	-1810
865.122	-644
865.209	-641
865.295	28
865.381	-853
865.467	-842
865.553	-618
865.639	-1969
865.726	-568
865.812	-959
865.898	151
865.984	-342
866.070	1048
866.156	1538
866.242	-924
866.328	-958
866.414	-580
866.499	-942
866.585	-1637
866.671	-1567
866.757	-383
866.843	-73
866.928	-565
867.014	-900
867.100	-171
867.186	-686
867.271	-763
867.357	-1119
867.442	-1676
867.528	-656
867.614	-1040
867.699	-191
867.785	-606
867.870	-728
867.956	-1515
868.041	215
868.127	-1218
868.212	-618
868.297	-1436
868.383	-172
868.468	47
868.553	459
868.639	11
868.724	1634
868.809	1110
868.894	-169
868.979	-482
869.065	-457
869.150	-1407
869.235	-512
869.320	-1190
869.405	-1339
869.490	-521
869.575	-1379
869.660	-1358
869.745	-660
869.830	-964
869.915	-873
870.000	-610
870.085	-823
870.169	-949
870.254	-302
870.339	-963
870.424	-1577
870.509	-993
870.593	-877
870.678	-819
870.763	-1168
870.847	-500
870.932	-1307
871.016	-1514
871.101	-1040
871.186	-465
871.270	-1180
871.355	-1709
871.439	-939
871.523	-1211
871.608	-1061
871.692	-939
871.777	-987
871.861	-1548
871.945	-1933
872.030	-932
872.114	-478
872.198	-1344
872.282	-702
872.367	-1351
872.451	-1720
872.535	-1592
872.619	-925
872.703	-1047
872.787	-1234
872.871	-892
872.955	-132
873.039	-1480
873.123	-1560
873.207	-357
873.291	-442
873.375	-1165
873.459	-636
873.543	-364
873.627	-796
873.711	-587
873.794	-1058
873.878	-2081
873.962	-338
874.045	-1375
874.129	-1470
874.137	-1446
874.213	-1200
874.245	-1047
874.296	-802
874.352	-790
874.380	-785
874.460	-1136
874.464	-1150
874.547	-1339
874.568	-1288
874.631	-1126
874.676	-1122
874.714	-1113
874.784	-282
874.798	-126
874.881	674
874.892	433
874.965	-1217
874.999	-938
875.048	-548
875.107	-1542
875.131	-1955
875.215	-1386
875.215	-1385
875.298	-1045
875.323	-1007
875.381	-889
875.430	-489
875.465	-197
875.538	-816
875.548	-912
875.631	-1984
875.646	-1869
875.714	-1214
875.753	-960
875.798	-738
875.861	-1149
875.881	-1275
875.964	-227
875.968	-250
876.047	-636
876.076	-486
876.130	-178
876.183	-1062
876.213	-1573
876.291	-792
876.296	-734
876.379	-894
876.398	-872
876.462	-924
876.506	-1052
876.545	-1052
876.613	-904
876.628	-894
876.711	-1902
876.721	-1783
876.794	-921
876.828	-1128
876.877	-1426
876.935	-851
876.960	-565
877.043	-911
877.043	-912
877.125	-1280
877.150	-1221
877.208	-1031
877.258	-771
877.291	-549
877.365	-1198
877.374	-1291
877.456	-575
877.472	-671
877.539	-1207
877.579	-1174
877.622	-936
877.687	-271
877.704	-115
877.787	-572
877.794	-619
877.869	-1289
877.901	-1158
877.952	-826
878.008	-630
878.034	-509
878.115	-606
878.117	-616
878.199	-1008
878.222	-1024
878.282	-660
878.329	-466
878.364	-456
878.437	-523
878.447	-529
878.529	-1331
878.544	-1109
878.611	-98
878.651	-340
878.694	-607
878.758	-909
878.776	-981
878.858	-879
878.865	-881
878.941	-923
878.972	-940
879.023	-1021
879.078	-1253
879.105	-1258
879.185	-1083
879.187	-1080
879.269	-562
879.292	-635
879.351	-856
879.399	-992
879.433	-1119
879.506	-16
879.516	115
879.598	-777
879.613	-792
879.680	-713
879.720	-686
879.762	-671
879.827	-898
879.844	-966
879.926	-1036
879.933	-1017
880.007	-660
880.040	-734
880.089	-962
880.147	-1121
880.171	-1102
880.253	-620
880.254	-619
880.335	-599
880.360	-462
880.417	157
880.467	189
880.499	152
880.574	845
880.580	915
880.662	-314
880.680	-286
880.744	-666
880.787	-560
880.825	-62
880.893	-639
880.907	-845
880.989	-667
881.000	-632
881.070	-232
881.106	-422
881.152	-732
881.213	-506
881.233	-378
881.315	-854
881.319	-814
881.396	-314
881.426	-456
881.478	-543
881.532	-603
881.559	-677
881.639	-613
881.641	-608
881.722	-638
881.745	-716
881.803	-936
881.852	-674
881.885	-499
881.958	-517
881.966	-525
882.047	-934
882.064	-956
882.129	-742
882.171	-401
882.210	-185
882.277	136
882.291	150
882.372	-734
882.383	-792
882.454	-773
882.489	-604
882.535	-571
882.596	-665
882.616	-660
882.697	-1229
882.702	-1209
882.778	-687
882.808	-569
882.859	-648
882.914	-784
882.940	-653
883.020	-447
883.021	-446
883.102	-589
883.127	-661
883.183	-987
883.233	-1060
883.264	-863
883.339	-234
883.345	-198
883.426	-470
883.445	-413
883.507	-228
883.551	-233
883.587	-318
883.657	-114
883.668	-101
883.749	-580
883.763	-610
883.830	-519
883.869	-485
883.910	-288
883.975	-287
883.991	-396
884.072	-515
884.081	-517
884.152	-321
884.187	-507
884.233	-815
884.292	-661
884.314	-717
884.394	-1562
884.398	-1584
884.475	-1060
884.504	-960
884.555	-936
884.610	-615
884.636	-421
884.716	-299
884.716	-296
884.797	-183
884.821	-246
884.877	-400
884.927	-581
884.958	-594
885.033	-253
885.038	-258
885.118	-503
885.139	-607
885.199	-726
885.244	-781
885.279	-627
885.350	-278
885.359	-255
885.439	-271
885.456	-274
885.520	-338
885.561	-242
885.600	-277
885.667	-473
885.680	-476
885.760	-634
885.773	-654
885.840	-750
885.878	-692
885.920	-344
885.984	-29
886.000	-123
886.080	-705
886.089	-725
886.160	-210
886.195	-44
886.240	-64
886.300	-223
886.320	-263
886.400	-392
886.406	-395
886.480	-341
886.511	-316
886.560	-62
886.616	142
886.640	91
886.720	-126
886.722	-131
886.800	-121
886.827	-169
886.879	-65
886.932	-67
886.959	-143
887.038	-31
887.039	-31
887.119	-501
887.143	-601
887.198	-160
887.248	129
887.278	-15
887.354	-299
887.358	-296
887.437	-304
887.459	-300
887.517	38
887.564	267
887.596	184
887.669	101
887.676	93
887.755	-162
887.774	-199
887.835	-102
887.880	-104
887.914	-111
887.985	-53
887.994	6
888.073	453
888.090	545
888.153	-55
888.195	-482
888.232	-379
888.300	-166
888.311	-152
888.391	-49
888.405	-50
888.470	-135
888.510	-119
888.549	-65
888.615	-58
888.628	-86
888.708	-243
888.720	-282
888.787	-604
888.825	-739
888.866	-397
888.930	139
888.945	71
889.024	-334
889.035	-388
889.103	-521
889.140	-610
889.182	-442
889.245	-155
889.261	-134
889.340	-54
889.349	-44
889.419	-148
889.454	-212
889.498	120
889.559	595
889.577	445
889.656	-224
889.664	-287
889.735	-199
889.768	-157
889.814	-18
889.873	171
889.978	-103
890.083	294
890.187	332
890.292	-630
890.397	197
890.501	380
890.606	-98
890.710	547
890.815	31
890.919	213
891.024	-258
891.128	774
891.233	394
891.337	-630
891.442	-196
891.546	42
891.650	507
891.755	-764
891.859	1115
891.963	-482
892.068	-378
892.172	-498
892.276	310
892.380	-229
892.484	-634
892.589	-238
892.693	-718
892.797	-593
892.901	-69
893.005	365
893.109	-286
893.213	692
893.317	-172
893.421	750
893.525	-692
893.629	-69
893.733	-149
893.837	-331
893.941	-366
894.045	527
894.148	-938
894.252	-972
894.356	191
894.460	-18
894.564	183
894.667	-332
894.771	-625
894.875	-757
894.978	-240
895.082	-414
895.186	-274
895.289	96
895.393	-692
895.496	456
895.600	-314
895.703	-563
895.807	-163
895.910	140
896.014	566
896.117	-338
896.221	-488
896.324	-9
896.427	-370
896.531	-391
896.634	43
896.737	217
896.840	-34
896.944	-262
897.047	140
897.150	-503
897.253	-257
897.356	-268
897.460	-64
897.563	-271
897.666	-469
897.769	-329
897.872	-1035
897.975	-404
898.078	60
898.181	-835
898.284	-902
898.387	-236
898.490	89
898.593	354
898.695	-49
898.798	-610
898.901	-749
899.004	266
899.107	188
899.209	160
899.312	-14
899.415	358
899.518	-862
899.620	-365
899.723	492
899.826	-415
899.928	-76
900.031	-586
900.133	-1413
900.236	212
900.338	490
900.441	-139
900.543	-45
900.646	-131
900.748	221
900.851	-527
900.953	-156
901.055	-512
901.158	-408
901.260	-752
901.362	-875
901.465	-654
901.567	-167
901.669	35
901.771	-697
901.873	-1188
901.976	-197
902.078	-268
902.180	-472
902.282	-871
902.384	-779
902.486	-567
902.588	73
902.690	-927
902.792	54
902.894	58
902.996	-513
903.098	-785
903.200	-152
903.302	-126
903.404	204
903.505	-95
903.607	342
903.709	-135
903.811	160
903.913	-63
904.014	136
904.116	-586
904.218	97
904.319	644
904.421	-235
904.523	-437
904.624	696
904.726	-600
904.827	433
904.929	-147
905.030	328
905.132	-188
905.233	435
905.335	-582
905.436	-333
905.537	-422
905.639	536
905.740	-946
905.841	-253
905.943	-658
906.044	-960
906.145	-320
906.247	-234
906.348	-15
906.449	305
906.550	-735
906.651	-244
906.752	-177
906.854	-389
906.955	-1230
907.056	-343
907.157	-432
907.258	-281
907.359	-40
907.460	-279
907.561	-257
907.662	10
907.762	-424
907.863	-341
907.964	586
908.065	352
908.166	-551
908.267	-175
908.367	-644
908.468	-699
908.569	-46
908.670	-326
908.770	200
908.871	-286
908.971	-89
909.072	-437
909.173	-777
909.273	121
909.374	-234
909.474	-454
909.575	-308
909.675	322
909.776	-323
909.876	-519
909.977	132
910.077	57
910.177	-405
910.278	-227
910.378	-637
910.478	-1104
910.579	-971
910.679	499
910.779	-202
910.879	-855
910.980	-558
911.080	-247
911.180	-802
911.280	-102
911.380	-740
911.480	187
911.580	-1166
911.680	-734
911.780	-670
911.880	193
911.980	-340
912.080	280
912.180	1
912.280	-265
912.380	-269
912.480	-344
912.580	33
912.679	-1328
912.779	-27
912.879	-1105
912.979	-69
913.078	-1247
913.178	-774
913.278	388
913.377	-122
913.477	-415
913.577	-32
913.676	-686
913.776	155
913.875	-443
913.975	-166
914.074	-76
914.174	313
914.273	-1049
914.373	-639
914.472	84
914.572	-344
914.671	70
914.770	-1493
914.870	-650
914.969	-8
915.068	-1043
915.167	168
915.267	-217
915.366	-172
915.465	-516
915.564	-702
915.663	154
915.763	-435
915.862	-73
915.961	-325
916.060	-872
916.159	-913
916.258	-960
916.357	-455
916.456	242
916.555	-806
916.654	-348
916.752	-266
916.851	-356
916.950	-518
917.049	291
917.148	-125
917.247	-137
917.345	-677
917.444	-626
917.543	228
917.642	-727
917.740	-872
917.839	-1447
917.937	-326
918.036	-330
918.135	260
918.233	160
918.332	-253
918.430	90
918.529	-820
918.627	-352
918.726	-531
918.824	-8
918.923	165
919.021	809
919.119	-721
919.218	-790
919.316	-482
919.414	-760
919.512	-479
919.611	240
919.709	-346
919.807	173
919.905	175
920.003	-612
920.102	-336
920.200	-243
920.298	-444
920.396	-261
920.494	-138
920.592	-1043
920.690	-633
920.788	-82
920.886	-300
920.984	301
921.082	-360
921.180	115
921.277	-254
921.375	112
921.473	-868
921.571	-672
921.669	94
921.766	-733
921.864	-49
921.962	397
922.060	-52
922.157	151
922.255	-496
922.352	-549
922.450	361
922.548	-634
922.645	-944
922.743	-898
922.840	-493
922.938	-137
923.035	-100
923.133	-163
923.230	-961
923.327	-708
923.425	-652
923.522	-577
923.619	-1566
923.717	-435
923.814	175
923.911	-12
924.008	652
924.106	-472
924.203	-652
924.300	-539
924.397	-316
924.494	-446
924.591	-553
924.688	-523
924.786	-586
924.883	444
924.979	-318
925.077	84
925.173	-487
925.270	-739
925.367	-519
925.464	-91
925.561	-756
925.658	-525
925.755	-819
925.852	358
925.948	131
926.045	-493
926.142	-820
926.239	-1192
926.335	-589
926.432	-418
926.529	-345
926.625	-183
926.722	-197
926.818	-948
926.915	-593
927.011	-312
927.108	-392
927.204	-909
927.301	-600
927.397	-168
927.494	-780
927.590	-717
927.687	-682
927.783	-1317
927.879	-593
927.976	-581
928.072	-303
928.168	-549
928.264	-587
928.361	-598
928.457	61
928.553	-849
928.649	-724
928.745	-525
928.841	-634
928.937	-206
929.033	-177
929.129	-718
929.225	-295
929.321	-889
929.417	-947
929.513	-825
929.609	-1366
929.705	-234
929.801	-1035
929.897	-598
929.993	-1469
930.089	-1220
930.184	-1157
930.280	-805
930.376	-511
930.471	-1790
930.567	-1133
930.663	-145
930.758	-357
930.854	-377
930.950	-660
931.045	-971
931.141	-583
931.236	-351
931.332	-762
931.427	-729
931.523	-234
931.618	-979
931.714	-904
931.809	-492
931.905	-823
932.000	-1085
932.095	-678
932.191	-618
932.286	-666
932.381	-849
932.476	-724
932.572	-712
932.667	-437
932.762	-395
932.857	-546
932.952	-1193
933.047	-534
933.142	115
933.237	-507
933.332	-1200
933.427	-848
933.522	-505
933.617	422
933.712	-546
933.807	-156
933.902	-61
933.997	-1123
934.092	-598
934.187	-655
934.282	-1046
934.376	-832
934.471	-834
934.566	-621
934.661	-1067
934.755	-859
934.850	-564
934.945	-391
935.039	-397
935.134	-214
935.228	-1552
935.323	-1517
935.417	-1105
935.512	-1140
935.606	-943
935.701	-773
935.795	-747
935.890	-666
935.984	-720
936.079	-1108
936.173	-1269
936.267	-791
936.362	-1074
936.456	-1265
936.550	-1636
936.644	-1064
936.738	-1284
936.833	-826
936.927	-864
937.021	-1305
937.115	-1637
937.209	-1749
937.303	4
937.397	-1021
937.491	-512
937.585	-1371
937.679	-485
937.773	-889
937.867	-588
937.961	-12
938.055	-752
938.149	-412
938.243	-362
938.337	-272
938.430	-497
938.524	-699
938.618	-272
938.712	-903
938.805	-864
938.899	-1027
938.993	-1265
939.086	-944
939.180	-326
939.274	-1638
939.367	-756
939.461	-1103
939.554	-406
939.648	-1178
939.741	-1815
939.835	-1250
939.928	-1082
940.022	-894
940.115	-494
940.208	-685
940.302	-735
940.395	-1003
940.488	-1474
940.582	-932
940.675	-1029
940.768	-735
940.861	-1010
940.954	-1496
941.048	-781
941.141	-1185
941.234	-1682
941.327	-698
941.420	-587
941.513	-936
941.606	-1143
941.699	-395
941.792	-947
941.885	-1477
941.978	-1439
942.071	-736
942.164	-2083
942.257	-880
942.349	-1514
942.442	-1848
942.535	-656
942.628	-1394
942.721	-1169
942.813	-2040
942.906	39
942.999	-1498
943.091	-1009
943.184	-2014
943.277	-1041
943.369	-98
943.462	-1415
943.554	-873
943.647	-1408
943.739	-1495
943.832	-738
943.924	-1833
944.017	-523
944.109	-1356
944.201	-1359
944.294	-558
944.386	-927
944.478	-1012
944.571	-817
944.663	-757
944.755	-1382
944.847	-1271
944.940	-1000
945.032	-2064
945.124	-706
945.216	-166
945.308	-1400
945.400	-1010
945.492	-938
945.584	-959
945.676	-1179
945.768	-1883
945.860	-708
945.952	-464
946.044	-315
946.136	-1743
946.228	-1467
946.320	-1034
946.412	-1458
946.503	-1854
946.595	-314
946.687	-1231
946.779	-1271
946.870	-221
946.962	-1224
947.054	-657
947.145	-902
947.237	-913
947.329	-1091
947.420	-1323
947.512	-279
947.603	-1016
947.695	-1652
947.786	-1080
947.878	-1208
947.969	-1136
948.061	-1707
948.152	-938
948.243	-818
948.335	-438
948.426	-1302
948.517	-1368
948.609	-1129
948.700	-444
948.791	-1202
948.882	-1278
948.973	-544
949.065	-765
949.156	-1220
949.247	-1154
949.338	-773
949.429	-1510
949.520	-935
949.611	-2290
949.702	-920
949.793	-1324
949.884	-843
949.975	-1449
950.066	-1112
950.157	-1723
950.247	-1573
950.338	-2126
950.429	-1613
950.520	-421
950.611	-872
950.701	-1497
950.792	-937
950.883	-830
950.973	-1623
951.064	-920
951.155	-1213
951.245	-1173
951.336	-1205
951.427	-1901
951.517	-792
951.608	-788
951.698	-1631
951.788	-1720
951.879	-916
951.969	-2254
952.060	-1901
952.150	-685
952.240	-745
952.331	-2307
952.421	57
952.511	-1709
952.602	-1159
952.692	-1675
952.782	-1211
952.872	-1347
952.962	-665
953.052	-1270
953.143	-1162
953.233	-1179
953.323	-998
953.413	-2233
953.503	-1040
953.593	-1020
953.683	-989
953.773	-1841
953.863	-681
953.953	-610
954.042	-1186
954.132	-1508
954.222	-1020
954.312	-507
954.402	-1473
954.492	-1319
954.581	-737
954.671	-1511
954.761	-1079
954.850	-25
954.940	-1029
955.030	-1874
955.119	-588
955.209	-737
955.298	-1337
955.388	-746
955.477	326
955.567	-1423
955.656	-979
955.746	-1326
955.835	-1416
955.925	-1354
956.014	-1968
956.103	-1546
956.193	-981
956.282	-1194
956.371	-666
956.461	-1280
956.550	-1033
956.639	-773
956.728	-2137
956.817	-617
956.906	-1737
956.995	-1398
957.085	-1218
957.174	-1189
957.263	-1586
957.352	-1011
957.441	-1248
957.530	-1667
957.619	-1570
957.708	-915
957.796	-784
957.885	-1312
957.974	-1333
958.063	-1121
958.152	-2092
958.241	-1645
958.329	-1087
958.418	-1210
958.507	-1582
958.596	-840
958.684	-696
958.773	-1461
958.861	-1401
958.950	-674
959.039	-1408
959.127	-1617
959.216	-757
959.304	-1292
959.393	-686
959.481	-880
959.570	-888
959.658	-1498
959.746	-1248
959.835	-991
959.923	-1377
960.011	-1996
960.100	-357
960.188	-235
960.276	-1553
960.365	-1345
960.453	-1488
960.541	-1328
960.629	-1175
960.717	-1330
960.805	-1412
960.893	-743
960.981	-1622
961.069	-1297
961.158	-1414
961.245	-911
961.333	-1480
961.421	-2204
961.509	-991
961.597	-1013
961.685	-1383
961.773	-1320
961.861	-1680
961.949	-689
962.036	-1299
962.124	-707
962.212	-678
962.299	-1805
962.387	-1062
962.475	-1310
962.562	-1871
962.650	181
962.738	-789
962.825	-565
962.913	-359
963.000	-1172
963.088	-902
963.175	-2100
963.263	-1836
963.350	-1493
963.438	-1353
963.525	-1948
963.612	-1476
963.700	-2152
963.787	-142
963.874	-1117
963.962	-508
964.049	-1068
964.136	-1426
964.223	-2073
964.310	-1566
964.398	-1605
964.485	-1369
964.572	-1412
964.659	-994
964.746	-1567
964.833	-1905
964.920	-912
965.007	-596
965.094	-778
965.181	-917
965.268	-1634
965.355	-1408
965.441	-1549
965.528	-1304
965.615	-898
965.702	-539
965.789	-1454
965.875	-1151
965.962	-823
966.049	-1654
966.136	-1864
966.222	-1485
966.309	-812
966.395	-2039
966.482	-695
966.569	-1908
966.655	-1413
966.742	-1622
966.828	-859
966.915	-962
967.001	-1074
967.087	-1112
967.174	-1917
967.260	-847
967.347	-829
967.433	-803
967.519	-211
967.605	-1423
967.692	-1805
967.778	-1746
967.864	-1951
967.950	-1877
968.036	-1860
968.123	-1253
968.209	-1387
968.295	-2442
968.381	433
968.467	-975
968.553	-2085
968.639	-616
968.725	-1774
968.811	-1334
968.897	-395
968.983	-1030
969.069	-2178
969.154	-272
969.240	-318
969.326	-1101
969.412	-1503
969.497	-1811
969.583	-1493
969.669	-674
969.755	-681
969.840	-1335
969.926	-619
970.012	-1509
970.097	-1317
970.183	-1123
970.268	-1485
970.354	-1193
970.439	-2236
970.525	-208
970.610	-2198
970.696	-180
970.781	-628
970.866	-3125
970.952	-1059
971.037	-1926
971.122	-1363
971.208	-1022
971.293	-1832
971.378	-2006
971.463	-1775
971.549	-480
971.634	-855
971.719	-1347
971.804	-1320
971.889	-679
971.974	-1711
972.059	-1149
972.144	-1245
972.229	-1413
972.314	-924
972.399	-1170
972.484	-2000
972.569	-629
972.654	-1617
972.739	-1056
972.824	-1482
972.908	-2023
972.993	-1817
973.078	-1110
973.163	-1531
973.247	-1498
973.332	-2820
973.417	-521
973.501	-1454
973.586	-929
973.671	-1863
973.755	-1851
973.840	-1017
973.924	-628
974.009	-1149
974.093	-2325
974.178	-1342
974.262	-1284
974.346	-1506
974.431	-1046
974.515	-1628
974.600	-1243
974.684	-1390
974.768	-1923
974.852	-1230
974.937	-1923
975.021	-629
975.105	-1972
975.189	-1853
975.273	-755
975.358	-1807
975.442	-2156
975.526	-927
975.610	-1468
975.694	-2613
975.778	498
975.862	-1351
975.946	-2933
976.030	-243
976.114	-1446
976.198	-1134
976.281	-1979
976.365	-333
976.449	-1712
976.533	-1131
976.617	-1686
976.700	-1288
976.784	-848
976.868	-1837
976.951	-1349
977.035	-959
977.119	-1331
977.202	-1252
977.286	-900
977.369	-1071
977.453	-1088
977.536	-1316
977.620	-1932
977.703	-1928
977.787	-1625
977.870	-762
977.953	-864
978.037	-1638
978.120	-777
978.203	-2642
978.287	-1275
978.370	-2351
978.453	-1348
978.536	-1841
978.620	-454
978.703	-1482
978.786	-1960
978.869	-1578
978.952	-2573
979.035	-536
979.118	-1728
979.201	-1939
979.284	-1449
979.367	-1975
979.450	-888
979.533	-2995
979.616	-2068
979.699	-2067
979.782	-1317
979.865	-2082
979.948	-1314
980.030	-1629
980.113	-1492
980.196	-2993
980.279	-1575
980.361	-2159
980.444	-1240
980.526	-1835
980.609	-1192
980.692	-2233
980.774	-1170
980.857	-2247
980.939	-307
981.022	-2129
981.104	-1922
981.187	-1366
981.269	-1338
981.352	-1407
981.434	-2246
981.516	-1564
981.599	-815
981.681	-1465
981.763	-1828
981.846	-1429
981.928	-1357
982.010	-1506
982.092	-1919
982.174	-1110
982.256	-1710
982.339	-1889
982.421	-946
982.503	-1224
982.585	-2358
982.667	-1414
982.749	-1581
982.831	-1024
982.913	-2446
982.995	-848
983.077	-2752
983.158	-274
983.240	-2637
983.322	-307
983.404	-1009
983.486	-2010
983.568	-1507
983.649	-1929
983.731	-1089
983.813	-2161
983.894	-1561
983.976	-2310
984.058	-1649
984.139	-1125
984.221	-2829
984.302	-1625
984.384	-1890
984.465	-2123
984.547	-1028
984.628	-2531
984.710	-1307
984.791	-1638
984.872	-1465
984.954	-1663
985.035	-1300
985.116	-1974
985.198	-2396
985.279	-1010
985.360	-2589
985.441	-2267
985.522	-1010
985.604	-2201
985.685	-3281
985.766	-988
985.847	-687
985.928	-2069
986.009	-1978
986.090	-1917
986.171	-1434
986.252	-1021
986.333	-1314
986.414	-1614
986.495	-741
986.576	-2043
986.656	-1647
986.737	-1613
986.818	-1795
986.899	-2244
986.980	-1542
987.060	-675
987.141	-2388
987.222	-1278
987.302	-1919
987.383	-1195
987.464	-2311
987.544	-1725
987.625	-1647
987.705	-1533
987.786	-1415
987.866	-2425
987.947	-2056
988.027	-1956
988.108	-2010
988.188	-1481
988.268	-1885
988.349	-1488
988.429	-1484
988.509	-1703
988.589	-1597
988.670	-3118
988.750	-80
988.830	-1693
988.910	-1735
988.990	-2187
989.070	-967
989.151	-1568
989.231	-1966
989.311	-1437
989.391	-1435
989.471	-2111
989.551	-2125
989.631	-1861
989.711	-1248
989.791	-2108
989.870	-1990
989.950	-886
990.030	-2042
990.110	-1725
990.190	-1704
990.269	-1379
990.349	-1308
990.429	-783
990.509	-928
990.588	-1963
990.668	-1796
990.747	-1730
990.827	-2345
990.907	-1202
990.986	-1992
991.066	-1933
991.145	-1786
991.225	-1322
991.304	-2001
991.383	-1285
991.463	-1776
991.542	-1720
991.622	-1988
991.701	-2481
991.780	-1979
991.859	-2024
991.939	-1639
992.018	-1736
992.097	-1826
992.176	-2020
992.256	-1972
992.335	-1774
992.414	-1478
992.493	-2287
992.572	-2519
992.651	-1187
992.730	-1551
992.809	-1995
992.888	-2015
992.967	-2507
993.046	-2213
993.125	-2702
993.203	-2301
993.282	-1696
993.361	-1870
993.440	-1676
993.519	-2192
993.597	-1961
993.676	-2553
993.755	-1354
993.834	-1417
993.912	-2580
993.991	-1223
994.069	-2077
994.148	-1855
994.226	-1764
994.305	-1832
994.384	-2310
994.462	-1037
994.540	-2139
994.619	-2253
994.697	-1029
994.776	-2187
994.854	-2160
994.932	-1509
995.011	-1748
995.089	-1707
995.167	-2280
995.245	-1615
995.324	-2370
995.402	-668
995.480	-2699
995.558	-1595
995.636	-2504
995.714	-2168
995.792	-809
995.870	-2668
995.948	-2196
996.026	-1298
996.104	-2992
996.182	-1218
996.260	-2602
996.338	-1676
996.416	-2573
996.494	-1889
996.572	-1512
996.649	-2175
996.727	-2230
996.805	-944
996.883	-2176
996.960	-1382
997.038	-1684
997.116	-1535
997.193	-2681
997.271	-1272
997.348	-1319
997.426	-2082
997.504	-2413
997.581	-931
997.658	-1587
997.736	-2210
997.813	-2513
997.891	-1367
997.968	-2099
998.046	-2015
998.123	-1410
998.200	-1160
998.277	-2951
998.355	-1377
998.432	-3286
998.509	-1907
998.586	-1626
998.663	-1235
998.741	-2117
998.818	-1336
998.895	-1912
998.972	-1945
999.049	-1663
999.126	-2384
999.203	-1428
999.280	-1535
999.357	-2324
999.434	-2276
999.511	-1749
999.587	-837
999.664	-942
999.741	-1809
999.818	-1534
999.895	-2302
999.971	-2175
1000.048	-2512
1000.125	-1753
1000.202	-1841
1000.278	-1816
1000.355	-1598
1000.431	-2293
1000.508	-2411
1000.584	-1720
1000.661	-1357
1000.738	-2218
1000.814	-1885
1000.890	-1342
1000.967	-1933
1001.043	-1567
1001.120	-2411
1001.196	-1877
1001.272	-2194
1001.349	-1729
1001.425	-1931
1001.501	-2540
1001.577	-1545
1001.654	-1721
1001.730	-1577
1001.806	-1836
1001.882	-2529
1001.958	-1635
1002.034	-1598
1002.110	-2335
1002.186	-2034
1002.262	-2443
1002.338	-2711
1002.414	-1352
1002.490	-1604
1002.566	-1956
1002.642	-1830
1002.718	-1955
1002.794	-1574
1002.870	-2575
1002.945	-1848
1003.021	-1905
1003.097	-1941
1003.173	-1379
1003.248	-2183
1003.324	-1945
1003.400	-1202
1003.475	-2714
1003.551	-1785
1003.626	-1647
1003.702	-2143
1003.777	-1775
1003.853	-2482
1003.928	-2098
1004.004	-2699
1004.079	-2317
1004.155	-1630
1004.230	-2980
1004.305	-667
1004.381	-1846
1004.456	-1901
1004.531	-1186
1004.607	-1776
1004.682	-2008
1004.757	-1733
1004.832	-1928
1004.907	-1663
1004.982	-1837
1005.057	-1760
1005.133	-1908
1005.208	-2365
1005.283	-2646
1005.358	-974
1005.433	-1601
1005.508	-1636
1005.583	-2668
1005.657	-2075
1005.732	-1472
1005.807	-2483
1005.882	-2394
1005.957	-875
1006.032	-1733
1006.106	-1958
1006.181	-2162
1006.256	-1359
1006.331	-2470
1006.405	-2242
1006.480	-1847
1006.554	-2124
1006.629	-1875
1006.704	-2225
1006.778	-1542
1006.853	-921
1006.927	-1953
1007.002	-2693
1007.076	-1735
1007.150	-1823
1007.225	-1957
1007.299	-1041
1007.373	-2877
1007.448	-2214
1007.522	-2148
1007.596	-1630
1007.671	-2215
1007.745	-1683
1007.819	-2818
1007.893	-1805
1007.967	-1849
1008.041	-2819
1008.115	-1363
1008.190	-2119
1008.264	-1488
1008.338	-2541
1008.412	-2805
1008.486	-1575
1008.560	-1821
1008.633	-2372
1008.707	-2265
1008.781	-1807
1008.855	-2001
1008.929	-2075
1009.003	-2209
1009.076	-2170
1009.150	-2322
1009.224	-1666
1009.298	-1892
1009.371	-2286
1009.445	-2205
1009.519	-2015
1009.592	-3129
1009.666	-1910
1009.739	-2095
1009.813	-2111
1009.886	-1688
1009.960	-2269
1010.033	-1703
1010.107	-1086
1010.180	-3025
1010.253	-1938
1010.327	-2651
1010.400	-2209
1010.473	-1626
1010.547	-877
1010.620	-1727
1010.693	-1680
1010.766	-2804
1010.840	-1250
1010.913	-2309
1010.986	-2957
1011.059	-2210
1011.132	-2216
1011.205	-2388
1011.278	-2290
1011.351	-2435
1011.424	-1551
1011.497	-2837
1011.570	-1883
1011.643	-2065
1011.716	-2181
1011.789	-2479
1011.862	-1960
1011.934	-1544
1012.007	-2385
1012.080	-2331
1012.153	-2211
1012.225	-1689
1012.298	-2833
1012.371	-2524
1012.443	-1600
1012.516	-3274
1012.588	-1596
1012.661	-1695
1012.733	-2078
1012.806	-1330
1012.879	-1997
1012.951	-2368
1013.023	-2126
1013.096	-2100
1013.168	-2505
1013.241	-1951
1013.313	-1663
1013.385	-2507
1013.458	-2098
1013.530	-2132
1013.602	-2305
1013.674	-1164
1013.746	-2344
1013.819	-2663
1013.891	-1341
1013.963	-3208
1014.035	-2116
1014.107	-1510
1014.179	-1569
1014.251	-2036
1014.323	-1365
1014.395	-1679
1014.467	-1343
1014.539	-2361
1014.611	-2065
1014.683	-2612
1014.754	-1276
1014.826	-2398
1014.898	-1378
1014.970	-2865
1015.042	-1214
1015.113	-1850
1015.185	-2541
1015.257	-2793
1015.328	-2535
1015.400	-2571
1015.471	-2520
1015.543	-3051
1015.615	-1764
1015.686	-2476
1015.757	-2506
1015.829	-2063
1015.901	-2078
1015.972	-2143
1016.043	-2368
1016.115	-1259
1016.186	-1881
1016.257	-2586
1016.328	-1704
1016.400	-2358
1016.471	-1689
1016.542	-1752
1016.613	-2065
1016.685	-1811
1016.756	-1563
1016.827	-2260
1016.898	-2832
1016.969	-897
1017.040	-2286
1017.111	-2783
1017.182	-2314
1017.253	-1731
1017.324	-2350
1017.395	-2358
1017.466	-1249
1017.537	-2352
1017.608	-2006
1017.678	-1496
1017.749	-2813
1017.820	-2303
1017.891	-1880
1017.961	-2840
1018.032	-1580
1018.103	-1621
1018.173	-1912
1018.244	-2811
1018.315	-2336
1018.385	-1056
1018.456	-2350
1018.526	-2919
1018.597	-2361
1018.667	-2326
1018.738	-2858
1018.808	-1888
1018.878	-2388
1018.949	-2743
1019.019	-2091
1019.089	-1759
1019.160	-1745
1019.230	-2838
1019.300	-2074
1019.371	-2944
1019.441	-1979
1019.511	-2286
1019.581	-2530
1019.651	-2346
1019.721	-2691
1019.791	-2872
1019.861	-1684
1019.931	-2457
1020.001	-2108
1020.071	-2870
1020.141	-2396
1020.211	-2517
1020.281	-3018
1020.351	-1884
1020.421	-1919
1020.491	-2126
1020.560	-1918
1020.630	-2108
1020.700	-1799
1020.770	-2184
1020.839	-2152
1020.909	-2504
1020.979	-3196
1021.048	-2089
1021.118	-2059
1021.187	-2296
1021.257	-2138
1021.326	-1911
1021.396	-1561
1021.465	-2111
1021.535	-2383
1021.604	-2921
1021.674	-2500
1021.743	-1874
1021.812	-2039
1021.882	-1415
1021.951	-2461
1022.020	-3179
1022.089	-1331
1022.159	-2748
1022.228	-1756
1022.297	-2131
1022.366	-1501
1022.435	-2192
1022.504	-2085
1022.573	-2214
1022.642	-1864
1022.711	-2499
1022.781	-1940
1022.849	-2615
1022.918	-2364
1022.987	-2184
1023.056	-2413
1023.125	-2307
1023.194	-1914
1023.263	-2100
1023.331	-2247
1023.400	-2128
1023.469	-2164
1023.538	-1763
1023.606	-2437
1023.675	-2310
1023.744	-2558
1023.812	-2705
1023.881	-1950
1023.949	-1703
1024.018	-1445
1024.086	-1910
1024.155	-2547
1024.223	-2865
1024.292	-2067
1024.360	-1936
1024.429	-1736
1024.497	-2739
1024.565	-1851
1024.634	-2894
1024.702	-1891
1024.770	-2456
1024.838	-2925
1024.907	-2589
1024.975	-2841
1025.043	-1419
1025.111	-1938
1025.179	-2011
1025.247	-1550
1025.315	-2123
1025.383	-2387
1025.451	-2390
1025.519	-2553
1025.587	-2849
1025.655	-1907
1025.723	-1975
1025.791	-1672
1025.859	-1174
1025.927	-2244
1025.995	-2519
1026.062	-1808
1026.130	-2113
1026.198	-2517
1026.266	-3112
1026.333	-2034
1026.401	-1737
1026.469	-2458
1026.536	-2257
1026.604	-1318
1026.671	-1901
1026.739	-2102
1026.806	-2412
1026.874	-2573
1026.941	-2183
1027.009	-1931
1027.076	-1749
1027.144	-2160
1027.211	-2447
1027.278	-2946
1027.345	-1508
1027.413	-1742
1027.480	-2284
1027.547	-1985
1027.614	-2542
1027.682	-2007
1027.749	-2785
1027.816	-2390
1027.883	-1071
1027.950	-1457
1028.017	-2982
1028.084	-1886
1028.151	-2288
1028.218	-2064
1028.285	-2391
1028.352	-1659
1028.419	-1916
1028.486	-1568
1028.553	-1183
1028.619	-2240
1028.686	-2275
1028.753	-2578
1028.820	-2543
1028.886	-2974
1028.953	-1547
1029.020	-2528
1029.086	-1627
1029.153	-2326
1029.220	-1693
1029.286	-1677
1029.353	-1551
1029.419	-2581
1029.486	-2239
1029.552	-2766
1029.619	-3096
1029.685	-2433
1029.751	-2106
1029.818	-1330
1029.884	-2233
1029.951	-1334
1030.017	-2681
1030.083	-1961
1030.149	-2048
1030.216	-1564
1030.282	-2220
1030.348	-2356
1030.414	-2290
1030.480	-2546
1030.546	-1656
1030.612	-1718
1030.678	-2540
1030.744	-1585
1030.810	-2492
1030.876	-1907
1030.942	-2721
1031.008	-2656
1031.074	-2034
1031.140	-2727
1031.206	-1391
1031.272	-3067
1031.337	-2641
1031.403	-2207
1031.469	-1416
1031.534	-2681
1031.600	-1159
1031.666	-2646
1031.731	-2712
1031.797	-2053
1031.863	-2189
1031.928	-2839
1031.994	-2429
1032.059	-2521
1032.125	-2305
1032.190	-1878
1032.256	-2469
1032.321	-3300
1032.386	-2649
1032.452	-1893
1032.517	-2702
1032.582	-2089
1032.647	-2704
1032.713	-1818
1032.778	-2339
1032.843	-1953
1032.908	-2372
1032.974	-1817
1033.039	-1723
1033.104	-1509
1033.169	-2046
1033.234	-2645
1033.299	-2124
1033.364	-1618
1033.429	-2181
1033.494	-1997
1033.559	-2789
1033.624	-1872
1033.688	-2083
1033.753	-1996
1033.818	-2916
1033.883	-2539
1033.948	-1613
1034.013	-2033
1034.077	-2156
1034.142	-1769
1034.207	-2063
1034.271	-1830
1034.336	-1543
1034.400	-1919
1034.465	-2519
1034.530	-1508
1034.594	-1894
1034.658	-2929
1034.723	-2056
1034.787	-2265
1034.852	-1761
1034.916	-2836
1034.981	-1948
1035.045	-1722
1035.109	-2535
1035.173	-1702
1035.238	-2635
1035.302	-1943
1035.366	-2448
1035.430	-2008
1035.495	-2322
1035.559	-1929
1035.623	-1981
1035.687	-2261
1035.751	-2407
1035.815	-2257
1035.879	-2554
1035.943	-2336
1036.007	-2428
1036.071	-1377
1036.135	-2137
1036.198	-2318
1036.262	-2505
1036.326	-1935
1036.390	-2734
1036.454	-2182
1036.517	-2092
1036.581	-2847
1036.645	-2042
1036.709	-2191
1036.772	-2837
1036.836	-2520
1036.900	-2112
1036.963	-2200
1037.026	-2838
1037.090	-2484
1037.154	-2529
1037.217	-1847
1037.280	-2522
1037.344	-1302
1037.407	-2446
1037.471	-1580
1037.534	-2460
1037.597	-2067
1037.661	-2827
1037.724	-2821
1037.787	-2291
1037.850	-2230
1037.913	-2102
1037.977	-1572
1038.040	-2587
1038.103	-2526
1038.166	-1793
1038.229	-1577
1038.292	-2570
1038.355	-2154
1038.418	-1769
1038.481	-1075
1038.544	-2392
1038.607	-2504
1038.670	-2905
1038.732	-2290
1038.795	-2484
1038.858	-2093
1038.921	-2329
1038.984	-1726
1039.046	-2288
1039.109	-2772
1039.172	-1257
1039.234	-2328
1039.297	-2540
1039.360	-3198
1039.422	-2660
1039.485	-1149
1039.547	-2864
1039.610	-1955
1039.672	-3069
1039.734	-1682
1039.797	-2735
1039.859	-2392
1039.922	-2453
1039.984	-2242
1040.046	-2151
1040.109	-1893
1040.171	-2383
1040.233	-2799
1040.295	-2502
1040.358	-2871
1040.420	-2610
1040.482	-1636
1040.544	-2924
1040.606	-1983
1040.668	-2567
1040.730	-1780
1040.792	-2451
1040.854	-2922
1040.916	-2365
1040.978	-2556
1041.040	-1741
1041.102	-1729
1041.164	-2199
1041.225	-2232
1041.287	-2906
1041.349	-2552
1041.411	-2604
1041.472	-1917
1041.534	-2172
1041.596	-2929
1041.657	-1178
1041.719	-1739
1041.781	-2050
1041.842	-1387
1041.904	-2768
1041.965	-2724
1042.027	-2456
1042.088	-2009
1042.150	-2457
1042.211	-1504
1042.272	-1850
1042.334	-2100
1042.395	-2204
1042.456	-2175
1042.518	-1754
1042.579	-1346
1042.640	-2008
1042.701	-1852
1042.763	-2633
1042.824	-2264
1042.885	-2389
1042.946	-2462
1043.007	-1858
1043.068	-2010
1043.129	-1844
1043.190	-2196
1043.251	-1430
1043.312	-2293
1043.373	-3112
1043.434	-1808
1043.495	-2196
1043.556	-1193
1043.616	-2620
1043.677	-2112
1043.738	-2771
1043.799	-1992
1043.859	-1293
1043.920	-2729
1043.981	-2646
1044.041	-1651
1044.102	-2102
1044.162	-1823
1044.223	-2168
1044.284	-2480
1044.344	-2611
1044.405	-2350
1044.465	-2089
1044.525	-2627
1044.586	-1555
1044.646	-1868
1044.707	-1717
1044.767	-1527
1044.827	-2434
1044.887	-2132
1044.948	-2409
1045.008	-2241
1045.068	-1991
1045.128	-1427
1045.188	-2246
1045.249	-2059
1045.309	-1511
1045.369	-1895
1045.429	-2024
1045.489	-2566
1045.549	-2100
1045.609	-2493
1045.669	-2759
1045.729	-1325
1045.789	-2260
1045.848	-1391
1045.908	-1544
1045.968	-2290
1046.028	-2133
1046.088	-1767
1046.147	-1257
1046.207	-1652
1046.267	-1549
1046.326	-1580
1046.386	-1464
1046.446	-1223
1046.505	-1826
1046.565	-601
1046.624	-1419
1046.684	-1712
1046.743	-1504
1046.803	-1444
1046.862	-268
1046.922	0
