'Start Wavelength	183.907
'End Wavelength	1046.922
'Gate Delay	5.000
'Gate Width (ms)	1.050
'Laser Output Level	0.000
'X Position	0.000
'Y Position	0.000
'Z Position	0.000
'Grid Point Number	1.000
'Shot Number	100.000
183.907	411.000
183.977	-113.000
184.047	-558
184.116	313
184.186	222
184.256	-64
184.325	189
184.395	-548
184.465	656
184.534	-307
184.604	-534
184.674	332
184.743	312
184.813	121
184.883	480
184.952	394
185.022	141
185.092	-274
185.161	-345
185.231	18
185.301	-131
185.370	227
185.440	221
185.509	9
185.579	-41
185.649	-19
185.718	-75
185.788	-117
185.857	-520
185.927	-251
185.996	-746
186.066	-537
186.136	-158
186.205	-553
186.275	-69
186.344	-66
186.414	56
186.483	5
186.553	1266
186.622	159
186.692	45
186.761	564
186.831	-151
186.900	-553
186.970	-339
187.039	-159
187.109	-98
187.178	-139
187.248	-320
187.317	767
187.387	-615
187.456	-353
187.526	-645
187.595	0
187.664	-501
187.734	290
187.803	-48
187.873	303
187.942	-81
188.012	-379
188.081	-146
188.150	-262
188.220	-904
188.289	491
188.358	-114
188.428	343
188.497	-225
188.567	397
188.636	-721
188.705	275
188.775	81
188.844	-880
188.913	304
188.983	-358
189.052	-410
189.121	50
189.191	-328
189.260	706
189.329	-386
189.399	-579
189.468	297
189.537	-1054
189.606	-461
189.676	202
189.745	-151
189.814	-32
189.883	498
189.953	-302
190.022	234
190.091	-492
190.161	76
190.230	-31
190.299	-528
190.368	-460
190.437	-261
190.507	338
190.576	412
190.645	-225
190.714	-278
190.783	-43
190.853	174
190.922	-432
190.991	-199
191.060	-235
191.129	-298
191.198	-1206
191.268	-927
191.337	-1034
191.406	184
191.475	360
191.544	-788
191.613	-701
191.682	-462
191.752	116
191.821	-454
191.890	-401
191.959	128
192.028	-501
192.097	24
192.166	-501
192.235	-400
192.304	-84
192.373	-71
192.442	-423
192.511	-1048
192.580	-646
192.650	270
192.719	746
192.788	-266
192.857	-37
192.926	-422
192.995	-588
193.064	-24
193.133	8
193.202	-306
193.271	279
193.340	-21
193.409	-662
193.478	-302
193.547	-54
193.615	-979
193.684	-316
193.753	-709
193.822	-261
193.891	-648
193.960	340
194.029	-792
194.098	-586
194.167	-1043
194.236	673
194.305	-622
194.374	136
194.443	-434
194.512	285
194.580	223
194.649	-211
194.718	-364
194.787	-242
194.856	-375
194.925	-33
194.994	-301
195.062	-512
195.131	-717
195.200	339
195.269	301
195.338	471
195.407	144
195.475	-698
195.544	69
195.613	-639
195.682	53
195.751	-48
195.819	-782
195.888	240
195.957	241
196.026	128
196.094	163
196.163	-268
196.232	-55
196.301	-460
196.369	-1146
196.438	-138
196.507	-709
196.576	-716
196.644	-186
196.713	-1071
196.782	-385
196.850	-307
196.919	-209
196.988	-172
197.056	-618
197.125	-212
197.194	-287
197.262	596
197.331	-21
197.400	-150
197.468	-399
197.537	-603
197.606	-395
197.674	-68
197.743	-189
197.812	-248
197.880	-782
197.949	-220
198.017	-3
198.086	-487
198.155	-248
198.223	-31
198.292	363
198.360	126
198.429	-248
198.497	-620
198.566	-707
198.635	638
198.703	35
198.772	-375
198.840	-923
198.909	-662
198.977	-459
199.046	-25
199.114	-53
199.183	-198
199.251	-478
199.320	-424
199.388	-986
199.457	-1332
199.525	703
199.594	-182
199.662	-704
199.731	-397
199.799	-840
199.867	-615
199.936	-335
200.004	-140
200.073	-371
200.141	-209
200.210	-207
200.278	-75
200.346	31
200.415	-240
200.483	-374
200.552	499
200.620	-375
200.688	44
200.757	-965
200.825	-334
200.893	-792
200.962	-491
201.030	-959
201.098	-643
201.167	232
201.235	-537
201.303	-134
201.372	-164
201.440	-492
201.508	539
201.577	12
201.645	-959
201.713	-239
201.781	-899
201.850	140
201.918	26
201.986	-421
202.055	21
202.123	-819
202.191	75
202.259	-686
202.327	-124
202.396	-556
202.464	77
202.532	-509
202.600	88
202.669	31
202.737	-43
202.805	-309
202.873	-887
202.941	-639
203.009	-422
203.078	-138
203.146	518
203.214	-38
203.282	-902
203.350	385
203.418	-436
203.487	-506
203.555	530
203.623	-181
203.691	-97
203.759	-301
203.827	-486
203.895	-365
203.963	-642
204.031	-345
204.099	-619
204.168	-458
204.236	145
204.304	-51
204.372	-131
204.440	-942
204.508	-904
204.576	-23
204.644	-316
204.712	-258
204.780	-781
204.848	-547
204.916	-799
204.984	-1218
205.052	-626
205.120	-827
205.188	-506
205.256	-821
205.324	-574
205.392	-736
205.460	-288
205.528	-415
205.596	-647
205.664	-428
205.732	-485
205.799	-910
205.867	-244
205.935	-1237
206.003	-394
206.071	-1164
206.139	-749
206.207	-540
206.275	-449
206.343	-1001
206.411	-864
206.478	-147
206.546	-602
206.614	-520
206.682	-695
206.750	-941
206.818	92
206.885	94
206.953	-1964
207.021	135
207.089	-1020
207.157	-950
207.225	-301
207.292	-507
207.360	-1113
207.428	-900
207.496	-709
207.563	-278
207.631	-605
207.699	-680
207.767	-812
207.834	-1036
207.902	-447
207.970	-682
208.038	-514
208.105	-484
208.173	-813
208.241	-655
208.309	-567
208.376	-757
208.444	-308
208.512	103
208.579	-1287
208.647	-630
208.715	-159
208.782	-839
208.850	-1268
208.918	-1205
208.985	-155
209.053	-1147
209.120	-1318
209.188	-999
209.256	-309
209.323	-1289
209.391	-782
209.459	1130
209.526	-617
209.594	-691
209.661	-812
209.729	-455
209.796	-850
209.864	-458
209.932	-1864
209.999	1040
210.067	-267
210.134	-940
210.202	-435
210.269	274
210.337	35
210.404	-482
210.472	291
210.539	125
210.607	-992
210.674	-1494
210.742	-617
210.809	-71
210.877	-550
210.944	-197
211.012	-1301
211.079	341
211.146	-199
211.214	60
211.281	-520
211.349	-240
211.416	224
211.484	6
211.551	-638
211.618	-794
211.686	-372
211.753	-1515
211.821	-622
211.888	-567
211.955	-12
212.023	-238
212.090	-437
212.157	-263
212.225	-1695
212.292	-201
212.359	-1143
212.427	-48
212.494	-1011
212.561	-569
212.629	-1183
212.696	-323
212.763	92
212.831	-1157
212.898	87
212.965	-920
213.032	-479
213.100	-372
213.167	-835
213.234	61
213.301	-941
213.369	-851
213.436	-614
213.503	-1206
213.570	265
213.638	-825
213.705	-1042
213.772	-878
213.839	-949
213.906	469
213.973	-923
214.041	-902
214.108	54
214.175	-398
214.242	-598
214.309	-1030
214.376	-1099
214.444	-1132
214.511	-1367
214.578	139
214.645	-316
214.712	-420
214.779	-820
214.846	-1266
214.913	-172
214.980	-335
215.048	-401
215.115	461
215.182	235
215.249	-247
215.316	-837
215.383	357
215.450	-142
215.517	-1237
215.584	-574
215.651	-885
215.718	-317
215.785	488
215.852	-738
215.919	744
215.986	296
216.053	-564
216.120	-1397
216.187	-869
216.254	-482
216.321	-506
216.388	-365
216.455	-1155
216.522	-206
216.589	-551
216.656	-929
216.722	-372
216.789	-675
216.856	-950
216.923	-204
216.990	20
217.057	-216
217.124	-737
217.191	-1979
217.258	-848
217.324	-836
217.391	67
217.458	-1121
217.525	-834
217.592	-670
217.659	-1059
217.725	121
217.792	-621
217.859	331
217.926	-997
217.993	-487
218.059	174
218.126	-497
218.193	-756
218.260	45
218.327	-401
218.393	-587
218.460	-731
218.527	-925
218.594	-755
218.660	-598
218.727	228
218.794	-1036
218.860	-240
218.927	-670
218.994	-590
219.061	-780
219.127	-494
219.194	-430
219.261	-947
219.327	-1041
219.394	-580
219.461	-1639
219.527	-481
219.594	-673
219.661	-779
219.727	-1766
219.794	422
219.860	-1438
219.927	-666
219.994	-437
220.060	644
220.127	994
220.193	279
220.260	-724
220.326	-428
220.393	-443
220.460	-848
220.526	-1077
220.593	-984
220.659	445
220.726	-1015
220.792	-546
220.859	-856
220.925	-575
220.992	-574
221.058	414
221.125	-320
221.191	-414
221.258	-1357
221.324	-392
221.391	-832
221.457	-596
221.524	-272
221.590	-987
221.657	24
221.723	-435
221.789	-872
221.856	265
221.922	-1278
221.989	-252
222.055	-655
222.121	-2070
222.188	836
222.254	-625
222.321	-317
222.387	-1187
222.453	-328
222.520	-1165
222.586	-601
222.652	137
222.719	-759
222.785	-121
222.851	-1156
222.918	-14
222.984	-524
223.050	-340
223.116	-1930
223.183	600
223.249	-1645
223.315	-1012
223.382	-1161
223.448	-1387
223.514	-938
223.580	-469
223.647	-936
223.713	-2033
223.779	-309
223.845	204
223.911	-891
223.978	-895
224.044	-228
224.110	-1266
224.176	-662
224.242	-1375
224.309	-1185
224.375	-544
224.441	-793
224.507	-1145
224.573	-2028
224.639	85
224.705	-1693
224.772	-433
224.838	-831
224.904	-387
224.970	-904
225.036	-971
225.102	-1091
225.168	-208
225.234	-38
225.300	-959
225.366	-356
225.432	-299
225.499	118
225.565	-1104
225.631	-967
225.697	-970
225.763	-1147
225.829	161
225.895	-918
225.961	-505
226.027	-334
226.093	-727
226.159	-144
226.225	480
226.291	-402
226.357	-827
226.423	-1069
226.489	-1065
226.554	-1090
226.620	-439
226.686	-967
226.752	-643
226.818	-790
226.884	-12
226.950	373
227.016	-781
227.082	220
227.148	-1039
227.214	-407
227.279	-777
227.345	-904
227.411	-833
227.477	-295
227.543	1778
227.609	1811
227.674	1539
227.740	-149
227.806	-142
227.872	-627
227.938	-622
228.003	-385
228.069	-357
228.135	-1030
228.201	-266
228.267	-825
228.332	-370
228.398	-2000
228.464	-1146
228.530	-796
228.595	-119
228.661	-2136
228.727	-1026
228.792	651
228.858	-631
228.924	-1804
228.990	1155
229.055	-1666
229.121	-437
229.187	-1115
229.252	-1534
229.318	-560
229.384	-762
229.449	-1183
229.515	-2421
229.581	-1538
229.646	1026
229.712	-1002
229.777	-767
229.843	-972
229.909	-424
229.974	-458
230.040	-670
230.105	-1052
230.171	-1663
230.236	-732
230.302	-1136
230.368	-2438
230.433	-1213
230.499	-593
230.564	-368
230.630	-1772
230.695	-1097
230.761	-131
230.826	-2516
230.892	51
230.957	-1064
231.023	-1726
231.088	-1204
231.154	-1133
231.219	-846
231.284	-1632
231.350	385
231.415	-1913
231.481	-171
231.546	-910
231.612	-268
231.677	-1162
231.742	-1205
231.808	1017
231.873	-1794
231.939	-2521
232.004	-551
232.069	-265
232.135	-1229
232.200	-603
232.265	-467
232.331	-1094
232.396	-484
232.461	-1454
232.527	-952
232.592	-1849
232.657	-1157
232.723	-1408
232.788	-1837
232.853	-227
232.918	12
232.984	-1679
233.049	-1602
233.114	-1721
233.179	-770
233.245	-631
233.310	-147
233.375	-1436
233.440	-399
233.506	-1615
233.571	-1329
233.636	-888
233.701	-477
233.766	-1357
233.832	-914
233.897	-1259
233.962	-2281
234.027	531
234.092	40
234.157	-868
234.222	-759
234.288	-454
234.353	-703
234.418	-574
234.483	4
234.548	-577
234.613	-1252
234.678	-1063
234.743	-1523
234.808	40
234.873	-2443
234.938	46
235.004	-714
235.069	-873
235.134	-1753
235.199	-372
235.264	-501
235.329	-2180
235.394	-763
235.459	73
235.524	-1910
235.589	-93
235.654	-645
235.719	-1730
235.784	-648
235.849	-737
235.913	-787
235.978	-1000
236.043	-367
236.108	-1267
236.173	-1849
236.238	18
236.303	-1273
236.368	-1661
236.433	-709
236.498	-1878
236.563	-1136
236.627	-734
236.692	1213
236.757	553
236.822	-956
236.887	-1696
236.952	-755
237.017	-2282
237.081	-209
237.146	-2586
237.211	-14
237.276	76
237.341	1850
237.405	-1032
237.470	-887
237.535	-828
237.600	-512
237.664	471
237.729	-1235
237.794	-1982
237.859	-394
237.923	-1021
237.988	-1684
238.053	-259
238.118	-504
238.182	-1071
238.247	1131
238.312	-2201
238.376	-333
238.441	-2190
238.506	180
238.570	-1527
238.635	1079
238.700	-639
238.764	-1555
238.829	-648
238.893	-1688
238.958	-78
239.023	-1621
239.087	-1006
239.152	-362
239.216	-1054
239.281	-62
239.346	-732
239.410	-1519
239.475	-861
239.539	-518
239.604	-1603
239.668	429
239.733	529
239.797	993
239.862	5115
239.926	3124
239.991	906
240.055	68
240.120	-807
240.184	-1003
240.249	-1711
240.313	-1028
240.378	-1079
240.442	-506
240.507	-928
240.571	-875
240.635	-1355
240.700	-363
240.764	-294
240.829	-168
240.893	-1925
240.957	-895
241.022	-464
241.086	235
241.151	-2705
241.215	-2313
241.279	774
241.344	-1794
241.408	-571
241.472	-652
241.537	377
241.601	-982
241.665	-2241
241.730	-2102
241.794	-208
241.858	-1762
241.922	-624
241.987	39
242.051	-1651
242.115	-1874
242.179	-525
242.244	-992
242.308	264
242.372	-208
242.436	-1172
242.501	-569
242.565	-1848
242.629	-1170
242.693	-737
242.757	-1972
242.822	-1578
242.886	-65
242.950	-441
243.014	-1822
243.078	-807
243.142	-1182
243.206	-648
243.271	-432
243.335	-886
243.399	-288
243.463	-1037
243.527	899
243.591	-1026
243.655	-342
243.719	-1516
243.783	-78
243.847	-1212
243.911	-484
243.975	-1562
244.040	-2607
244.104	1374
244.168	-1453
244.232	-1694
244.296	-645
244.360	-511
244.424	-1837
244.488	-1674
244.552	-422
244.615	-2540
244.679	-1220
244.743	-1366
244.807	-1517
244.871	-399
244.935	-570
244.999	-2766
245.063	-1832
245.127	-419
245.191	-885
245.255	-1474
245.319	409
245.383	-2276
245.446	392
245.510	-1644
245.574	-1350
245.638	81
245.702	-2786
245.766	-530
245.829	98
245.893	-1839
245.957	-1848
246.021	-235
246.085	-1901
246.149	-1018
246.212	96
246.276	-1465
246.340	-1549
246.404	-1587
246.467	-18
246.531	-2867
246.595	-34
246.659	-584
246.722	-1637
246.786	-719
246.850	-915
246.913	-1099
246.977	-2361
247.041	-1169
247.104	-765
247.168	-822
247.232	-884
247.295	-51
247.359	-341
247.423	-1021
247.486	-1211
247.550	-618
247.614	-996
247.677	-1696
247.741	-918
247.804	-865
247.868	-296
247.932	-1570
247.995	492
248.059	-1528
248.122	-2177
248.186	729
248.249	-640
248.313	424
248.376	1047
248.440	-820
248.503	-1519
248.567	245
248.630	-1892
248.694	-732
248.757	126
248.821	389
248.884	457
248.948	-1215
249.011	740
249.075	1111
249.138	1121
249.202	-983
249.265	-1549
249.328	-38
249.392	-1902
249.455	-1072
249.519	-1160
249.582	-1229
249.645	-973
249.709	-1437
249.772	-699
249.835	-1124
249.899	-676
249.962	-848
250.025	-1767
250.089	-723
250.152	498
250.215	-1033
250.279	-1306
250.342	-687
250.405	-934
250.468	-1372
250.532	-1383
250.595	-457
250.658	-519
250.721	3821
250.785	-454
250.848	643
250.911	-563
250.974	-159
251.038	-1138
251.101	463
251.164	-565
251.227	-603
251.290	-1146
251.354	-475
251.417	1690
251.480	2163
251.543	1331
251.606	6374
251.669	3540
251.732	521
251.795	84
251.859	1444
251.922	2975
251.985	1899
252.048	-502
252.111	-428
252.174	-1806
252.237	-340
252.300	1463
252.363	-129
252.426	5460
252.489	-222
252.552	-487
252.615	-1813
252.678	442
252.741	988
252.804	-10
252.867	5807
252.930	1699
252.993	-758
253.056	578
253.119	-1278
253.182	-687
253.245	-1190
253.308	433
253.371	-1919
253.434	-1139
253.497	-1005
253.559	724
253.622	-308
253.685	-656
253.748	-623
253.811	-883
253.874	-453
253.937	-959
254.000	-673
254.062	-253
254.125	-181
254.188	194
254.251	-1027
254.314	-904
254.376	-1458
254.439	-172
254.502	-871
254.565	-1378
254.628	332
254.690	-598
254.753	-652
254.816	-1420
254.878	-968
254.941	-1228
255.004	-985
255.067	-806
255.129	-1711
255.192	-508
255.255	-2065
255.317	-1073
255.380	-686
255.443	-1167
255.505	-1362
255.568	-952
255.631	-1270
255.693	-636
255.756	-1244
255.819	-332
255.881	-591
255.944	-531
256.006	-1872
256.069	-1906
256.132	-2048
256.194	-813
256.257	-1008
256.319	-1157
256.382	-687
256.444	193
256.507	-173
256.569	-1264
256.632	-859
256.694	-1097
256.757	294
256.819	1483
256.882	-1669
256.944	-661
257.007	213
257.069	-895
257.132	-1628
257.194	-7
257.257	-1187
257.319	-2472
257.381	-1412
257.444	406
257.506	1405
257.569	1744
257.631	1100
257.693	-558
257.756	-536
257.818	-1066
257.880	-1136
257.943	-148
258.005	-1262
258.067	-651
258.130	-924
258.192	-879
258.254	-1558
258.317	-1278
258.379	-956
258.441	-481
258.503	-255
258.566	-487
258.628	-114
258.690	-1919
258.753	-963
258.815	-674
258.877	-1107
258.939	-777
259.001	-542
259.064	-958
259.126	-1664
259.188	-919
259.250	-494
259.312	-1077
259.375	-262
259.437	-786
259.499	-938
259.561	-1060
259.623	-425
259.685	-1485
259.747	-1099
259.809	-566
259.872	-261
259.934	-90
259.996	-1
260.058	-281
260.120	-1368
260.182	-1057
260.244	-328
260.306	-1153
260.368	-786
260.430	-2012
260.492	-589
260.554	422
260.616	-512
260.678	-944
260.740	-279
260.802	-1405
260.864	-545
260.926	-1049
260.988	-109
261.050	-1358
261.112	-1305
261.174	380
261.236	-432
261.298	-814
261.359	-967
261.421	213
261.483	-1236
261.545	31
261.607	-2007
261.669	46
261.731	-1237
261.793	181
261.854	-2430
261.916	-503
261.978	-1380
262.040	-770
262.102	-785
262.164	-1058
262.225	-755
262.287	-657
262.349	-1192
262.411	-1276
262.472	-292
262.534	-1190
262.596	-864
262.658	-404
262.719	-1409
262.781	-48
262.843	-2142
262.904	-461
262.966	-1152
263.028	-689
263.090	26
263.151	279
263.213	-182
263.275	-1117
263.336	-935
263.398	-373
263.459	-1516
263.521	-1263
263.583	-443
263.644	-489
263.706	-468
263.767	-1878
263.829	-1319
263.891	-1377
263.952	-1198
264.014	-1475
264.075	-1697
264.137	-843
264.198	-1218
264.260	-1397
264.321	-934
264.383	-1404
264.444	-727
264.506	-698
264.567	-917
264.629	-108
264.690	-2188
264.752	-944
264.813	-1141
264.875	-1353
264.936	-2
264.998	-972
265.059	-1469
265.120	-862
265.182	-1128
265.243	-966
265.305	-576
265.366	-317
265.427	-1422
265.489	-22
265.550	-2183
265.611	-1127
265.673	-1401
265.734	-743
265.795	-1328
265.857	-1571
265.918	-1507
265.979	-510
266.040	-336
266.102	252
266.163	-539
266.224	-744
266.286	-554
266.347	-1172
266.408	-1560
266.469	-1341
266.530	-950
266.592	-872
266.653	-630
266.714	-548
266.775	-700
266.836	-669
266.898	-1336
266.959	-1274
267.020	-1353
267.081	111
267.142	-793
267.203	-1047
267.264	-1504
267.326	331
267.387	-211
267.448	-460
267.509	-225
267.570	-1051
267.631	-1344
267.692	-1832
267.753	-466
267.814	-1800
267.875	-736
267.936	-963
267.997	-1927
268.058	-1315
268.119	-936
268.180	-1198
268.241	-1154
268.302	-743
268.363	-1258
268.424	-834
268.485	-1875
268.546	-1135
268.607	-797
268.668	-1085
268.729	-768
268.790	-1171
268.851	-1026
268.912	-1267
268.972	-2096
269.033	-1108
269.094	-1419
269.155	-1023
269.216	-1430
269.277	100
269.338	-1463
269.398	-858
269.459	-1087
269.520	-726
269.581	-1033
269.642	-1124
269.702	-1060
269.763	-667
269.824	-926
269.885	-1918
269.945	-509
270.006	-915
270.067	-1653
270.128	-707
270.188	-1603
270.249	-1744
270.310	-931
270.370	-685
270.431	-1024
270.492	-1798
270.553	-970
270.613	-976
270.674	-1066
270.734	-1727
270.795	-793
270.856	-888
270.916	-1893
270.977	-1262
271.038	-422
271.098	-611
271.159	-1582
271.219	-1799
271.280	-1172
271.340	-646
271.401	-1845
271.462	-1247
271.522	-1080
271.583	-1354
271.643	-376
271.704	-1595
271.764	-864
271.825	-1128
271.885	559
271.946	1037
272.006	-324
272.066	-180
272.127	1531
272.187	2469
272.248	504
272.308	-404
272.369	238
272.429	-295
272.489	-86
272.550	-1052
272.610	-479
272.671	-1701
272.731	-386
272.791	-1088
272.852	-832
272.912	-318
272.972	-491
273.033	-1148
273.093	-890
273.153	-831
273.214	-272
273.274	-452
273.334	540
273.394	1188
273.455	-138
273.515	1246
273.575	556
273.635	674
273.696	1097
273.756	2250
273.816	560
273.876	975
273.936	-56
273.997	140
274.057	-200
274.117	-996
274.177	35
274.237	-159
274.297	1313
274.358	-529
274.418	-264
274.478	-265
274.538	-522
274.598	-947
274.658	-345
274.718	41
274.778	-576
274.838	-1465
274.898	-1006
274.958	-359
275.018	861
275.078	327
275.138	-584
275.198	-1393
275.258	-1208
275.318	-747
275.378	-1099
275.438	-807
275.498	-893
275.558	-180
275.618	-487
275.678	-465
275.738	-203
275.798	-1153
275.858	-1293
275.918	-1262
275.978	-1366
276.038	-334
276.098	-1521
276.157	-623
276.217	203
276.277	-682
276.337	-1302
276.397	-704
276.457	-289
276.517	-755
276.576	-561
276.636	-1098
276.696	-934
276.756	-582
276.815	-1432
276.875	-146
276.935	-662
276.995	-627
277.055	-721
277.114	323
277.174	-726
277.234	-304
277.293	-441
277.353	-1162
277.413	-643
277.472	-396
277.532	-901
277.592	536
277.651	4797
277.711	12338
277.771	3203
277.830	11306
277.890	10803
277.950	6008
278.009	21143
278.069	8990
278.128	8162
278.188	13189
278.248	4594
278.307	12878
278.367	8355
278.426	2312
278.486	301
278.545	700
278.605	10
278.664	-785
278.724	205
278.783	1156
278.843	1527
278.902	230
278.962	219
279.021	1002
279.081	4163
279.140	3112
279.199	1575
279.259	1422
279.318	1999
279.378	3194
279.437	6498
279.496	18725
279.556	54672
279.615	51521
279.675	15988
279.734	8897
279.793	9677
279.853	11090
279.912	5028
279.971	3473
280.031	3165
280.090	3993
280.149	8070
280.208	9138
280.268	37027
280.327	44046
280.386	11769
280.445	5964
280.505	2727
280.564	2696
280.623	903
280.682	664
280.742	1528
280.801	369
280.860	732
280.919	-170
280.978	407
281.037	446
281.097	-764
281.156	579
281.215	121
281.274	-291
281.333	567
281.392	-278
281.451	-643
281.510	-218
281.569	-374
281.628	-625
281.688	-475
281.747	410
281.806	-393
281.865	-952
281.924	-469
281.983	-444
282.042	-460
282.101	-939
282.160	-44
282.219	-557
282.278	-720
282.337	249
282.396	-432
282.454	-3
282.513	-951
282.572	-302
282.631	-962
282.690	-708
282.749	-870
282.808	-800
282.867	394
282.926	-165
282.985	-481
283.043	-263
283.102	-616
283.161	-708
283.220	-21
283.279	486
283.338	-172
283.396	201
283.455	-330
283.514	-128
283.573	233
283.631	-132
283.690	-145
283.749	-40
283.808	388
283.866	339
283.925	527
283.984	456
284.043	-100
284.101	593
284.160	438
284.219	626
284.277	1237
284.336	968
284.395	1979
284.453	2196
284.512	2770
284.570	2087
284.629	3780
284.688	4955
284.746	6242
284.805	7869
284.863	10226
284.922	13477
284.981	16121
285.039	21252
285.098	30862
285.156	42159
285.215	36121
285.273	35335
285.332	41901
285.390	35131
285.449	25184
285.507	19131
285.566	14024
285.624	9863
285.683	7731
285.741	5296
285.799	5336
285.858	4091
285.916	3862
285.975	2196
286.033	1471
286.091	1384
286.150	1365
286.208	1848
286.267	702
286.325	1049
286.383	85
286.442	861
286.500	-219
286.558	462
286.616	260
286.675	495
286.733	-371
286.791	227
286.850	-113
286.908	4
286.966	50
287.024	-15
287.083	-679
287.141	-205
287.199	-526
287.257	-913
287.315	-30
287.374	-1143
287.432	-599
287.490	146
287.548	-1048
287.606	-129
287.664	205
287.723	-372
287.781	-636
287.839	-908
287.897	-987
287.955	-1023
288.013	-1459
288.071	56
288.129	2380
288.187	12918
288.245	4537
288.303	607
288.361	401
288.419	-738
288.477	-1167
288.535	-401
288.593	-561
288.651	-1568
288.709	-1442
288.767	-623
288.825	-1617
288.883	-1147
288.941	-657
288.999	-573
289.057	-675
289.115	-1966
289.173	-1203
289.231	-656
289.289	-1353
289.346	-1126
289.404	-595
289.462	-1320
289.520	-1735
289.578	-506
289.636	-461
289.694	-1120
289.751	-692
289.809	-1353
289.867	-1003
289.925	-552
289.983	-747
290.040	-1127
290.098	-673
290.156	-1272
290.214	-1082
290.271	-1269
290.329	-1184
290.387	-530
290.444	-1082
290.502	-816
290.560	-937
290.617	-1580
290.675	-1505
290.733	-1408
290.790	-971
290.848	-552
290.906	-831
290.963	-724
291.021	-1372
291.078	-1249
291.136	-1225
291.194	-1347
291.251	-962
291.309	-1305
291.366	-461
291.424	-1294
291.481	-1535
291.539	-1023
291.596	162
291.654	-1351
291.711	-623
291.769	-1339
291.826	-1199
291.884	-971
291.941	-1087
291.999	-832
292.056	-1657
292.114	-1518
292.171	-1273
292.228	-882
292.286	-848
292.343	-1625
292.401	-1275
292.458	-742
292.515	-1103
292.573	-87
292.630	-1222
292.687	-1109
292.745	-1392
292.802	-1013
292.859	-144
292.917	919
292.974	-892
293.031	-462
293.089	-350
293.146	-765
293.203	-1444
293.260	-1386
293.318	-1750
293.375	-608
293.432	-909
293.489	-1076
293.546	-1048
293.604	-65
293.661	633
293.718	2805
293.775	892
293.832	453
293.889	160
293.947	1121
294.004	-1115
294.061	-420
294.118	-809
294.175	-194
294.232	1161
294.289	637
294.346	-469
294.403	-848
294.460	-290
294.517	-1129
294.574	-895
294.631	-1215
294.688	-883
294.745	-943
294.802	868
294.859	-67
294.916	-1753
294.973	-398
295.030	-1631
295.087	-743
295.144	-511
295.201	-1224
295.258	-668
295.315	-1471
295.372	-576
295.429	-1114
295.486	-697
295.542	-1537
295.599	-1043
295.656	-640
295.713	-1333
295.770	381
295.827	-955
295.883	-724
295.940	-1940
295.997	-801
296.054	-1823
296.111	-1529
296.167	-480
296.224	-917
296.281	-1734
296.338	-1769
296.394	-1229
296.451	-608
296.508	-1695
296.564	-679
296.621	-166
296.678	785
296.734	1744
296.791	-310
296.848	-735
296.904	-976
296.961	-1110
297.018	-523
297.074	9
297.131	-898
297.187	-1433
297.244	-715
297.301	49
297.357	2234
297.414	-955
297.470	-1449
297.527	-647
297.583	-1248
297.640	-596
297.696	-1835
297.753	-1398
297.809	-961
297.866	-2150
297.922	-1853
297.979	-1027
298.035	-1377
298.092	-1620
298.148	-669
298.204	-352
298.261	-783
298.317	185
298.374	1511
298.430	184
298.486	-1079
298.543	-1603
298.599	-656
298.656	-1692
298.712	-655
298.768	-1399
298.824	-1424
298.881	-1345
298.937	-873
298.993	-966
299.050	-1508
299.106	-1441
299.162	-1834
299.218	-780
299.275	-1982
299.331	-1045
299.387	179
299.443	1325
299.500	5978
299.556	4404
299.612	712
299.668	719
299.724	4247
299.780	6408
299.837	995
299.893	441
299.949	3229
300.005	5201
300.061	3825
300.117	7000
300.173	3095
300.229	364
300.285	-168
300.341	-468
300.397	-259
300.453	-486
300.510	-254
300.566	-473
300.622	270
300.678	7083
300.734	11190
300.790	3869
300.845	2292
300.901	3459
300.957	7374
301.013	1908
301.069	-131
301.125	-784
301.181	-390
301.237	4
301.293	-945
301.349	-851
301.405	-1609
301.461	-1193
301.516	-673
301.572	-1489
301.628	-908
301.684	-1082
301.740	-1627
301.796	-642
301.851	-847
301.907	-525
301.963	-660
302.019	-99
302.074	4484
302.130	5573
302.186	1346
302.242	-66
302.297	-789
302.353	-408
302.409	-603
302.464	-829
302.520	-854
302.576	-369
302.631	78
302.687	-612
302.743	-539
302.798	-1132
302.854	-1340
302.910	-681
302.965	-1211
303.021	-1312
303.076	-1286
303.132	-696
303.187	-1357
303.243	-1400
303.299	-1328
303.354	-1591
303.410	-1000
303.465	-1808
303.521	-1537
303.576	-1802
303.632	-454
303.687	-834
303.743	-383
303.798	-348
303.853	-542
303.909	-988
303.964	-1517
304.020	-1740
304.075	-1019
304.130	-1416
304.186	-778
304.241	618
304.297	-1100
304.352	-1227
304.358	-1227
304.407	-1226
304.449	-1165
304.463	-1143
304.518	-1058
304.539	-1260
304.573	-1606
304.629	-1125
304.630	-1121
304.684	-983
304.720	-474
304.739	-236
304.794	1660
304.811	988
304.850	-642
304.902	-1257
304.905	-1293
304.960	-276
304.992	-859
305.015	-1300
305.071	-1263
305.083	-1215
305.126	-1026
305.173	-1331
305.181	-1380
305.236	-736
305.264	-890
305.292	-1098
305.347	-1301
305.354	-1267
305.402	-893
305.445	-1016
305.457	-1092
305.512	-480
305.535	-657
305.567	-814
305.622	-1104
305.626	-1098
305.678	-891
305.716	82
305.733	466
305.788	1315
305.807	1141
305.843	894
305.897	1301
305.898	1301
305.953	1531
305.988	920
306.008	642
306.063	-941
306.078	-909
306.118	-631
306.168	-547
306.173	-548
306.228	-407
306.259	-499
306.283	-569
306.338	-603
306.349	-592
306.393	-537
306.440	-934
306.448	-985
306.503	-7
306.530	-140
306.558	-209
306.613	-374
306.620	-315
306.668	238
306.711	964
306.723	1006
306.778	730
306.801	515
306.833	434
306.888	-479
306.892	-445
306.943	47
306.982	-360
306.997	-488
307.052	-743
307.072	-537
307.107	-180
307.162	-243
307.163	-245
307.217	125
307.253	-140
307.272	-305
307.327	-136
307.343	-42
307.381	433
307.434	770
307.436	786
307.491	1056
307.524	964
307.546	793
307.600	1290
307.614	1177
307.655	788
307.704	429
307.710	429
307.765	51
307.795	295
307.819	592
307.874	1251
307.885	1221
307.929	1055
307.975	1403
307.984	1496
308.038	1748
308.065	1946
308.093	4080
308.148	9048
308.156	9986
308.202	14344
308.246	17790
308.257	16939
308.312	8032
308.336	4587
308.366	3551
308.421	2978
308.426	2878
308.475	2535
308.517	2468
308.530	2612
308.585	3009
308.607	3244
308.639	3355
308.694	3609
308.697	3597
308.748	3736
308.787	4031
308.803	4303
308.857	4478
308.877	4776
308.912	5906
308.967	7616
308.967	7617
309.021	13031
309.058	17209
309.076	19807
309.130	28131
309.148	30563
309.185	40914
309.238	56555
309.239	56932
309.293	68888
309.328	73124
309.348	66363
309.402	43168
309.418	36645
309.457	30229
309.508	22746
309.511	23033
309.566	28361
309.598	32359
309.620	42371
309.674	68950
309.688	75843
309.729	72207
309.778	61861
309.783	60264
309.837	38652
309.868	26846
309.892	23569
309.946	16750
309.959	15255
310.001	12978
310.049	10394
310.055	10189
310.109	8135
310.139	6957
310.163	6286
310.218	4936
310.229	4629
310.272	4272
310.319	4024
310.326	3909
310.381	2924
310.409	2470
310.435	2573
310.489	2510
310.499	2533
310.543	2539
310.589	2332
310.598	2401
310.652	2835
310.679	3015
310.706	2961
310.760	2897
310.769	2845
310.814	2771
310.859	2827
310.868	2853
310.923	2725
310.948	2690
310.977	2602
311.031	2451
311.038	2404
311.085	2328
311.128	2174
311.139	2262
311.193	2710
311.218	2885
311.247	2820
311.301	2731
311.308	2683
311.356	2430
311.398	2328
311.410	2396
311.464	2549
311.488	2584
311.518	2443
311.572	2185
311.578	2139
311.626	2457
311.668	2696
311.680	2686
311.734	2598
311.758	2518
311.788	2269
311.842	1824
311.847	1766
311.896	2233
311.937	2595
311.950	2595
312.004	2521
312.027	2495
312.058	2549
312.112	2596
312.117	2588
312.165	2347
312.207	2115
312.297	3244
312.386	2164
312.476	2270
312.566	2826
312.656	2642
312.745	2040
312.835	3063
312.925	2271
313.015	2705
313.104	2369
313.194	3292
313.284	2569
313.374	3345
313.463	3430
313.553	3409
313.643	3663
313.732	3238
313.822	3674
313.912	5141
314.001	4976
314.091	5216
314.180	4742
314.270	5518
314.360	4863
314.449	4184
314.539	4286
314.628	5375
314.718	4354
314.808	5620
314.897	5555
314.987	6416
315.076	5702
315.166	6512
315.255	5910
315.345	6505
315.434	5230
315.524	5997
315.613	6440
315.703	8481
315.792	19091
315.881	67555
315.971	20752
316.060	8437
316.150	6117
316.239	5117
316.328	4919
316.418	5973
316.507	5740
316.597	6291
316.686	6018
316.775	6635
316.865	5202
316.954	5435
317.043	5446
317.133	4690
317.222	4262
317.311	4402
317.400	2778
317.490	6006
317.579	4857
317.668	6602
317.757	11022
317.847	31440
317.936	99071
318.025	30645
318.114	26758
318.203	12264
318.293	6620
318.382	8903
318.471	9397
318.560	9261
318.649	7305
318.738	5790
318.828	3121
318.917	3420
319.006	3689
319.095	3607
319.184	5347
319.273	4495
319.362	3468
319.451	3281
319.540	2873
319.629	3629
319.718	3692
319.807	3938
319.896	3553
319.985	7020
320.074	3462
320.163	3220
320.252	3911
320.341	4220
320.430	3807
320.519	5308
320.608	4552
320.697	6842
320.786	5640
320.875	8834
320.964	8339
321.053	8351
321.142	9631
321.230	11219
321.319	11831
321.408	13449
321.497	12872
321.586	10680
321.675	8899
321.764	8376
321.852	8680
321.941	9815
322.030	8620
322.119	9480
322.207	11955
322.296	13457
322.385	14473
322.474	17582
322.562	19232
322.651	13910
322.740	10480
322.829	10691
322.917	7529
323.006	7560
323.095	6459
323.183	7195
323.272	5046
323.361	5567
323.449	6667
323.538	5130
323.626	5602
323.715	5549
323.804	3914
323.892	4361
323.981	3930
324.069	4629
324.158	4532
324.246	4408
324.335	3413
324.424	4914
324.512	3461
324.601	3434
324.689	3728
324.778	4444
324.866	3433
324.954	4097
325.043	3004
325.131	2781
325.220	4086
325.308	3909
325.397	2982
325.485	3371
325.574	3981
325.662	3121
325.750	2468
325.839	4332
325.927	3007
326.015	2814
326.104	2791
326.192	3985
326.280	2776
326.369	3325
326.457	3311
326.545	3488
326.634	2520
326.722	3400
326.810	3339
326.898	4268
326.987	3658
327.075	3509
327.163	3661
327.251	3884
327.340	4619
327.428	6462
327.516	6872
327.604	5258
327.692	3373
327.781	3634
327.869	2498
327.957	3299
328.045	2231
328.133	3101
328.221	2722
328.309	2597
328.397	2802
328.485	4037
328.574	6029
328.662	10452
328.750	5327
328.838	3889
328.926	3456
329.014	3399
329.102	3059
329.190	3231
329.278	2406
329.366	2182
329.454	2378
329.542	2828
329.630	2223
329.718	3407
329.806	2278
329.893	3393
329.981	2055
330.069	3112
330.157	3535
330.245	5009
330.333	3745
330.421	2416
330.509	3328
330.597	3701
330.684	3542
330.772	3171
330.860	2320
330.948	3055
331.036	3442
331.123	2778
331.211	3421
331.299	2966
331.387	3267
331.475	3309
331.562	2653
331.650	3244
331.738	3048
331.825	3627
331.913	3100
332.001	3605
332.089	2794
332.176	2843
332.264	3467
332.352	3282
332.439	2833
332.527	3247
332.614	3686
332.702	3988
332.790	3465
332.877	4946
332.965	12347
333.052	13409
333.140	13288
333.228	36177
333.315	10363
333.403	6165
333.490	6469
333.578	14668
333.665	49101
333.753	21461
333.840	6164
333.928	6456
334.015	6941
334.103	8516
334.190	12218
334.278	14441
334.365	18874
334.452	20321
334.540	13442
334.627	13060
334.715	16468
334.802	23085
334.889	37713
334.977	48935
335.064	33096
335.151	16561
335.239	11846
335.326	9188
335.413	9974
335.501	11338
335.588	9142
335.675	10927
335.762	13456
335.850	18914
335.937	27546
336.024	45005
336.111	68046
336.199	62349
336.286	30262
336.373	16552
336.460	10521
336.547	8603
336.635	7007
336.722	6368
336.809	5591
336.896	6184
336.983	5145
337.070	6453
337.157	7193
337.245	5933
337.332	5579
337.419	4727
337.506	5262
337.593	4672
337.680	4456
337.767	6027
337.854	3673
337.941	4754
338.028	4252
338.115	3718
338.202	4465
338.289	4699
338.376	3520
338.463	3640
338.550	4069
338.637	4910
338.724	3422
338.811	3896
338.898	3597
338.984	2715
339.071	2517
339.158	2925
339.245	3146
339.332	3805
339.419	3313
339.506	4136
339.593	2613
339.679	4032
339.766	2863
339.853	3321
339.940	3045
340.027	3196
340.113	3125
340.200	3766
340.287	2818
340.374	2386
340.460	3560
340.547	2227
340.634	3806
340.720	5408
340.807	2873
340.894	3768
340.980	2887
341.067	3321
341.154	3453
341.240	3859
341.327	3924
341.414	3877
341.500	2202
341.587	3902
341.674	3259
341.760	4397
341.847	3457
341.933	3346
342.020	2204
342.106	3382
342.193	3570
342.279	3020
342.366	2264
342.452	3584
342.539	3188
342.625	3801
342.712	3792
342.798	3557
342.885	2939
342.971	2649
343.058	2713
343.144	2841
343.230	3127
343.317	2791
343.403	2471
343.490	3609
343.576	1702
343.662	2932
343.749	2991
343.835	2956
343.921	3475
344.008	10948
344.094	20880
344.180	6479
344.267	3862
344.353	5263
344.439	5298
344.525	3864
344.612	3514
344.698	2554
344.784	2436
344.870	3308
344.957	2436
345.043	3331
345.129	2362
345.215	3933
345.301	2414
345.387	3353
345.474	2329
345.560	3824
345.646	2312
345.732	3075
345.818	2511
345.904	3138
345.990	2256
346.076	3111
346.162	2172
346.249	3682
346.335	2309
346.421	3863
346.507	3165
346.593	7757
346.679	2852
346.765	4253
346.851	6886
346.937	4894
347.023	4392
347.108	4210
347.194	2973
347.280	3886
347.366	5018
347.452	13957
347.538	19877
347.624	11437
347.710	5851
347.796	4823
347.882	3753
347.967	3981
348.053	2332
348.139	2905
348.225	2146
348.311	2984
348.397	3363
348.482	4299
348.568	4277
348.654	6777
348.740	19131
348.825	20019
348.911	9041
348.997	7643
349.083	9947
349.168	3171
349.254	2888
349.340	3393
349.425	4119
349.511	3484
349.597	3286
349.682	3571
349.768	5632
349.854	4857
349.939	3365
350.025	3581
350.110	3473
350.196	3625
350.282	2292
350.367	3928
350.453	3109
350.538	3523
350.624	3066
350.709	4133
350.795	1908
350.880	3165
350.966	4000
351.051	3397
351.137	3885
351.222	3231
351.308	3744
351.393	4791
351.479	2513
351.564	3387
351.649	3744
351.735	4264
351.820	2954
351.906	3176
351.991	3132
352.076	4245
352.162	4683
352.247	3138
352.332	3146
352.418	2760
352.503	3392
352.588	6101
352.673	4789
352.759	3378
352.844	2361
352.929	3362
353.014	2614
353.100	3570
353.185	4553
353.270	3705
353.355	3268
353.441	3966
353.526	2851
353.611	3846
353.696	2753
353.781	4961
353.866	2408
353.952	4074
354.037	2857
354.122	4133
354.207	3225
354.292	3562
354.377	3032
354.462	3486
354.547	2545
354.632	3559
354.717	3720
354.802	4738
354.887	3398
354.972	3898
355.057	2459
355.142	2392
355.227	3666
355.312	4224
355.397	3398
355.482	4613
355.567	3493
355.652	4749
355.737	3890
355.822	5164
355.907	4090
355.991	4254
356.076	2683
356.161	4504
356.246	3291
356.331	4114
356.416	3639
356.501	13066
356.585	10176
356.670	3294
356.755	5491
356.840	4313
356.924	10145
357.009	22603
357.094	9452
357.179	4774
357.263	4178
357.348	4808
357.433	3657
357.517	4506
357.602	3609
357.687	3792
357.771	4405
357.856	5345
357.941	4137
358.025	7795
358.110	26987
358.195	13674
358.279	4821
358.364	4774
358.448	6186
358.533	9696
358.617	7215
358.702	8766
358.787	4435
358.871	4329
358.956	4181
359.040	4090
359.125	3649
359.209	5201
359.294	4591
359.378	7571
359.462	6641
359.547	4986
359.631	3451
359.716	3443
359.800	4085
359.885	4837
359.969	3340
360.053	4180
360.138	4098
360.222	4134
360.306	4498
360.391	5106
360.475	4235
360.559	5047
360.644	5619
360.728	3763
360.812	8875
360.896	15566
360.981	6808
361.065	4337
361.149	5215
361.233	4035
361.318	4110
361.402	4544
361.486	4838
361.570	4633
361.654	4991
361.739	5695
361.823	11617
361.907	17872
361.991	8375
362.075	8693
362.159	11992
362.243	22447
362.327	51339
362.411	76944
362.495	30679
362.580	15813
362.664	14470
362.748	15636
362.832	25821
362.916	49155
363.000	128049
363.084	168412
363.168	75597
363.252	25814
363.336	14261
363.420	12388
363.503	11205
363.587	10640
363.671	8644
363.755	7954
363.839	11304
363.923	10401
364.007	14714
364.091	19695
364.175	28786
364.258	64925
364.342	143880
364.426	232875
364.510	128926
364.594	44498
364.677	22790
364.761	21784
364.845	15891
364.929	9500
365.013	7064
365.096	6718
365.180	5859
365.264	6568
365.347	8957
365.431	5668
365.515	5044
365.598	5014
365.682	6218
365.766	4550
365.849	4692
365.933	5066
366.017	5985
366.100	4336
366.184	5687
366.267	6422
366.351	4811
366.435	4723
366.518	4087
366.602	5265
366.685	5057
366.769	5377
366.852	5298
366.936	5014
367.019	5103
367.103	3991
367.186	5729
367.270	5476
367.353	4464
367.436	6822
367.520	6230
367.603	6983
367.687	4958
367.770	5373
367.853	5921
367.937	8633
368.020	8227
368.104	5154
368.187	5539
368.270	5475
368.353	4117
368.437	4603
368.520	4528
368.603	3935
368.687	5023
368.770	7328
368.853	4524
368.936	5082
369.020	4869
369.103	4328
369.186	2949
369.269	4170
369.352	5198
369.436	4790
369.519	4304
369.602	3414
369.685	5890
369.768	3768
369.851	4232
369.934	3484
370.018	3540
370.101	4117
370.184	6927
370.267	5265
370.350	5417
370.433	6561
370.516	15504
370.599	40053
370.682	17229
370.765	9554
370.848	8333
370.931	10061
371.014	7983
371.097	4384
371.180	6786
371.263	6190
371.346	4386
371.429	6475
371.511	5588
371.594	6353
371.677	7268
371.760	9303
371.843	8668
371.926	16896
372.009	27609
372.091	19342
372.174	11740
372.257	16835
372.340	11631
372.423	11415
372.505	11420
372.588	9163
372.671	9692
372.754	10475
372.836	9385
372.919	8814
373.002	9691
373.085	8778
373.167	9342
373.250	9682
373.332	12574
373.415	18942
373.498	30703
373.580	20964
373.663	58307
373.746	55201
373.828	12882
373.911	9107
373.993	5852
374.076	7673
374.159	6427
374.241	6804
374.324	9489
374.406	10419
374.489	11227
374.571	24356
374.654	10916
374.736	9703
374.819	15406
374.901	23434
374.983	23494
375.066	9772
375.148	7674
375.231	8205
375.313	9299
375.395	8375
375.478	7545
375.560	8807
375.643	8028
375.725	9631
375.807	18647
375.890	15570
375.972	5928
376.054	7141
376.136	6134
376.219	6539
376.301	8313
376.383	13864
376.465	7627
376.548	5509
376.630	6186
376.712	12697
376.794	7015
376.877	5139
376.959	3586
377.041	5320
377.123	4097
377.205	5142
377.287	3980
377.369	5549
377.452	4621
377.534	6205
377.616	4278
377.698	5033
377.780	4651
377.862	5347
377.944	5286
378.026	3858
378.108	4562
378.190	4789
378.272	4978
378.354	4919
378.436	3624
378.518	3873
378.600	4386
378.682	6014
378.764	5849
378.846	7302
378.928	4926
379.010	3723
379.091	4746
379.173	5243
379.255	4299
379.337	5400
379.419	4435
379.501	9663
379.583	6042
379.664	5128
379.746	4833
379.828	9070
379.910	7813
379.991	8042
380.073	5100
380.155	4976
380.237	4913
380.318	5722
380.400	5001
380.482	6467
380.564	6534
380.645	6581
380.727	6564
380.809	8517
380.890	5346
380.972	5460
381.053	6534
381.135	8083
381.217	6358
381.298	9877
381.380	6408
381.461	8694
381.543	13754
381.624	16297
381.706	8075
381.787	9572
381.869	8818
381.951	12300
382.032	25363
382.113	21279
382.195	10957
382.276	13989
382.358	14768
382.439	21485
382.521	25847
382.602	35558
382.684	33045
382.765	55965
382.846	136363
382.928	267136
383.009	168254
383.090	146644
383.172	311947
383.253	347987
383.334	153061
383.416	76816
383.497	60255
383.578	70695
383.659	128589
383.741	289166
383.822	420063
383.903	264222
383.984	104721
384.066	59889
384.147	37693
384.228	26995
384.309	21950
384.390	21211
384.471	18366
384.553	16627
384.634	15337
384.715	16558
384.796	13865
384.877	15598
384.958	18199
385.039	15268
385.120	12681
385.201	12260
385.282	11744
385.363	15133
385.444	18699
385.525	18744
385.606	19910
385.687	17352
385.768	12515
385.849	12215
385.930	20991
386.011	26577
386.092	13557
386.173	11103
386.254	11171
386.335	11184
386.416	9318
386.496	10383
386.577	11562
386.658	10452
386.739	8437
386.820	11084
386.901	9853
386.981	12136
387.062	12988
387.143	15205
387.224	14953
387.304	16639
387.385	15989
387.466	13564
387.547	14989
387.627	16084
387.708	16445
387.789	20335
387.869	19452
387.950	14835
388.031	11396
388.111	9758
388.192	13749
388.273	15373
388.353	12188
388.434	8703
388.514	8714
388.595	14837
388.676	14799
388.756	9584
388.837	9132
388.917	7671
388.998	4549
389.078	7716
389.159	6508
389.239	5714
389.320	7782
389.400	4582
389.480	7267
389.561	8837
389.641	8552
389.722	7677
389.802	5319
389.883	7795
389.963	11074
390.043	7798
390.124	5266
390.204	6963
390.284	8637
390.365	6866
390.445	6716
390.525	8463
390.605	8733
390.686	6057
390.766	6557
390.846	8177
390.927	5501
391.007	6194
391.087	7154
391.167	7235
391.247	5649
391.328	8588
391.408	7942
391.488	8089
391.568	6202
391.648	8584
391.728	9275
391.808	10920
391.888	9487
391.969	11886
392.049	12315
392.129	11925
392.209	13177
392.289	16721
392.369	15185
392.449	16296
392.529	16690
392.609	20987
392.689	22898
392.769	29856
392.849	35463
392.929	43689
393.009	60461
393.089	86959
393.169	154919
393.248	311535
393.328	486876
393.408	471047
393.488	299802
393.568	147975
393.648	82255
393.728	52342
393.807	36585
393.887	30273
393.967	24787
394.047	19897
394.127	16414
394.206	16894
394.286	19883
394.366	53813
394.446	54352
394.525	17379
394.605	11500
394.685	10900
394.764	12411
394.844	22243
394.924	27868
395.003	14115
395.083	9721
395.163	10037
395.242	9179
395.322	9516
395.402	7592
395.481	11537
395.561	11788
395.640	32419
395.720	64359
395.799	33349
395.879	14747
395.958	13314
396.038	20668
396.117	70254
396.197	72858
396.276	26511
396.356	22061
396.435	27189
396.515	36792
396.594	57086
396.673	116750
396.753	273469
396.832	443326
396.912	357484
396.991	157794
397.070	72706
397.150	40817
397.229	35761
397.308	56296
397.388	97208
397.467	47904
397.546	19952
397.625	12436
397.705	13524
397.784	11335
397.863	9682
397.942	8128
398.022	8738
398.101	6739
398.180	9084
398.259	7101
398.338	6992
398.417	5937
398.497	5740
398.576	6922
398.655	5511
398.734	6097
398.813	5917
398.892	5047
398.971	6474
399.050	4674
399.129	4448
399.208	4619
399.287	5377
399.366	2900
399.445	4027
399.524	4291
399.603	3121
399.682	3944
399.761	4526
399.840	6059
399.919	6163
399.998	3487
400.077	3378
400.156	1965
400.235	5428
400.313	2648
400.392	2473
400.471	4679
400.550	5538
400.629	2994
400.708	4364
400.786	1829
400.865	3594
400.944	1897
401.023	4546
401.102	2440
401.180	2875
401.259	2378
401.338	3616
401.416	3033
401.495	1574
401.574	3468
401.652	1706
401.731	3801
401.810	1806
401.888	2496
401.967	2766
402.046	2228
402.124	3245
402.203	1777
402.281	3505
402.360	1801
402.438	3992
402.517	1371
402.596	3123
402.674	2225
402.753	2778
402.831	3016
402.910	3955
402.988	5108
403.066	14673
403.145	9948
403.223	7579
403.302	14426
403.380	11662
403.459	11507
403.537	6109
403.615	3882
403.694	2752
403.772	4252
403.850	3406
403.929	2603
404.007	2952
404.085	4732
404.164	3872
404.242	2882
404.320	4621
404.398	6197
404.477	5758
404.555	13843
404.633	11737
404.711	4602
404.789	4348
404.868	2089
404.946	2174
405.024	2295
405.102	2101
405.180	1244
405.258	1504
405.336	2572
405.415	1348
405.493	3081
405.571	4441
405.649	2209
405.727	2365
405.805	4360
405.883	4556
405.961	3882
406.039	1998
406.117	1885
406.195	2923
406.273	3012
406.351	9505
406.429	5910
406.507	2356
406.585	1448
406.663	3145
406.740	1643
406.818	1187
406.896	820
406.974	3264
407.052	1183
407.130	5871
407.208	6903
407.285	3476
407.363	1387
407.441	2363
407.519	2503
407.596	2550
407.674	3837
407.752	12651
407.830	8441
407.907	3808
407.985	1860
408.063	2415
408.141	523
408.218	2779
408.296	651
408.373	3102
408.451	3495
408.529	3034
408.606	2289
408.684	3748
408.762	3670
408.839	3904
408.917	3693
408.994	4948
409.072	4138
409.149	6803
409.227	11935
409.304	18136
409.382	19186
409.459	22373
409.537	28333
409.614	25694
409.692	20509
409.769	19743
409.846	29177
409.924	36362
410.001	24376
410.079	17702
410.156	12800
410.233	9854
410.311	7151
410.388	6562
410.465	5914
410.543	6064
410.620	6083
410.697	6313
410.775	6206
410.852	4891
410.929	5701
411.006	6883
411.083	5099
411.161	5333
411.238	5843
411.315	4181
411.392	4516
411.469	5165
411.547	3409
411.624	2960
411.701	2933
411.778	3432
411.855	2574
411.932	2831
412.009	2459
412.086	2937
412.163	2322
412.240	2910
412.317	2561
412.394	2838
412.471	3172
412.548	2571
412.625	2052
412.702	2900
412.779	2050
412.856	2475
412.933	2054
413.010	3373
413.087	2893
413.164	3021
413.241	2926
413.318	1815
413.395	2920
413.471	1196
413.548	1970
413.625	2729
413.702	751
413.779	2060
413.855	1159
413.932	1572
414.009	986
414.086	2233
414.162	1622
414.239	2151
414.316	2478
414.393	4969
414.469	1691
414.546	1408
414.623	1674
414.699	1626
414.776	1292
414.853	1178
414.929	1949
415.006	1133
415.082	1513
415.159	1543
415.236	1837
415.312	2432
415.389	2073
415.465	637
415.542	1564
415.618	1490
415.695	2006
415.771	951
415.848	1216
415.924	2268
416.000	1469
416.077	2062
416.153	1028
416.230	1431
416.306	1131
416.383	1038
416.459	1464
416.535	1475
416.612	1339
416.688	2462
416.764	2529
416.841	1871
416.917	1470
416.993	2776
417.069	2454
417.146	1599
417.222	958
417.298	1568
417.374	707
417.451	2608
417.527	1000
417.603	1141
417.679	1716
417.755	1593
417.831	500
417.908	1911
417.984	1209
418.060	441
418.136	1429
418.212	1469
418.288	2215
418.364	2243
418.440	1288
418.516	2847
418.592	1424
418.668	1324
418.744	1945
418.820	1930
418.896	1372
418.972	1045
419.048	796
419.124	3127
419.200	434
419.276	2385
419.352	856
419.428	1940
419.504	1975
419.579	2406
419.655	2556
419.731	2652
419.807	2258
419.883	2017
419.959	2274
420.034	2909
420.110	3091
420.186	3683
420.262	2897
420.337	3437
420.413	3622
420.489	4215
420.565	4404
420.640	3985
420.716	4536
420.792	3842
420.867	5725
420.943	5100
421.019	5937
421.094	5569
421.170	6894
421.245	7253
421.321	7760
421.397	7554
421.472	10974
421.548	15296
421.623	14324
421.699	13544
421.774	13938
421.850	15426
421.925	20396
422.001	23983
422.076	28739
422.152	35905
422.227	47425
422.302	66092
422.378	95315
422.453	144445
422.529	196660
422.604	178635
422.679	116267
422.755	167557
422.830	195752
422.905	148093
422.981	101031
423.056	73347
423.131	56039
423.207	41361
423.282	32096
423.357	27901
423.432	21754
423.508	20545
423.583	16686
423.658	15298
423.733	13191
423.808	12290
423.883	12562
423.959	13468
424.034	16892
424.109	15203
424.184	9588
424.259	8639
424.334	7160
424.409	6610
424.484	5673
424.559	5805
424.634	4338
424.709	4682
424.784	4710
424.859	4591
424.934	3597
425.009	4883
425.084	5371
425.159	3818
425.234	3581
425.309	3149
425.384	2274
425.459	2945
425.534	3368
425.609	2318
425.683	3258
425.758	3252
425.833	2408
425.908	2694
425.983	2419
426.058	4189
426.132	2406
426.207	2040
426.282	3216
426.357	1722
426.431	1771
426.506	2126
426.581	1735
426.655	2694
426.730	2654
426.805	1516
426.879	2570
426.954	2257
427.029	1826
427.103	4077
427.178	6755
427.253	3467
427.327	1961
427.402	1939
427.476	1328
427.551	1531
427.625	1949
427.700	1404
427.774	540
427.849	2662
427.923	945
427.998	2455
428.072	3205
428.147	7861
428.221	34349
428.296	97818
428.370	52308
428.444	9046
428.519	3312
428.593	3114
428.667	2980
428.742	4468
428.816	13256
428.890	61596
428.965	86210
429.039	22937
429.113	4347
429.188	3121
429.262	2078
429.336	2933
429.410	2515
429.485	3022
429.559	2199
429.633	3062
429.707	4095
429.781	11669
429.855	57464
429.930	76582
430.004	21769
430.078	15490
430.152	42616
430.226	131131
430.300	121208
430.374	30535
430.448	9970
430.522	6479
430.596	6868
430.670	20378
430.744	76917
430.818	77596
430.892	15315
430.966	3729
431.040	2318
431.114	1357
431.188	1084
431.262	1412
431.336	1005
431.410	2217
431.484	1022
431.557	2016
431.631	2148
431.705	6277
431.779	27708
431.853	94015
431.927	59422
432.000	9680
432.074	2903
432.148	1242
432.222	1095
432.295	433
432.369	-36
432.443	613
432.516	2205
432.590	6213
432.664	1320
432.737	-277
432.811	-535
432.885	153
432.958	616
433.032	-532
433.106	-148
433.179	598
433.253	-9
433.326	580
433.400	-56
433.473	532
433.547	-155
433.620	779
433.694	-454
433.767	1355
433.841	-51
433.914	149
433.988	290
434.061	631
434.134	-88
434.208	-198
434.281	5
434.355	249
434.428	-68
434.501	914
434.575	-231
434.648	694
434.721	393
434.795	665
434.868	217
434.941	959
435.014	844
435.088	2848
435.161	2547
435.234	5458
435.307	5028
435.381	5303
435.454	7544
435.527	13364
435.600	13519
435.673	12845
435.746	7961
435.819	6175
435.892	3908
435.966	3622
436.039	1760
436.112	2068
436.185	768
436.258	503
436.331	-95
436.404	745
436.477	783
436.550	911
436.623	793
436.696	848
436.769	-302
436.842	217
436.915	748
436.987	637
437.060	-46
437.133	277
437.206	-142
437.279	524
437.352	-125
437.425	123
437.498	469
437.570	-94
437.643	-955
437.716	-71
437.789	-638
437.861	12
437.934	-131
438.007	200
438.080	-294
438.152	371
438.225	-530
438.298	3026
438.370	10347
438.443	2803
438.516	-268
438.588	1300
438.661	37
438.734	-562
438.806	-475
438.879	157
438.951	-846
439.024	640
439.096	195
439.169	130
439.241	-210
439.314	59
439.386	-58
439.459	136
439.531	-234
439.604	225
439.676	232
439.749	-93
439.821	240
439.893	393
439.966	406
440.038	-632
440.110	-4
440.183	-18
440.255	-482
440.327	407
440.400	1919
440.472	4821
440.544	2206
440.617	518
440.689	818
440.761	877
440.833	130
440.905	781
440.978	-250
441.050	285
441.122	361
441.194	160
441.266	96
441.338	128
441.411	711
441.483	2206
441.555	1915
441.627	1365
441.699	279
441.771	593
441.843	436
441.915	1276
441.987	1451
442.059	1060
442.131	1855
442.203	2886
442.275	3077
442.347	7950
442.419	19158
442.491	78908
442.563	145095
442.635	57250
442.706	12608
442.778	7013
442.850	4239
442.922	3762
442.994	3375
443.066	3769
443.137	5237
443.209	7447
443.281	12731
443.353	28867
443.425	91447
443.496	215052
443.568	215854
443.640	92937
443.711	23429
443.783	9808
443.855	5683
443.926	3490
443.998	3160
444.070	3266
444.141	1991
444.213	1887
444.285	1896
444.356	1751
444.428	1319
444.499	2439
444.571	1202
444.642	1801
444.714	1879
444.785	2071
444.857	2802
444.928	3525
445.000	3866
445.071	5100
445.143	7015
445.214	12571
445.285	22851
445.357	55505
445.428	158612
445.500	240976
445.571	208444
445.642	137294
445.714	49991
445.785	17002
445.856	7852
445.928	4983
445.999	3302
446.070	3238
446.141	1961
446.213	1881
446.284	1472
446.355	1554
446.426	651
446.497	245
446.569	15
446.640	675
446.711	896
446.782	364
446.853	-55
446.924	1015
446.995	637
447.066	152
447.138	-127
447.209	505
447.280	-703
447.351	-331
447.422	-564
447.493	-1
447.564	-198
447.635	-923
447.706	-426
447.777	94
447.847	-914
447.918	-172
447.989	-342
448.060	-44
448.131	-829
448.202	-861
448.273	-329
448.344	-602
448.414	-448
448.485	-104
448.556	-399
448.627	-286
448.698	210
448.768	-391
448.839	-1065
448.910	-1093
448.981	-423
449.051	-357
449.122	-625
449.193	-334
449.263	-761
449.334	-103
449.405	-365
449.475	-277
449.546	-776
449.616	1119
449.687	-281
449.758	608
449.828	-1095
449.899	-206
449.969	-325
450.040	-1224
450.110	-733
450.181	-111
450.251	-598
450.322	-113
450.392	161
450.463	-92
450.533	-304
450.604	-239
450.674	-170
450.744	-144
450.815	718
450.885	713
450.955	641
451.026	393
451.096	11
451.166	55
451.237	154
451.307	1487
451.377	1242
451.447	506
451.518	-261
451.588	-318
451.658	109
451.728	-721
451.799	-298
451.869	83
451.939	-504
452.009	-827
452.079	13
452.149	-313
452.219	-26
452.289	-181
452.360	-51
452.430	918
452.500	559
452.570	2874
452.640	9564
452.710	25877
452.780	25999
452.850	11995
452.920	3857
452.990	2409
453.060	1858
453.129	747
453.199	805
453.269	445
453.339	503
453.409	563
453.479	519
453.549	1324
453.619	692
453.688	-982
453.758	-391
453.828	-781
453.898	-1868
453.968	-835
454.037	-604
454.087	102
454.107	391
454.168	-1115
454.177	-1344
454.247	-614
454.249	-628
454.316	-1234
454.330	-1078
454.386	-459
454.411	-699
454.456	-1172
454.492	-664
454.525	-204
454.574	-332
454.595	-397
454.655	-921
454.665	-1015
454.734	79
454.736	70
454.804	-634
454.817	-645
454.873	-697
454.898	-339
454.943	239
454.979	-741
455.013	-1638
455.060	-462
455.082	69
455.141	-1291
455.152	-1542
455.221	-312
455.222	-304
455.291	-140
455.303	-68
455.360	201
455.384	584
455.430	1203
455.465	515
455.499	-181
455.546	-383
455.569	-456
455.627	408
455.638	582
455.707	-1008
455.708	-999
455.777	-982
455.789	-949
455.846	-851
455.869	-796
455.916	-652
455.950	-543
455.985	-577
456.031	-511
456.054	-393
456.112	-691
456.124	-756
456.193	-343
456.193	-350
456.262	-677
456.274	-554
456.332	78
456.355	37
456.401	-11
456.436	-343
456.470	-615
456.516	-357
456.540	-366
456.597	-273
456.609	-202
456.678	220
456.678	214
456.747	397
456.759	205
456.817	-428
456.840	-113
456.886	325
456.920	316
456.955	216
457.001	217
457.024	343
457.082	267
457.093	205
457.162	11
457.163	18
457.232	69
457.243	165
457.301	639
457.324	427
457.370	221
457.405	738
457.439	973
457.485	1055
457.508	1184
457.566	1590
457.577	1745
457.646	2317
457.647	2343
457.715	6447
457.727	7591
457.784	14377
457.808	21834
457.853	33272
457.889	38757
457.922	40670
457.969	24529
457.991	20803
458.050	23379
458.060	23726
458.129	48334
458.130	48890
458.198	62230
458.211	55797
458.267	27157
458.292	18553
458.336	9246
458.372	8704
458.405	11063
458.453	16617
458.474	20516
458.533	41237
458.543	43368
458.611	85180
458.614	85051
458.680	57255
458.694	46464
458.749	16648
458.775	11613
458.818	5449
458.855	4034
458.887	3111
458.936	2663
458.955	2543
459.016	1532
459.024	1412
459.093	1253
459.097	1234
459.162	880
459.177	937
459.230	1208
459.257	1236
459.299	1140
459.338	1060
459.368	1026
459.418	618
459.437	440
459.499	603
459.505	653
459.574	826
459.579	862
459.643	636
459.659	594
459.711	1159
459.740	1214
459.780	985
459.820	1028
459.849	976
459.900	710
459.917	722
459.981	903
459.986	880
460.054	568
460.061	532
460.123	755
460.141	884
460.191	705
460.222	434
460.260	246
460.302	404
460.328	736
460.382	962
460.397	858
460.462	597
460.465	604
460.534	1092
460.543	1167
460.602	3361
460.623	4248
460.671	6378
460.703	9430
460.739	10624
460.783	9039
460.808	7691
460.864	2187
460.876	1513
460.944	564
460.945	549
461.013	354
461.024	283
461.081	189
461.104	430
461.150	826
461.184	751
461.218	827
461.264	786
461.286	819
461.345	873
461.355	811
461.423	812
461.425	808
461.491	500
461.505	510
461.559	679
461.585	491
461.628	226
461.665	464
461.696	840
461.745	990
461.764	838
461.825	567
461.832	609
461.901	917
461.905	975
461.969	635
461.985	315
462.037	737
462.065	1265
462.105	901
462.145	430
462.173	452
462.225	409
462.241	446
462.305	414
462.310	416
462.378	911
462.385	889
462.446	619
462.465	839
462.514	1426
462.545	1369
462.582	1015
462.625	856
462.650	923
462.705	900
462.718	780
462.785	424
462.786	426
462.854	84
462.865	79
462.922	373
462.945	492
462.990	866
463.025	1221
463.058	1356
463.104	1346
463.126	1182
463.184	954
463.194	1044
463.262	1435
463.264	1449
463.330	1138
463.344	1073
463.398	1395
463.424	1477
463.466	898
463.504	477
463.533	596
463.583	899
463.601	929
463.663	555
463.669	543
463.737	994
463.743	983
463.805	967
463.823	1156
463.873	1828
463.903	2006
463.940	1526
463.982	946
464.008	861
464.062	732
464.076	838
464.142	1443
464.144	1440
464.211	1168
464.221	1113
464.279	1311
464.301	1399
464.347	1257
464.381	1283
464.414	1258
464.461	1049
464.482	1288
464.540	1828
464.550	1733
464.617	1016
464.620	999
464.685	1339
464.699	1384
464.753	1442
464.779	1361
464.820	1099
464.859	1002
464.888	812
464.938	454
464.956	796
465.018	2026
465.023	1976
465.091	1261
465.098	1177
465.158	1225
465.177	1248
465.226	1591
465.257	1790
465.293	1654
465.336	1583
465.361	1464
465.416	1007
465.428	991
465.495	1108
465.496	1108
465.563	358
465.575	274
465.631	936
465.654	1241
465.698	1598
465.734	1826
465.765	1806
465.813	1639
465.833	1444
465.893	1018
465.900	1071
465.968	1489
465.972	1503
466.035	1350
466.052	1354
466.102	1297
466.131	1218
466.170	1087
466.210	960
466.237	1327
466.290	2061
466.304	2030
466.369	1718
466.372	1708
466.439	1423
466.449	1361
466.506	1140
466.528	1084
466.573	1750
466.607	2205
466.641	2079
466.687	1959
466.708	1934
466.766	1731
466.775	1749
466.842	1955
466.845	1959
466.909	1721
466.925	1659
466.977	1818
467.004	1907
467.044	2058
467.083	2200
467.111	2275
467.163	2380
467.178	2406
467.242	2522
467.245	2487
467.312	1669
467.321	1560
467.379	1721
467.400	1773
467.446	1700
467.480	1646
467.559	2505
467.638	1684
467.717	1479
467.796	2297
467.875	2380
467.955	1443
468.034	2057
468.113	3327
468.192	4029
468.271	3834
468.350	6441
468.429	9536
468.508	11455
468.588	6854
468.667	3640
468.746	2952
468.825	1943
468.904	2146
468.983	2381
469.062	2533
469.141	2939
469.220	856
469.299	2052
469.378	1177
469.456	2622
469.535	2567
469.614	2989
469.693	1135
469.772	2449
469.851	1504
469.930	2755
470.009	2222
470.088	3021
470.166	4594
470.245	10356
470.324	13110
470.403	7421
470.482	3820
470.560	2576
470.639	2141
470.718	2104
470.797	1691
470.875	1804
470.954	1664
471.033	1398
471.111	1825
471.190	1581
471.269	1654
471.347	1313
471.426	2236
471.505	2055
471.583	1850
471.662	1377
471.740	2128
471.819	1958
471.898	1648
471.976	1605
472.055	1274
472.133	2774
472.212	1473
472.290	1159
472.369	1681
472.447	2273
472.526	1968
472.604	2232
472.683	1343
472.761	1306
472.839	508
472.918	1696
472.996	1537
473.075	2751
473.153	2800
473.231	1842
473.310	1738
473.388	2416
473.466	1798
473.545	945
473.623	2532
473.701	2510
473.780	2131
473.858	-265
473.936	3005
474.014	1500
474.093	2134
474.171	1117
474.249	2604
474.327	1028
474.405	1611
474.484	2537
474.562	1977
474.640	1814
474.718	1940
474.796	1092
474.874	2681
474.952	1848
475.030	1218
475.108	1553
475.187	1667
475.265	1940
475.343	2555
475.421	2325
475.499	1787
475.577	1712
475.655	2788
475.733	2416
475.811	554
475.889	1981
475.966	1791
476.044	1613
476.122	2199
476.200	2342
476.278	906
476.356	1954
476.434	2214
476.512	1274
476.590	1914
476.667	1853
476.745	1279
476.823	2847
476.901	1756
476.979	1539
477.056	2095
477.134	1021
477.212	1574
477.290	1662
477.367	1740
477.445	1834
477.523	1573
477.601	1684
477.678	1518
477.756	1832
477.834	1527
477.911	1768
477.989	1720
478.066	1902
478.144	1983
478.222	2127
478.299	2197
478.377	2638
478.454	1628
478.532	1228
478.609	1120
478.687	2029
478.764	1133
478.842	1222
478.919	1524
478.997	2300
479.074	1452
479.152	2695
479.229	1762
479.307	1715
479.384	1859
479.461	1696
479.539	1018
479.616	1547
479.694	1079
479.771	1536
479.848	1674
479.926	28
480.003	2282
480.080	1714
480.157	1754
480.235	1730
480.312	2187
480.389	1982
480.467	1074
480.544	1971
480.621	2546
480.698	1894
480.775	2679
480.853	1742
480.930	2173
481.007	1872
481.084	1537
481.161	1825
481.238	1418
481.315	2021
481.392	1274
481.470	1371
481.547	994
481.624	1454
481.701	1603
481.778	1705
481.855	2215
481.932	2897
482.009	2470
482.086	2679
482.163	2839
482.240	5005
482.317	5701
482.393	3567
482.470	2783
482.547	2385
482.624	2466
482.701	3338
482.778	1706
482.855	1261
482.932	2335
483.009	3109
483.085	2800
483.162	3426
483.239	4082
483.316	2909
483.393	3775
483.469	3194
483.546	2944
483.623	2755
483.699	1722
483.776	1731
483.853	2149
483.930	2188
484.006	1183
484.083	3023
484.160	1997
484.236	3879
484.313	1298
484.389	2386
484.466	4096
484.543	3028
484.619	5110
484.696	7564
484.772	3750
484.849	3298
484.925	1710
485.002	2276
485.078	1840
485.155	1475
485.231	1682
485.308	1083
485.384	1827
485.461	1810
485.537	1423
485.614	3011
485.690	1027
485.766	1951
485.843	1514
485.919	1551
485.995	1548
486.072	1782
486.148	1240
486.224	1781
486.301	1351
486.377	2133
486.453	895
486.530	2963
486.606	2465
486.682	2213
486.758	2051
486.835	1962
486.911	683
486.987	2904
487.063	2771
487.139	2343
487.215	2371
487.292	4675
487.368	5090
487.444	5969
487.520	8596
487.596	14001
487.672	34836
487.748	119587
487.824	195514
487.900	75908
487.976	17486
488.052	8076
488.128	5099
488.204	3797
488.280	3431
488.356	3371
488.432	2489
488.508	2676
488.584	2069
488.660	1724
488.736	2442
488.812	1157
488.888	3036
488.964	2051
489.039	1892
489.115	3291
489.191	2646
489.267	2174
489.343	1340
489.418	1778
489.494	1030
489.570	657
489.646	3006
489.722	2021
489.797	1000
489.873	1684
489.949	2162
490.024	2427
490.100	1705
490.176	1656
490.251	1339
490.327	2804
490.403	1593
490.478	2171
490.554	1333
490.629	2366
490.705	736
490.781	1990
490.856	1616
490.932	2451
491.007	2622
491.083	1003
491.158	1067
491.234	2006
491.309	2777
491.385	1402
491.460	1522
491.536	2621
491.611	1534
491.686	3126
491.762	1640
491.837	2651
491.913	2281
491.988	3696
492.063	2960
492.139	2767
492.214	1174
492.289	2346
492.365	1754
492.440	2292
492.515	1147
492.590	2202
492.666	1111
492.741	2144
492.816	1301
492.891	167
492.967	1563
493.042	1582
493.117	1421
493.192	883
493.267	2217
493.342	3951
493.418	5884
493.493	1932
493.568	1876
493.643	1547
493.718	1860
493.793	1605
493.868	1533
493.943	1473
494.018	2642
494.093	1303
494.168	2206
494.243	1263
494.318	2070
494.393	2668
494.468	1028
494.543	1517
494.618	2802
494.693	1928
494.768	1819
494.842	1437
494.917	2990
494.992	1865
495.067	1494
495.142	1808
495.217	1872
495.292	2028
495.366	1811
495.441	1492
495.516	2511
495.591	2302
495.665	2076
495.740	4425
495.815	3310
495.890	2058
495.964	10
496.039	4495
496.114	2162
496.188	1326
496.263	2423
496.338	1811
496.412	1487
496.487	2486
496.561	2865
496.636	2429
496.710	1492
496.785	2051
496.860	2014
496.934	1993
497.009	3208
497.083	1941
497.158	2566
497.232	2640
497.307	2931
497.381	2907
497.455	2623
497.530	3149
497.604	2108
497.679	1448
497.753	1427
497.827	1281
497.902	1375
497.976	2396
498.050	3382
498.125	5612
498.199	4991
498.273	3519
498.348	2323
498.422	2807
498.496	3326
498.570	4014
498.645	2138
498.719	1058
498.793	2318
498.867	2285
498.941	2559
499.016	3152
499.090	3764
499.164	3651
499.238	2616
499.312	2928
499.386	2697
499.460	3188
499.534	3684
499.609	5104
499.683	3134
499.757	1872
499.831	2170
499.905	3028
499.979	3246
500.053	1581
500.127	2628
500.201	1616
500.275	1834
500.349	2771
500.422	2403
500.496	3346
500.570	3756
500.644	6389
500.718	5880
500.792	3167
500.866	2351
500.940	969
501.013	1675
501.087	1813
501.161	1091
501.235	624
501.309	3933
501.382	1401
501.456	3693
501.530	1715
501.603	1443
501.677	1670
501.751	305
501.825	3393
501.898	1336
501.972	1148
502.046	1724
502.119	449
502.193	1478
502.266	1829
502.340	1661
502.413	1534
502.487	1823
502.561	1212
502.634	2115
502.708	2019
502.781	827
502.855	1894
502.928	-69
503.002	1369
503.075	670
503.149	671
503.222	1831
503.295	934
503.369	1677
503.442	885
503.516	2391
503.589	3042
503.662	3104
503.736	3832
503.809	5815
503.882	6576
503.956	11203
504.029	21789
504.102	71185
504.175	120966
504.249	50702
504.322	15907
504.395	7110
504.468	4214
504.542	3197
504.615	1947
504.688	2367
504.761	199
504.834	3307
504.907	1229
504.980	1713
505.053	1119
505.127	-1016
505.200	3472
505.273	406
505.346	1084
505.419	-96
505.492	2497
505.565	-438
505.638	657
505.711	98
505.784	286
505.857	170
505.930	2521
506.003	65
506.076	2315
506.149	71
506.221	-468
506.294	2326
506.367	-167
506.440	643
506.513	1799
506.586	769
506.659	-77
506.731	474
506.804	500
506.877	-750
506.950	1061
507.022	1135
507.095	444
507.168	729
507.241	2510
507.313	736
507.386	-1165
507.459	1532
507.531	744
507.604	452
507.677	342
507.749	-521
507.822	1786
507.894	298
507.967	1759
508.040	792
508.112	1546
508.185	1037
508.257	-223
508.330	1832
508.402	240
508.475	468
508.547	790
508.620	240
508.692	629
508.765	1333
508.837	956
508.909	585
508.982	343
509.054	979
509.127	313
509.199	480
509.271	-129
509.344	318
509.416	117
509.488	105
509.560	1979
509.633	-95
509.705	813
509.777	569
509.849	1388
509.922	-881
509.994	108
510.066	1280
510.138	-1063
510.210	2753
510.283	100
510.355	386
510.427	1037
510.499	635
510.571	883
510.643	-158
510.715	1565
510.787	-580
510.859	1841
510.931	246
511.003	930
511.076	1835
511.148	-272
511.219	33
511.291	717
511.363	763
511.435	894
511.507	-29
511.579	2050
511.651	1807
511.723	639
511.795	518
511.867	143
511.939	736
512.010	217
512.082	1630
512.154	-154
512.226	1340
512.298	1643
512.369	-244
512.441	1252
512.513	756
512.585	-325
512.656	1743
512.728	1171
512.800	660
512.871	1199
512.943	406
513.015	-382
513.086	695
513.158	492
513.230	36
513.301	257
513.373	1497
513.444	293
513.516	978
513.588	-104
513.659	1134
513.731	-75
513.802	-546
513.874	2750
513.945	1275
514.016	-81
514.088	1528
514.159	70
514.231	1114
514.302	436
514.374	1024
514.445	-1185
514.516	3066
514.588	617
514.659	817
514.730	275
514.802	2717
514.873	-533
514.944	3092
515.016	1144
515.087	1152
515.158	946
515.229	2430
515.301	-374
515.372	2667
515.443	1045
515.514	919
515.585	740
515.656	1615
515.728	1636
515.799	926
515.870	2429
515.941	2589
516.012	526
516.083	3371
516.154	1258
516.225	4147
516.296	5358
516.367	5683
516.438	7087
516.509	10804
516.580	15092
516.651	58942
516.722	213655
516.793	110319
516.864	18241
516.935	14150
517.006	17060
517.077	21386
517.148	48208
517.219	233845
517.289	393198
517.360	77391
517.431	17353
517.502	7828
517.573	6129
517.643	5597
517.714	4706
517.785	5638
517.856	7430
517.926	11446
517.997	14261
518.068	17435
518.138	27066
518.209	40754
518.280	152458
518.350	520481
518.421	260316
518.492	44550
518.562	22714
518.633	19940
518.703	23147
518.774	52982
518.845	145857
518.915	165784
518.986	48289
519.056	17949
519.127	10909
519.197	6551
519.268	3735
519.338	5786
519.408	3656
519.479	3349
519.549	1366
519.620	4182
519.690	2241
519.760	1580
519.831	2024
519.901	1221
519.971	1445
520.042	1355
520.112	1229
520.182	1963
520.253	1328
520.323	1085
520.393	398
520.463	2750
520.534	-1912
520.604	3037
520.674	2594
520.744	733
520.814	1057
520.885	1782
520.955	428
521.025	1621
521.095	661
521.165	2573
521.235	1083
521.305	841
521.375	1277
521.445	2307
521.515	-154
521.585	2728
521.655	-775
521.725	2203
521.795	2110
521.865	-1933
521.935	3092
522.005	293
522.075	-74
522.145	1434
522.215	77
522.285	2152
522.355	593
522.424	1467
522.494	288
522.564	1807
522.634	1360
522.704	3850
522.774	801
522.843	1073
522.913	1343
522.983	1095
523.053	-218
523.122	1568
523.192	285
523.262	1078
523.331	467
523.401	1241
523.471	1520
523.540	1270
523.610	628
523.680	1433
523.749	1527
523.819	1765
523.888	946
523.958	391
524.027	1757
524.097	621
524.166	1094
524.236	-525
524.305	2993
524.375	748
524.444	-264
524.514	3183
524.583	962
524.653	438
524.722	1919
524.791	357
524.861	2552
524.930	1259
524.999	1101
525.069	2116
525.138	1680
525.207	1452
525.277	2376
525.346	1850
525.415	3364
525.484	2693
525.554	3445
525.623	4842
525.692	6428
525.761	8217
525.830	11055
525.900	13357
525.969	21898
526.038	44627
526.107	85997
526.176	277461
526.245	254099
526.314	71952
526.383	126007
526.452	199561
526.522	246509
526.591	273641
526.660	48792
526.729	24234
526.797	24879
526.867	30085
526.935	91615
527.004	364934
527.073	291926
527.142	42097
527.211	14540
527.280	9135
527.349	5744
527.418	3148
527.487	4656
527.555	1765
527.624	2791
527.693	578
527.762	3467
527.831	1254
527.899	2835
527.968	1705
528.037	668
528.106	1959
528.174	2252
528.243	2136
528.312	1457
528.380	466
528.449	528
528.518	3002
528.586	-164
528.655	2577
528.723	1469
528.792	686
528.861	496
528.929	-165
528.998	2336
529.066	1024
529.135	1704
529.203	1025
529.272	881
529.340	2170
529.409	3744
529.477	891
529.545	951
529.614	3161
529.682	-1000
529.751	901
529.819	3379
529.887	689
529.956	2149
530.024	2370
530.092	629
530.161	2232
530.229	1840
530.297	1313
530.365	2276
530.434	1823
530.502	1677
530.570	2537
530.638	988
530.707	1540
530.775	2944
530.843	1157
530.911	2696
530.979	2885
531.047	1578
531.115	2820
531.183	2148
531.252	2307
531.320	1091
531.388	1104
531.456	1913
531.524	932
531.592	2761
531.660	4272
531.728	1655
531.796	1431
531.864	1817
531.932	1234
532.000	2087
532.067	1600
532.135	3522
532.203	3286
532.271	1738
532.339	3540
532.407	3253
532.475	3634
532.542	3156
532.610	3379
532.678	1670
532.746	4556
532.814	7436
532.881	3027
532.949	2911
533.017	2958
533.084	2796
533.152	2216
533.220	2118
533.287	1241
533.355	2760
533.423	3004
533.490	1803
533.558	2206
533.625	2997
533.693	2222
533.761	3037
533.828	2951
533.896	776
533.963	3389
534.031	3353
534.098	5367
534.166	4309
534.233	3655
534.300	5906
534.368	5908
534.435	5224
534.503	6779
534.570	7578
534.637	7314
534.705	11135
534.772	11474
534.840	21755
534.907	111977
534.974	176799
535.041	26855
535.109	7864
535.176	6206
535.243	6512
535.310	4889
535.378	3787
535.445	5519
535.512	5259
535.579	5176
535.646	3285
535.714	4727
535.781	5456
535.848	5722
535.915	6428
535.982	3592
536.049	4629
536.116	5979
536.183	4969
536.250	4245
536.317	4434
536.384	5337
536.451	5934
536.518	6017
536.585	3706
536.652	7578
536.719	6262
536.786	3808
536.853	5182
536.920	6116
536.987	6351
537.053	4290
537.120	7379
537.187	7471
537.254	6475
537.321	5078
537.388	7484
537.454	4999
537.521	5030
537.588	5378
537.654	6606
537.721	5631
537.788	6622
537.855	6273
537.921	6046
537.988	6318
538.055	6062
538.121	4691
538.188	5050
538.254	4659
538.321	5507
538.388	5959
538.454	6164
538.521	7279
538.587	6236
538.654	6247
538.720	6186
538.787	5242
538.853	6934
538.920	6011
538.986	4871
539.053	5069
539.119	5780
539.185	5904
539.252	6437
539.318	6010
539.385	7888
539.451	4949
539.517	6956
539.583	6916
539.650	6513
539.716	6808
539.782	6835
539.849	4580
539.915	6456
539.981	5299
540.047	4974
540.114	5054
540.180	7070
540.246	5265
540.312	7354
540.378	6568
540.444	8308
540.510	6938
540.576	7320
540.643	5770
540.709	4803
540.775	4981
540.841	5703
540.907	6079
540.973	6063
541.039	5975
541.105	6211
541.171	6509
541.237	6090
541.303	7028
541.369	9599
541.435	6371
541.500	6607
541.566	4435
541.632	5850
541.698	5666
541.764	7681
541.830	5409
541.896	4980
541.961	7441
542.027	5489
542.093	7343
542.159	6736
542.224	4930
542.290	6742
542.356	4947
542.421	6963
542.487	5609
542.553	6235
542.618	6041
542.684	6552
542.750	5768
542.815	6371
542.881	6072
542.947	7492
543.012	7901
543.078	6362
543.143	5760
543.209	7301
543.274	5792
543.340	7037
543.405	6463
543.471	6031
543.536	6154
543.602	6946
543.667	4758
543.732	7866
543.798	5786
543.863	7012
543.928	6116
543.994	6107
544.059	7295
544.124	6512
544.190	7084
544.255	7459
544.320	7721
544.386	7077
544.451	8707
544.516	7105
544.581	6839
544.646	7897
544.712	9083
544.777	7802
544.842	7719
544.907	7644
544.972	6948
545.037	7120
545.102	8212
545.168	7277
545.233	8273
545.298	8877
545.363	7289
545.428	10190
545.493	9678
545.558	9039
545.623	9232
545.688	8707
545.753	10328
545.818	9412
545.883	11023
545.947	10373
546.012	11249
546.077	11217
546.142	12793
546.207	12474
546.272	14731
546.337	13130
546.401	14315
546.466	15786
546.531	15657
546.596	17444
546.661	17336
546.725	19806
546.790	20191
546.855	22004
546.919	23130
546.984	27251
547.049	30089
547.113	33400
547.178	37208
547.243	42283
547.307	48409
547.372	56154
547.436	54392
547.501	57651
547.565	63983
547.630	58630
547.695	55211
547.759	55806
547.823	55350
547.888	57540
547.952	59032
548.017	60806
548.081	62763
548.146	62158
548.210	63398
548.274	69857
548.339	68415
548.403	62517
548.468	58626
548.532	57305
548.596	57998
548.660	58469
548.725	63924
548.789	70269
548.853	70094
548.917	65999
548.982	64500
549.046	57545
549.110	52889
549.174	53196
549.238	61117
549.303	69218
549.367	70011
549.431	67193
549.495	62348
549.559	62181
549.623	71403
549.687	80995
549.751	76300
549.815	91740
549.879	95916
549.943	90287
550.007	94704
550.071	95534
550.135	84888
550.199	80920
550.263	80352
550.327	74232
550.391	75434
550.455	84002
550.519	90359
550.582	93849
550.646	104317
550.710	109052
550.774	107910
550.838	109523
550.901	111903
550.965	118435
551.029	122877
551.093	130902
551.156	142128
551.220	159108
551.284	183246
551.347	145452
551.411	119863
551.475	112855
551.538	115734
551.602	109871
551.666	102309
551.729	97931
551.793	93759
551.856	93297
551.920	91524
551.983	92076
552.047	90520
552.110	91006
552.174	90462
552.237	94417
552.301	87740
552.364	84638
552.428	82287
552.491	83144
552.554	87610
552.618	85810
552.681	89709
552.745	86911
552.808	99202
552.871	116244
552.934	98685
552.998	90059
553.061	85171
553.124	82284
553.187	80821
553.251	83755
553.314	82964
553.377	83316
553.440	88708
553.503	92423
553.567	93009
553.630	90382
553.693	89527
553.756	88885
553.819	88493
553.882	83775
553.945	84775
554.008	83488
554.071	85512
554.134	85606
554.197	81711
554.260	79236
554.323	81607
554.386	81604
554.449	84910
554.512	84432
554.575	80649
554.638	81591
554.701	79991
554.764	80180
554.827	77234
554.889	74850
554.952	69418
555.015	67055
555.078	69723
555.141	71065
555.203	68712
555.266	68199
555.329	68247
555.391	65884
555.454	64990
555.517	62426
555.580	60582
555.642	58965
555.705	56724
555.768	56694
555.830	54905
555.893	53356
555.955	51408
556.018	50000
556.080	50566
556.143	52274
556.206	51600
556.268	50190
556.330	48791
556.393	47042
556.455	45838
556.518	45126
556.580	44540
556.643	41717
556.705	40439
556.767	39949
556.830	40552
556.892	38828
556.955	38105
557.017	36928
557.079	37333
557.142	36737
557.204	35607
557.266	36399
557.328	33933
557.391	30970
557.453	30913
557.515	30431
557.577	31101
557.639	31521
557.701	31672
557.764	31679
557.826	31975
557.888	33596
557.950	33883
558.012	36740
558.074	43838
558.136	89082
558.198	230818
558.260	103648
558.322	38139
558.384	36387
558.446	38378
558.508	41251
558.570	45690
558.632	52343
558.694	62633
558.756	96552
558.818	259279
558.880	581613
558.942	272300
559.003	247969
559.065	141886
559.127	50927
559.189	44945
559.251	48439
559.312	63749
559.374	137122
559.436	425683
559.498	260382
559.559	63625
559.621	47361
559.683	48552
559.744	73744
559.806	218409
559.868	360841
559.929	95724
559.991	50052
560.052	71835
560.114	214447
560.176	156369
560.237	118439
560.299	217089
560.360	56557
560.422	21276
560.483	16852
560.545	15141
560.606	13784
560.667	13123
560.729	12804
560.790	12365
560.852	12120
560.913	11896
560.974	11325
561.036	10591
561.097	12210
561.158	11751
561.220	10998
561.281	10151
561.342	10464
561.403	9799
561.465	8976
561.526	10422
561.587	10703
561.648	9475
561.709	9761
561.771	9098
561.832	9004
561.893	9067
561.954	9085
562.015	8030
562.076	8274
562.137	8770
562.198	7860
562.259	8341
562.320	8159
562.381	8602
562.442	7873
562.503	8389
562.564	7880
562.625	7762
562.686	7800
562.747	7214
562.808	7318
562.869	7261
562.930	7741
562.991	6144
563.051	6110
563.112	6784
563.173	6908
563.234	7167
563.294	6636
563.355	5779
563.416	7482
563.477	6374
563.537	6331
563.598	6078
563.659	6388
563.720	6431
563.780	6117
563.841	6805
563.901	6413
563.962	5950
564.023	6620
564.083	6447
564.144	5683
564.204	6004
564.265	5576
564.325	6601
564.386	6072
564.446	6688
564.507	5547
564.567	6124
564.628	5687
564.688	6046
564.749	4816
564.809	5313
564.869	5605
564.930	5669
564.990	6967
565.050	5225
565.111	6972
565.171	5310
565.231	6341
565.292	6226
565.352	5116
565.412	5947
565.472	5234
565.532	4453
565.593	5598
565.653	5063
565.713	5869
565.773	6119
565.833	5835
565.893	6205
565.953	5212
566.013	4914
566.074	4879
566.134	6055
566.194	4730
566.254	4324
566.314	4671
566.374	5991
566.434	4792
566.494	5754
566.554	4765
566.614	4997
566.673	5197
566.733	5857
566.793	5609
566.853	5600
566.913	5750
566.973	5226
567.033	6079
567.092	4530
567.152	5125
567.212	6237
567.272	6148
567.331	5244
567.391	6449
567.451	5882
567.511	6561
567.570	5714
567.630	5929
567.690	5752
567.749	5811
567.809	5716
567.868	5597
567.928	5196
567.988	4854
568.047	5891
568.107	6669
568.166	5948
568.226	6316
568.285	6022
568.345	5728
568.404	5919
568.464	5706
568.523	6137
568.582	6373
568.642	6218
568.701	4531
568.761	5667
568.820	5918
568.879	5608
568.939	5370
568.998	4550
569.057	5392
569.116	6124
569.176	6218
569.235	5156
569.294	5145
569.353	5599
569.413	4284
569.472	5037
569.531	4806
569.590	4962
569.649	4537
569.708	5282
569.767	5785
569.827	4742
569.886	5605
569.945	4621
570.004	4821
570.063	4387
570.122	6173
570.181	6092
570.240	5384
570.299	6113
570.358	6539
570.417	5225
570.475	5313
570.534	5805
570.593	6868
570.652	6196
570.711	5603
570.770	5605
570.829	5882
570.887	5505
570.946	5647
571.005	6319
571.064	6884
571.122	8188
571.181	6612
571.240	4537
571.299	6218
571.357	5647
571.416	6157
571.475	5560
571.533	5434
571.592	5813
571.650	5706
571.709	5866
571.768	7037
571.826	8735
571.885	7110
571.943	6092
572.002	5029
572.060	5998
572.119	5341
572.177	5855
572.236	5657
572.294	5446
572.352	7010
572.411	5484
572.469	6100
572.528	5658
572.586	5161
572.644	5040
572.703	5145
572.761	5423
572.819	3980
572.877	4505
572.936	4455
572.994	4503
573.052	4815
573.110	5266
573.169	5313
573.227	6344
573.285	5391
573.343	3937
573.401	5646
573.459	5369
573.517	5254
573.576	5976
573.634	5516
573.692	5004
573.750	5347
573.808	6027
573.866	4100
573.924	4213
573.982	4746
574.040	4253
574.098	4883
574.155	4307
574.213	4435
574.271	4730
574.329	5143
574.387	4862
574.445	4849
574.503	3880
574.560	4218
574.618	4745
574.676	4059
574.734	3803
574.792	5624
574.849	4469
574.907	2966
574.965	3703
575.022	3538
575.080	3584
575.138	3207
575.195	3691
575.253	3306
575.311	2972
575.368	3319
575.426	2736
575.483	4151
575.541	3298
575.598	4017
575.656	2572
575.713	4570
575.771	3604
575.828	3517
575.886	4211
575.943	4034
576.001	3442
576.058	2688
576.115	3639
576.173	3248
576.230	2530
576.287	3890
576.345	4551
576.402	3889
576.459	3436
576.517	2323
576.574	2368
576.631	3407
576.688	3045
576.746	2364
576.803	3360
576.860	2800
576.917	2614
576.974	3431
577.031	3340
577.089	2894
577.146	2678
577.203	3513
577.260	3786
577.317	2810
577.374	2834
577.431	2495
577.488	3097
577.545	2902
577.602	4196
577.659	2576
577.716	3293
577.773	2693
577.830	2364
577.886	2594
577.943	2029
578.000	2759
578.057	3234
578.114	3126
578.171	2641
578.227	2524
578.284	2943
578.341	3291
578.398	3690
578.454	3282
578.511	3277
578.568	3391
578.625	2574
578.681	2786
578.738	2580
578.794	3701
578.851	3030
578.908	2458
578.964	3036
579.021	3610
579.077	2031
579.134	2718
579.190	3333
579.247	2786
579.303	2605
579.360	2270
579.416	2877
579.473	3403
579.529	2494
579.586	1779
579.642	3681
579.698	3210
579.755	3051
579.811	2476
579.867	3295
579.924	2174
579.980	2626
580.036	3352
580.093	2941
580.149	3389
580.205	2696
580.261	3777
580.317	2658
580.374	3531
580.430	4524
580.486	4220
580.542	3274
580.598	3332
580.619	3366
580.654	3419
580.692	3397
580.710	3377
580.765	2902
580.767	2881
580.823	4025
580.838	3944
580.879	3715
580.911	3420
580.935	3193
580.984	3596
580.991	3646
581.047	4845
581.057	4705
581.103	3992
581.130	3664
581.159	3333
581.203	3536
581.215	3588
581.270	3593
581.276	3581
581.326	3346
581.349	3261
581.382	3145
581.422	3775
581.438	4014
581.494	3807
581.494	3805
581.550	2959
581.567	3384
581.606	4222
581.640	4275
581.661	4313
581.713	5215
581.717	5282
581.773	4387
581.786	4329
581.829	4106
581.859	3878
581.885	3686
581.932	4255
581.940	4345
581.996	4673
582.004	4597
582.052	4166
582.077	4302
582.107	4427
582.150	4728
582.163	4802
582.219	4706
582.223	4668
582.274	4230
582.296	4203
582.330	4093
582.368	4630
582.386	4931
582.441	4754
582.441	4748
582.497	4554
582.514	4687
582.552	5094
582.587	4714
582.608	4420
582.659	4514
582.663	4522
582.719	5535
582.732	5461
582.774	5113
582.805	5244
582.830	5451
582.877	5568
582.885	5584
582.941	5683
582.950	5690
582.996	5540
583.023	5759
583.052	6149
583.095	5879
583.107	5782
583.162	6459
583.168	6573
583.218	7334
583.240	6673
583.273	5672
583.313	5868
583.328	6074
583.384	6132
583.385	6136
583.439	5754
583.458	5696
583.494	6007
583.531	6316
583.549	6373
583.603	6343
583.605	6342
583.660	6664
583.676	6792
583.715	7257
583.748	7269
583.770	7170
583.820	7198
583.825	7216
583.881	6996
583.893	7073
583.936	7329
583.965	7065
583.991	6820
584.038	7190
584.046	7320
584.101	7864
584.110	7871
584.156	7728
584.183	7672
584.211	7416
584.255	7304
584.266	7440
584.321	8265
584.328	8265
584.376	7977
584.400	8397
584.431	9019
584.472	9012
584.486	9046
584.541	9243
584.545	9267
584.596	9639
584.617	9342
584.651	9256
584.689	10257
584.706	10543
584.761	10640
584.762	10622
584.816	10434
584.834	10822
584.871	11772
584.906	12038
584.926	12116
584.978	12394
584.980	12443
585.035	14325
585.051	14729
585.090	15913
585.123	16716
585.145	17289
585.195	18617
585.200	18856
585.254	22420
585.267	23206
585.309	25942
585.340	28115
585.364	30395
585.412	34921
585.419	35735
585.473	43642
585.484	45320
585.528	58810
585.556	71247
585.583	100862
585.628	164656
585.637	189709
585.692	384328
585.700	416588
585.747	499806
585.772	448942
585.801	301596
585.845	116015
585.856	95550
585.910	48633
585.917	43838
585.965	33934
585.989	29980
586.019	27822
586.061	24520
586.074	23797
586.128	22396
586.133	22261
586.183	21628
586.205	21107
586.237	21018
586.277	20780
586.292	20713
586.346	21027
586.349	20985
586.401	21125
586.421	20864
586.455	20844
586.493	21204
586.509	21450
586.564	21736
586.565	21695
586.618	23677
586.637	24569
586.672	27549
586.709	30523
586.727	31665
586.781	34190
586.781	34256
586.835	28141
586.853	26412
586.889	24797
586.925	23061
586.944	22861
586.996	22927
586.998	23007
587.052	23262
587.068	23365
587.106	23630
587.140	23734
587.161	23924
587.212	23830
587.215	23904
587.269	24400
587.284	24352
587.323	25352
587.356	26318
587.377	26800
587.427	27879
587.431	28037
587.485	28612
587.499	28576
587.539	28802
587.571	29428
587.593	30143
587.643	31238
587.648	31454
587.702	32593
587.715	32647
587.755	32695
587.786	32950
587.810	33396
587.858	33592
587.864	33700
587.917	34009
587.930	33817
587.971	33959
588.001	34561
588.025	35028
588.073	34715
588.079	34892
588.133	35861
588.145	35989
588.187	36709
588.217	36677
588.241	37078
588.288	38187
588.295	38525
588.348	39777
588.360	39961
588.402	40517
588.431	40729
588.456	41798
588.503	43815
588.510	44315
588.564	46888
588.575	47287
588.617	50648
588.646	52830
588.671	55293
588.718	59243
588.725	60887
588.778	73663
588.789	76270
588.832	114031
588.861	141663
588.886	194131
588.932	300087
588.939	306482
588.993	343481
589.004	342075
589.047	214017
589.075	134066
589.100	109024
589.147	68776
589.154	67877
589.207	60063
589.218	58308
589.261	58960
589.290	59024
589.314	60712
589.361	64195
589.368	66668
589.421	86249
589.433	90394
589.475	148804
589.504	191912
589.528	236498
589.576	325577
589.582	315226
589.635	185013
589.647	157363
589.689	100353
589.718	63337
589.742	59508
589.790	51507
589.795	51464
589.849	49487
589.861	48863
589.902	48001
589.932	47118
589.955	47336
590.004	47048
590.009	47151
590.062	46552
590.075	46147
590.115	46257
590.146	46028
590.168	46276
590.218	46408
590.222	46682
590.275	47438
590.289	47570
590.328	48440
590.360	48694
590.381	49100
590.431	49329
590.435	49584
590.488	50380
590.503	50460
590.541	51287
590.574	51505
590.594	52584
590.645	54745
590.647	55023
590.700	56320
590.716	56472
590.753	58351
590.787	59450
590.806	60164
590.859	61583
590.859	61847
590.912	62018
590.930	61770
590.965	63120
591.001	64137
591.018	64092
591.071	62957
591.072	62681
591.124	62840
591.143	62576
591.177	63235
591.214	63286
591.230	64090
591.283	66076
591.285	65870
591.336	65660
591.356	65131
591.389	65733
591.427	65756
591.442	65642
591.495	64298
591.498	63921
591.547	65418
591.569	65706
591.600	66371
591.640	66496
591.653	67357
591.706	69861
591.711	69830
591.759	72224
591.782	72946
591.811	74219
591.853	75261
591.864	75909
591.917	77513
591.924	77399
591.969	77236
591.995	76648
592.022	77674
592.066	78425
592.075	79234
592.127	82059
592.137	82227
592.180	83455
592.208	83645
592.233	84852
592.279	86057
592.285	86667
592.338	88572
592.350	88609
592.390	89272
592.421	89083
592.443	90115
592.491	91107
592.495	91794
592.548	95598
592.562	96216
592.600	95651
592.633	94384
592.653	95289
592.704	96003
592.705	96599
592.775	98568
592.846	100522
592.916	101316
592.987	102614
593.058	103881
593.128	106128
593.199	107228
593.270	109484
593.341	114119
593.411	119130
593.482	123095
593.553	123134
593.623	125014
593.694	125150
593.764	127394
593.835	124317
593.906	125248
593.976	127672
594.047	131155
594.117	134202
594.188	136372
594.258	137880
594.329	136345
594.399	142749
594.470	144216
594.540	148110
594.611	151598
594.681	150298
594.751	149431
594.822	155907
594.892	160800
594.963	166336
595.033	171616
595.103	174799
595.174	176425
595.244	180475
595.314	185029
595.384	191357
595.455	195345
595.525	200846
595.595	209287
595.665	206420
595.736	201507
595.806	207123
595.876	208280
595.946	210681
596.016	220411
596.087	227829
596.157	224540
596.227	228848
596.297	239590
596.367	257691
596.437	269595
596.507	266133
596.577	266110
596.647	275149
596.717	290106
596.787	292943
596.857	290445
596.927	293716
596.997	293181
597.067	297247
597.137	301937
597.207	304173
597.277	307742
597.347	294306
597.417	286505
597.487	286106
597.557	291251
597.626	300653
597.696	303516
597.766	302797
597.836	282864
597.906	272413
597.975	265692
598.045	271077
598.115	282032
598.185	306338
598.254	338488
598.324	365645
598.394	368957
598.464	356544
598.533	351751
598.603	328434
598.672	316666
598.742	326476
598.812	327648
598.881	337513
598.951	333729
599.020	343288
599.090	352652
599.159	355750
599.229	342459
599.299	334564
599.368	346404
599.437	339149
599.507	312840
599.576	303509
599.646	299266
599.715	293350
599.785	291410
599.854	285041
599.924	279680
599.993	278302
600.062	282853
600.132	292247
600.201	310737
600.270	360151
600.340	376793
600.409	368947
600.478	367066
600.547	375134
600.617	333314
600.686	268177
600.755	245456
600.824	232158
600.894	226547
600.963	228944
601.032	223705
601.101	217243
601.170	206362
601.239	201360
601.308	199490
601.378	199935
601.447	204021
601.516	203630
601.585	205981
601.654	208921
601.723	208716
601.792	213758
601.861	219949
601.930	229070
601.999	231434
602.068	229183
602.137	232000
602.206	234175
602.275	240021
602.343	243422
602.412	243383
602.481	246840
602.550	250168
602.619	256270
602.688	259049
602.756	261181
602.825	264536
602.894	272193
602.963	276422
603.032	279010
603.100	279485
603.169	279160
603.238	282311
603.307	284177
603.375	288549
603.444	291766
603.513	299697
603.581	302870
603.650	306089
603.719	302773
603.787	310689
603.856	320878
603.924	326857
603.993	336831
604.061	350993
604.130	363831
604.198	372274
604.267	377547
604.335	382209
604.404	388580
604.472	393870
604.541	396480
604.609	400865
604.678	402168
604.746	403688
604.815	414466
604.883	419792
604.951	421757
605.020	425211
605.088	434075
605.156	445244
605.225	449796
605.293	446746
605.361	452329
605.429	452771
605.498	466436
605.566	475100
605.634	494942
605.702	510770
605.771	523564
605.839	526413
605.907	514930
605.975	499334
606.043	492663
606.111	492946
606.180	491212
606.248	489233
606.316	483211
606.384	485695
606.452	485677
606.520	497386
606.588	513521
606.656	518676
606.724	506083
606.792	483552
606.860	439273
606.928	404684
606.996	389966
607.064	382102
607.132	393079
607.200	414357
607.267	430182
607.335	438608
607.403	443660
607.471	428451
607.539	420252
607.607	414625
607.674	368786
607.742	371141
607.810	367159
607.878	368486
607.946	378180
608.013	394450
608.081	399958
608.149	401728
608.216	421409
608.284	429972
608.352	431545
608.419	424128
608.487	415878
608.555	408600
608.622	424715
608.690	450294
608.757	489220
608.825	496474
608.893	485203
608.960	454124
609.028	440194
609.095	442526
609.163	439769
609.230	390774
609.298	364782
609.365	386495
609.432	413817
609.500	449964
609.567	509362
609.635	570005
609.702	587891
609.769	557905
609.837	438081
609.904	388908
609.971	396528
610.039	412778
610.106	470769
610.173	673017
610.241	1090938
610.308	728464
610.375	456987
610.442	414623
610.509	405094
610.577	406142
610.644	412857
610.711	426521
610.778	435930
610.845	455383
610.912	478867
610.980	495433
611.047	493311
611.114	484385
611.181	475519
611.248	472372
611.315	499046
611.382	508062
611.449	527951
611.516	530416
611.583	524767
611.650	524092
611.717	529244
611.784	538402
611.851	548956
611.918	561908
611.984	608884
612.051	701248
612.118	966556
612.185	1454584
612.252	1125732
612.319	700623
612.386	644482
612.452	603394
612.519	583188
612.586	574897
612.653	589012
612.719	608036
612.786	583383
612.853	547230
612.919	545333
612.986	548977
613.053	521789
613.120	491026
613.186	479772
613.253	483500
613.319	483240
613.386	485619
613.453	492922
613.519	491223
613.586	486100
613.652	490763
613.719	483944
613.785	494986
613.852	499102
613.918	496671
613.985	504487
614.051	519820
614.118	510300
614.184	495161
614.250	496794
614.317	506755
614.383	501711
614.449	509957
614.516	505133
614.582	508264
614.648	501245
614.715	500882
614.781	487904
614.847	489386
614.914	485844
614.980	476108
615.046	475663
615.112	491844
615.179	488739
615.245	498361
615.311	490721
615.377	498892
615.443	499239
615.509	506095
615.575	516805
615.642	511943
615.708	520978
615.774	536058
615.840	555732
615.906	565112
615.972	613380
616.038	746214
616.104	1097032
616.170	1559344
616.236	1354976
616.302	834254
616.368	732086
616.434	604241
616.500	574837
616.565	614393
616.631	707013
616.697	620859
616.763	632477
616.829	807450
616.895	1160534
616.961	1052831
617.026	640143
617.092	537157
617.158	522735
617.224	512536
617.289	482175
617.355	465853
617.421	464140
617.487	462395
617.552	444112
617.618	441455
617.684	442100
617.749	445873
617.815	433852
617.880	425854
617.946	425715
618.012	431744
618.077	436176
618.143	417959
618.208	423278
618.274	449366
618.339	447123
618.405	377149
618.470	377983
618.536	377538
618.601	370152
618.667	345090
618.732	332634
618.798	329773
618.863	332034
618.928	331377
618.994	331913
619.059	330476
619.124	332581
619.190	326228
619.255	325117
619.320	324523
619.386	327930
619.451	319197
619.516	312484
619.581	320181
619.647	332818
619.712	327913
619.777	315232
619.842	319670
619.907	325515
619.972	331490
620.038	327845
620.103	321700
620.168	323258
620.233	326704
620.298	331162
620.363	336040
620.428	343750
620.493	354519
620.558	358810
620.623	358810
620.688	356241
620.753	353935
620.818	359730
620.883	358063
620.948	358033
621.013	350662
621.078	343083
621.143	343812
621.207	345417
621.272	338337
621.337	329014
621.402	326015
621.467	324417
621.532	324598
621.596	325228
621.661	315380
621.726	315376
621.791	317793
621.855	318770
621.920	312896
621.985	320288
622.049	327695
622.114	327244
622.179	330606
622.243	338796
622.308	350119
622.373	359910
622.437	348785
622.502	331502
622.566	329652
622.631	328731
622.695	338105
622.760	333098
622.824	334923
622.889	333834
622.953	337989
623.018	352949
623.082	357696
623.147	352568
623.211	345030
623.276	345322
623.340	331865
623.404	328585
623.469	325590
623.533	330542
623.597	322515
623.662	321313
623.726	297306
623.790	281796
623.854	273910
623.919	280857
623.983	284101
624.047	289044
624.111	292400
624.176	295942
624.240	299149
624.304	304997
624.368	296500
624.432	297072
624.496	305019
624.560	321373
624.625	321124
624.689	317738
624.753	332904
624.817	316235
624.881	309343
624.945	281591
625.009	274777
625.073	280981
625.137	289399
625.201	300331
625.265	299234
625.329	288489
625.393	293086
625.456	295358
625.520	301852
625.584	307165
625.648	313822
625.712	321367
625.776	314953
625.839	297761
625.903	255783
625.967	239983
626.031	259181
626.095	304027
626.158	278070
626.222	224719
626.286	210476
626.349	203857
626.413	188965
626.477	191366
626.540	192853
626.604	190542
626.668	188274
626.731	184916
626.795	185328
626.858	185782
626.922	180976
626.986	180673
627.049	182175
627.113	190927
627.176	181809
627.240	178545
627.303	179879
627.366	178682
627.430	180123
627.493	176482
627.557	172122
627.620	178734
627.684	185164
627.747	185143
627.810	167823
627.874	152802
627.937	146923
628.000	153199
628.064	148219
628.127	133299
628.190	132537
628.253	128898
628.317	124831
628.380	118139
628.443	115172
628.506	113763
628.569	110037
628.632	105778
628.696	105755
628.759	105253
628.822	99491
628.885	99081
628.948	96493
629.011	95233
629.074	93693
629.137	90563
629.200	88672
629.263	88614
629.326	86553
629.389	86806
629.452	85758
629.515	83666
629.578	82939
629.641	86045
629.704	85093
629.767	82938
629.830	81839
629.892	81152
629.955	79925
630.018	83552
630.081	79863
630.144	80790
630.207	77772
630.269	81318
630.332	76579
630.395	77164
630.458	74457
630.520	73408
630.583	75532
630.646	75357
630.708	76875
630.771	76710
630.834	81953
630.896	78097
630.959	78144
631.021	76047
631.084	77104
631.146	76979
631.209	76193
631.272	75327
631.334	78526
631.397	78027
631.459	77444
631.522	80887
631.584	81393
631.646	84825
631.709	86156
631.771	86242
631.834	83208
631.896	81223
631.958	76551
632.021	76666
632.083	72802
632.145	75410
632.208	72555
632.270	73666
632.332	71437
632.395	71320
632.457	72300
632.519	71017
632.581	72107
632.643	70241
632.706	71814
632.768	70128
632.830	72524
632.892	74031
632.954	73163
633.016	75363
633.078	73016
633.141	72929
633.203	71898
633.265	71271
633.327	72872
633.389	71970
633.451	72108
633.513	70751
633.575	72234
633.637	71670
633.698	74418
633.760	76785
633.822	77983
633.884	80062
633.946	80324
634.008	81609
634.070	82214
634.132	85405
634.193	88872
634.255	94609
634.317	96086
634.379	95633
634.441	87184
634.502	80572
634.564	76252
634.626	72229
634.687	69454
634.749	67428
634.811	67964
634.873	66117
634.934	68691
634.996	67984
635.057	67512
635.119	68661
635.181	70360
635.242	70482
635.304	66892
635.365	71294
635.427	68267
635.488	68949
635.550	67588
635.611	68173
635.673	66358
635.734	71045
635.796	72962
635.857	79096
635.918	79768
635.980	89433
636.041	92033
636.102	96644
636.164	96472
636.225	92691
636.286	82432
636.348	75528
636.409	69622
636.470	67274
636.531	68053
636.593	65140
636.654	64766
636.715	61932
636.776	63386
636.838	60359
636.899	60523
636.960	60674
637.021	60060
637.082	58365
637.143	57392
637.204	56632
637.265	56820
637.326	58507
637.387	60842
637.448	58296
637.509	57826
637.570	58294
637.631	57985
637.692	55998
637.753	53606
637.814	54958
637.875	55272
637.936	54990
637.997	54167
638.058	53401
638.119	54047
638.179	54927
638.240	54368
638.301	55786
638.362	52516
638.423	51418
638.483	53321
638.544	50346
638.605	51048
638.666	50891
638.726	52181
638.787	50484
638.848	50764
638.908	50202
638.969	49176
639.030	48518
639.090	47969
639.151	48573
639.211	49263
639.272	49916
639.332	50206
639.393	50607
639.453	52082
639.514	52438
639.574	49166
639.635	46747
639.695	46650
639.756	45262
639.816	45500
639.877	45152
639.937	46981
639.997	45766
640.058	44960
640.118	44204
640.178	46106
640.239	45051
640.299	45531
640.359	45516
640.420	48792
640.480	52555
640.540	56744
640.600	55877
640.661	51996
640.721	49638
640.781	50495
640.841	44922
640.901	45774
640.961	46691
641.021	46981
641.082	49586
641.142	45678
641.202	46908
641.262	42912
641.322	45230
641.382	43235
641.442	44683
641.502	42967
641.562	44141
641.622	44870
641.682	47864
641.742	50956
641.802	46800
641.861	42865
641.921	41941
641.981	41256
642.041	40066
642.101	39481
642.161	37790
642.221	41121
642.280	40372
642.340	40296
642.400	41214
642.460	42828
642.519	41477
642.579	41123
642.639	42786
642.698	39998
642.758	44671
642.818	41894
642.877	42268
642.937	42600
642.997	42349
643.056	42782
643.116	41388
643.175	43484
643.235	42877
643.294	43981
643.354	45865
643.414	47343
643.473	51098
643.532	56302
643.592	68283
643.651	91341
643.711	138253
643.770	241075
643.830	517301
643.889	784358
643.948	269674
644.008	91330
644.067	62746
644.126	51089
644.186	46790
644.245	43524
644.304	41219
644.363	43221
644.423	38510
644.482	40274
644.541	42463
644.600	42850
644.659	50499
644.719	56769
644.778	76979
644.837	116766
644.896	223424
644.955	416872
645.014	141463
645.073	55575
645.132	46348
645.191	45024
645.250	43045
645.309	45946
645.368	48610
645.427	59244
645.486	96996
645.545	144591
645.604	50758
645.663	41154
645.722	40392
645.781	42102
645.840	44830
645.898	50593
645.957	62333
646.016	84077
646.075	131725
646.134	230648
646.192	530951
646.251	605918
646.310	155647
646.369	69748
646.427	61384
646.486	48640
646.545	42288
646.603	38979
646.662	37962
646.721	36562
646.779	36492
646.838	36028
646.896	42734
646.955	53623
647.014	77009
647.072	136503
647.131	317812
647.189	138468
647.248	41051
647.306	35306
647.365	33162
647.423	29298
647.481	32676
647.540	29980
647.598	32233
647.657	29412
647.715	30250
647.773	29256
647.832	30440
647.890	26646
647.948	26842
648.007	27775
648.065	25909
648.123	25549
648.181	27190
648.240	26644
648.298	24821
648.356	24778
648.414	25905
648.472	24648
648.531	24686
648.589	23299
648.647	23756
648.705	24072
648.763	24412
648.821	24165
648.879	24769
648.937	26883
648.995	30214
649.053	34482
649.111	45704
649.169	65751
649.227	109606
649.285	216874
649.343	487825
649.401	221308
649.459	49865
649.516	34764
649.574	29582
649.632	30625
649.690	34033
649.748	39810
649.806	54672
649.863	94783
649.921	244910
649.979	136659
650.037	32049
650.094	22776
650.152	21993
650.210	20686
650.268	20889
650.325	20338
650.383	20305
650.440	17926
650.498	19068
650.556	18195
650.613	17882
650.671	18617
650.728	18695
650.786	19740
650.843	26258
650.901	18505
650.958	18033
651.016	17339
651.073	16805
651.131	16449
651.188	15040
651.246	16686
651.303	14952
651.360	15811
651.418	15396
651.475	15276
651.532	15379
651.590	15594
651.647	14901
651.704	15356
651.762	15590
651.819	15031
651.876	14192
651.933	14916
651.990	15502
652.048	13061
652.105	13593
652.162	14663
652.219	12819
652.276	14324
652.333	15372
652.390	13441
652.448	14153
652.505	14150
652.562	12413
652.619	12676
652.676	13540
652.733	13397
652.790	13438
652.847	11993
652.904	13695
652.961	12228
653.017	12628
653.074	13427
653.131	12790
653.188	11995
653.245	13291
653.302	12096
653.359	12671
653.415	13362
653.472	12778
653.529	12816
653.586	11173
653.642	11853
653.699	12681
653.756	11559
653.813	12290
653.869	12964
653.926	12318
653.983	12179
654.039	13098
654.096	12572
654.152	12832
654.209	11769
654.266	11831
654.322	11397
654.379	12550
654.435	11666
654.492	11636
654.548	11189
654.605	11554
654.661	11712
654.717	11986
654.774	11758
654.830	11155
654.887	10594
654.943	11069
655.000	11299
655.056	11375
655.112	11412
655.168	11087
655.225	11738
655.281	13392
655.337	11545
655.394	11501
655.450	10702
655.506	11503
655.562	10928
655.618	11647
655.675	10778
655.731	11693
655.787	10882
655.843	11432
655.899	10233
655.955	11455
656.011	10853
656.067	10439
656.123	11457
656.179	11195
656.235	11835
656.291	10171
656.347	13160
656.403	11452
656.459	11132
656.515	11214
656.571	10243
656.627	11401
656.683	10897
656.739	11438
656.795	11000
656.850	10677
656.906	11090
656.962	12209
657.018	11512
657.074	14416
657.129	18043
657.185	27687
657.241	54868
657.297	26820
657.352	11833
657.408	10694
657.464	10193
657.519	9840
657.575	8522
657.630	10675
657.686	9690
657.742	9922
657.797	10036
657.853	10135
657.908	10952
657.964	9759
658.019	9466
658.075	9480
658.130	9433
658.186	9875
658.241	9694
658.297	8840
658.352	9149
658.407	9941
658.463	8531
658.518	9933
658.573	9819
658.629	8952
658.684	9276
658.739	9199
658.795	9095
658.850	9434
658.905	8629
658.960	9164
659.016	9140
659.071	8879
659.126	8843
659.181	8755
659.236	9638
659.291	10312
659.346	7557
659.401	8615
659.457	9065
659.512	8285
659.567	9673
659.622	9495
659.677	8098
659.732	7842
659.787	9251
659.842	8171
659.897	8574
659.952	9072
660.007	9030
660.061	9350
660.116	6973
660.171	8403
660.226	7443
660.281	9422
660.336	7516
660.391	8967
660.445	6618
660.500	8487
660.555	7965
660.610	8093
660.664	8778
660.719	8076
660.774	8219
660.828	7872
660.883	7440
660.938	8775
660.992	6941
661.047	8433
661.101	7421
661.156	7955
661.211	7632
661.265	7782
661.320	6994
661.374	7851
661.429	6774
661.483	8501
661.538	6488
661.592	7228
661.647	7303
661.701	9137
661.755	6773
661.810	8121
661.864	6646
661.919	7479
661.973	7549
662.027	7408
662.081	7807
662.136	8668
662.190	7000
662.244	7549
662.299	7387
662.353	8094
662.407	7056
662.461	8435
662.515	7292
662.569	7195
662.624	7347
662.678	7657
662.732	7526
662.786	7320
662.840	8245
662.894	8993
662.948	7054
663.002	7650
663.056	7680
663.110	6484
663.164	6999
663.218	8264
663.272	7399
663.326	7103
663.380	6729
663.434	7486
663.488	7404
663.542	7666
663.595	7156
663.649	6832
663.703	7737
663.757	8347
663.811	7205
663.864	7945
663.918	7450
663.972	8027
664.026	7223
664.079	7433
664.133	8239
664.187	7731
664.240	6888
664.294	7314
664.348	7372
664.401	8082
664.455	7632
664.508	7568
664.562	7500
664.615	6807
664.669	6640
664.722	7335
664.776	7101
664.829	7544
664.883	7138
664.936	7525
664.990	6176
665.043	7548
665.097	6928
665.150	7920
665.203	7231
665.257	7169
665.310	8435
665.363	7792
665.417	7926
665.470	7545
665.523	7904
665.576	7844
665.630	7327
665.683	7958
665.736	7973
665.789	7539
665.842	7003
665.895	7867
665.949	6801
666.002	7656
666.055	7132
666.108	8340
666.161	6927
666.214	9004
666.267	6948
666.320	7912
666.373	8336
666.426	7975
666.479	8214
666.532	8183
666.585	8166
666.638	9048
666.691	8519
666.744	8106
666.796	7999
666.849	8552
666.902	7924
666.955	8740
667.008	8004
667.060	8502
667.113	8269
667.166	9165
667.219	9076
667.271	9319
667.324	8720
667.377	8946
667.430	7763
667.482	8427
667.535	9093
667.587	8367
667.640	8143
667.693	7893
667.745	7366
667.798	8612
667.850	8645
667.903	8594
667.955	8146
668.008	8471
668.060	8595
668.113	8049
668.165	7953
668.218	7670
668.270	7926
668.322	8477
668.375	8023
668.427	8622
668.479	7462
668.532	8534
668.584	8339
668.636	7789
668.689	7126
668.741	6816
668.793	7253
668.845	8154
668.898	7984
668.950	7963
669.002	8249
669.054	8480
669.106	7031
669.158	7878
669.211	6714
669.263	7629
669.315	8139
669.367	8047
669.419	6852
669.471	7640
669.523	7538
669.575	8084
669.627	6728
669.679	6963
669.731	7484
669.783	7833
669.835	6745
669.886	7303
669.938	7449
669.990	7006
670.042	6133
670.094	6724
670.146	7088
670.197	8526
670.249	7249
670.301	7355
670.353	8483
670.404	9010
670.456	7984
670.508	11207
670.560	14444
670.611	21315
670.663	33918
670.715	78056
670.766	100073
670.818	24869
670.869	9843
670.921	9473
670.972	8739
671.024	7599
671.075	7111
671.127	8017
671.178	8217
671.230	8857
671.281	8715
671.333	10045
671.384	10368
671.436	14429
671.487	17952
671.538	25655
671.590	38288
671.641	62724
671.692	113673
671.744	194619
671.795	120186
671.846	43430
671.897	21861
671.949	15915
672.000	12098
672.051	11162
672.102	8859
672.153	8950
672.204	8345
672.256	8182
672.307	6927
672.358	6968
672.409	6867
672.460	6394
672.511	5316
672.562	6300
672.613	5388
672.664	5875
672.715	6682
672.766	5814
672.817	5451
672.868	6053
672.919	4643
672.970	5517
673.021	5263
673.071	5223
673.122	5081
673.173	5629
673.224	5079
673.275	5574
673.326	5836
673.376	5375
673.427	4718
673.478	5609
673.528	5664
673.579	5557
673.630	4473
673.680	6387
673.731	4809
673.782	5651
673.832	5035
673.883	5650
673.934	4389
673.984	5775
674.035	5368
674.085	5568
674.136	6217
674.186	5108
674.237	4979
674.287	4804
674.338	5697
674.388	5765
674.438	4968
674.489	6470
674.539	5291
674.589	5833
674.640	4234
674.690	5785
674.740	5491
674.791	5459
674.841	5215
674.891	4762
674.942	4035
674.992	3937
675.042	4787
675.092	4334
675.142	4327
675.193	4205
675.243	4021
675.293	5286
675.343	3676
675.393	4373
675.443	4342
675.493	5082
675.543	4581
675.593	4407
675.643	4357
675.693	5627
675.743	4121
675.793	4364
675.843	3471
675.893	4503
675.943	4539
675.993	3721
676.043	3911
676.093	4256
676.142	3732
676.192	4401
676.242	4223
676.292	3536
676.341	4018
676.391	4257
676.441	3268
676.491	3918
676.540	2979
676.590	4414
676.640	3105
676.689	3405
676.739	2762
676.789	4404
676.838	3885
676.888	3269
676.937	3201
676.987	3474
677.037	3450
677.086	3912
677.136	3327
677.185	3423
677.235	3238
677.284	4314
677.333	3464
677.383	2824
677.432	2932
677.482	3038
677.531	3811
677.580	3212
677.630	2945
677.679	3076
677.728	3898
677.778	3720
677.827	2333
677.876	3291
677.925	2917
677.975	3739
678.024	4164
678.073	3475
678.122	3668
678.171	4357
678.220	3478
678.269	5337
678.319	4915
678.368	4999
678.417	4124
678.466	4186
678.515	3295
678.564	2812
678.613	2580
678.662	2338
678.711	3426
678.760	3067
678.809	2899
678.857	4077
678.906	3012
678.955	3207
679.004	3076
679.053	3404
679.102	2866
679.151	2848
679.199	2806
679.248	3525
679.297	2460
679.346	2467
679.394	2439
679.443	2737
679.492	2680
679.540	3099
679.589	2697
679.638	3644
679.686	3833
679.735	4347
679.784	3979
679.832	4999
679.881	3216
679.929	3193
679.978	2934
680.026	3044
680.075	3296
680.123	2540
680.172	2142
680.220	2942
680.268	2243
680.317	2405
680.365	2797
680.414	2361
680.462	2637
680.510	2723
680.559	2574
680.607	3664
680.655	2655
680.703	3000
680.752	2243
680.800	2510
680.848	2826
680.896	2392
680.945	2140
680.993	2800
681.041	1928
681.089	2336
681.137	1320
681.185	2232
681.233	2105
681.258	2168
681.281	2213
681.329	2246
681.377	2848
681.380	2872
681.425	3088
681.473	3044
681.502	2893
681.521	2755
681.569	3739
681.617	2611
681.624	2614
681.665	2538
681.713	3485
681.745	3132
681.761	2941
681.809	2647
681.857	3121
681.867	3118
681.904	3040
681.952	2885
681.989	2757
682.000	2708
682.048	2784
682.096	2528
682.111	2691
682.143	2973
682.191	2214
682.233	4437
682.239	4757
682.286	2823
682.334	3450
682.354	3332
682.382	3142
682.430	3717
682.476	2935
682.477	2906
682.525	3347
682.572	3332
682.598	2870
682.620	2426
682.667	2927
682.715	2914
682.720	2930
682.763	2998
682.810	3499
682.841	3795
682.857	3920
682.905	2403
682.952	3590
682.963	3617
683.000	3632
683.047	3343
683.085	4379
683.095	4649
683.142	3471
683.190	3722
683.206	3486
683.237	3071
683.284	4110
683.328	3420
683.332	3345
683.379	3497
683.426	3376
683.449	3317
683.473	3294
683.521	2607
683.568	3750
683.571	3751
683.615	3463
683.662	3974
683.693	3686
683.709	3530
683.757	3020
683.804	2958
683.814	3006
683.851	3200
683.898	3640
683.936	4062
683.945	4146
683.992	3912
684.039	3570
684.057	3715
684.086	3895
684.133	3533
684.179	2827
684.180	2798
684.227	3929
684.274	4031
684.300	4398
684.321	4639
684.368	3331
684.415	4111
684.422	3997
684.462	3332
684.509	3196
684.543	3964
684.556	4221
684.603	4418
684.649	3827
684.665	3907
684.696	4102
684.743	3557
684.786	4617
684.790	4685
684.837	3632
684.883	4244
684.908	4266
684.930	4327
684.977	4339
685.023	4012
685.029	4129
685.070	4860
685.117	3367
685.150	3857
685.164	4071
685.210	3265
685.257	4370
685.272	4311
685.303	4129
685.350	4494
685.393	4495
685.396	4494
685.443	3655
685.490	4469
685.514	4625
685.536	4692
685.583	4656
685.629	4082
685.636	4046
685.675	3989
685.722	4442
685.757	4098
685.768	3923
685.815	4337
685.861	4140
685.878	4130
685.908	4349
685.954	4205
686.000	5335
686.000	5342
686.047	4722
686.093	4641
686.121	4133
686.139	3900
686.185	5057
686.232	4467
686.242	4656
686.278	5242
686.324	5000
686.363	5027
686.370	5019
686.416	4733
686.463	5665
686.484	5378
686.509	5012
686.555	5136
686.601	4404
686.606	4474
686.647	5292
686.693	4542
686.727	4702
686.739	4717
686.785	4721
686.831	4905
686.848	4933
686.877	5020
686.923	5255
686.969	5241
686.969	5241
687.015	4904
687.061	5743
687.090	5948
687.107	5986
687.153	5655
687.199	5258
687.211	5366
687.245	5513
687.291	5429
687.332	4626
687.336	4574
687.382	5364
687.428	4938
687.453	5477
687.474	5825
687.520	4937
687.565	5047
687.574	5036
687.611	5325
687.657	5788
687.695	5969
687.702	5946
687.748	5801
687.794	5934
687.816	5808
687.839	5775
687.885	6034
687.931	6096
687.937	6101
687.976	6014
688.022	5932
688.058	6127
688.067	6201
688.113	6352
688.158	5855
688.179	5781
688.204	5608
688.249	5972
688.295	6333
688.300	6283
688.340	5962
688.386	6095
688.421	5812
688.431	5773
688.477	5445
688.522	5849
688.542	6201
688.567	6786
688.613	6514
688.658	6966
688.663	6959
688.703	6424
688.749	6698
688.784	6190
688.794	6145
688.839	6200
688.884	6484
688.905	6798
688.930	6922
688.975	6350
689.020	5733
689.026	5729
689.065	6254
689.110	6493
689.146	6378
689.155	6271
689.201	6624
689.246	6728
689.267	6505
689.291	6371
689.336	5997
689.381	6007
689.388	6056
689.426	6402
689.471	7027
689.509	6608
689.516	6541
689.561	6978
689.606	7133
689.630	7162
689.651	7063
689.696	5945
689.741	6487
689.750	6394
689.785	6477
689.830	7196
689.871	7140
689.875	7092
689.920	7157
689.965	6367
689.992	6249
690.010	6309
690.054	6618
690.099	6397
690.112	6413
690.144	6297
690.189	6468
690.233	5777
690.233	5783
690.278	5714
690.323	6456
690.354	6487
690.367	6444
690.412	6369
690.457	6447
690.474	6429
690.501	6451
690.546	6700
690.590	6413
690.595	6424
690.635	6572
690.680	6177
690.716	6180
690.724	6214
690.769	6233
690.813	7143
690.836	6736
690.857	6462
690.902	7213
690.946	7199
690.957	7301
690.991	7768
691.035	8260
691.077	8739
691.080	8740
691.124	7718
691.168	7868
691.198	7458
691.213	7354
691.257	7332
691.301	7039
691.318	7258
691.346	7628
691.390	7012
691.434	6710
691.439	6658
691.478	6589
691.522	7019
691.559	7147
691.567	7183
691.611	7575
691.655	7713
691.680	7696
691.699	7720
691.743	7859
691.787	8196
691.800	8084
691.831	7623
691.875	7554
691.919	7403
691.921	7389
691.964	7555
692.008	7650
692.041	7568
692.052	7567
692.096	7487
692.139	7574
692.162	7521
692.183	7457
692.227	7700
692.271	7211
692.282	7271
692.315	7522
692.359	7364
692.402	7226
692.403	7241
692.447	7343
692.490	7948
692.523	7793
692.534	7688
692.578	7705
692.622	7447
692.643	7565
692.666	7670
692.709	7513
692.753	7455
692.763	7417
692.797	7374
692.840	7350
692.884	7288
692.884	7301
692.928	7204
692.971	7029
693.004	6649
693.015	6608
693.059	7043
693.102	7266
693.124	7189
693.146	7247
693.189	7785
693.233	7955
693.245	8133
693.276	8239
693.320	8027
693.363	7565
693.365	7536
693.407	7640
693.450	8041
693.485	7998
693.493	7961
693.537	8142
693.580	7831
693.605	7833
693.624	8023
693.667	8456
693.710	8718
693.725	8924
693.753	9501
693.797	9790
693.840	10611
693.845	10666
693.883	10328
693.926	9403
693.966	9055
693.970	9047
694.013	8574
694.056	8296
694.086	8050
694.099	8144
694.142	8340
694.185	8388
694.206	8442
694.229	8483
694.272	8313
694.315	8621
694.326	8596
694.358	8744
694.401	9061
694.444	9159
694.446	9159
694.487	8983
694.530	8450
694.566	8209
694.573	8322
694.616	8752
694.659	9258
694.686	9447
694.702	9399
694.745	9550
694.787	9414
694.806	9325
694.830	9257
694.873	9107
694.916	8995
694.926	8974
694.959	9282
695.002	9679
695.044	9927
695.046	9919
695.087	9913
695.130	9573
695.166	9665
695.172	9758
695.215	9943
695.258	10375
695.286	10473
695.301	10490
695.343	10546
695.386	10661
695.406	10693
695.428	11167
695.471	11962
695.514	13008
695.526	13209
695.556	13902
695.599	15055
695.641	15865
695.646	15933
695.684	15039
695.726	13838
695.766	13077
695.769	13090
695.811	12437
695.854	12193
695.886	11752
695.896	11843
695.938	12236
695.981	12480
696.005	12781
696.023	13285
696.065	14215
696.108	15195
696.125	15557
696.150	15746
696.192	15975
696.235	16116
696.245	16176
696.277	16456
696.319	16625
696.361	16713
696.365	16697
696.404	16299
696.446	15749
696.485	15207
696.488	15237
696.530	15144
696.572	15150
696.604	14945
696.614	14971
696.656	15063
696.698	15195
696.724	15181
696.740	15374
696.783	16062
696.825	16482
696.844	16658
696.867	16403
696.909	15768
696.951	15200
696.964	15026
696.992	15580
697.034	16253
697.076	16889
697.083	16968
697.118	17382
697.160	17817
697.202	18092
697.203	18062
697.244	17819
697.286	17453
697.323	17029
697.327	17080
697.369	17283
697.411	17317
697.442	17421
697.453	17483
697.494	17511
697.536	17461
697.562	17469
697.578	17602
697.620	17741
697.661	17926
697.682	18020
697.703	18442
697.744	18993
697.786	19771
697.801	19961
697.828	19870
697.869	19603
697.911	19420
697.921	19317
697.952	19082
697.994	18735
698.035	18398
698.040	18309
698.077	18461
698.118	18623
698.160	18751
698.160	18706
698.201	19705
698.243	20604
698.279	21363
698.284	21425
698.325	21509
698.367	21671
698.399	21679
698.408	21820
698.449	22267
698.491	22688
698.518	22923
698.532	22951
698.573	22888
698.614	22813
698.638	22703
698.656	22767
698.697	22821
698.738	22852
698.757	22816
698.779	22612
698.820	22116
698.862	21621
698.877	21385
698.903	21707
698.944	22140
698.985	22575
698.996	22643
699.026	22658
699.067	22607
699.116	22494
699.235	21948
699.354	22447
699.474	20661
699.593	20134
699.713	21121
699.832	20384
699.951	23276
700.070	21065
700.190	20615
700.309	19324
700.428	19727
700.547	17926
700.667	18875
700.786	18396
700.905	18033
701.024	19156
701.143	17786
701.262	19760
701.381	19052
701.500	19345
701.619	19190
701.738	18950
701.857	19865
701.976	16988
702.095	18618
702.214	18337
702.333	18265
702.452	18742
702.571	19417
702.690	20485
702.809	19024
702.928	17865
703.047	17967
703.165	18650
703.284	15948
703.403	17776
703.522	16924
703.640	17002
703.759	16629
703.878	16550
703.997	17125
704.115	17664
704.234	17799
704.353	16541
704.471	16369
704.590	15675
704.708	16031
704.827	15233
704.946	14950
705.064	14417
705.183	16299
705.301	15741
705.420	14775
705.538	14941
705.656	13199
705.775	13887
705.893	14874
706.012	13368
706.130	14561
706.249	14551
706.367	13678
706.485	14349
706.604	14004
706.722	13218
706.840	14456
706.958	14623
707.077	13010
707.195	14133
707.313	13571
707.431	12327
707.549	13416
707.668	12261
707.786	13915
707.904	12320
708.022	13481
708.140	11977
708.258	12087
708.376	12833
708.494	11720
708.612	12238
708.730	12471
708.848	12058
708.966	13199
709.084	12357
709.202	12458
709.320	10783
709.438	11490
709.556	11218
709.674	10843
709.791	10930
709.909	10591
710.027	11688
710.145	10982
710.263	11249
710.380	11307
710.498	10491
710.616	11393
710.733	9447
710.851	10748
710.969	10591
711.086	9768
711.204	10204
711.322	10349
711.439	10277
711.557	9406
711.674	8891
711.792	10229
711.909	9443
712.027	9506
712.144	9431
712.262	10801
712.379	9971
712.497	9452
712.614	10040
712.732	10333
712.849	8603
712.966	10934
713.084	10002
713.201	7883
713.318	9307
713.436	10606
713.553	8967
713.670	11002
713.787	10773
713.905	9623
714.022	10982
714.139	10247
714.256	12851
714.373	20119
714.490	37742
714.608	112588
714.725	421951
714.842	246129
714.959	25164
715.076	14974
715.193	12516
715.310	10875
715.427	9256
715.544	10273
715.661	10178
715.778	8191
715.895	8750
716.011	8873
716.128	8183
716.245	8934
716.362	7648
716.479	7455
716.596	8545
716.713	7753
716.829	7313
716.946	8540
717.063	7152
717.180	7160
717.296	7155
717.413	7914
717.530	7323
717.646	6630
717.763	7706
717.880	7680
717.996	6509
718.113	7632
718.229	7790
718.346	6542
718.462	5822
718.579	7408
718.695	7475
718.812	7291
718.928	6460
719.045	6419
719.161	7014
719.277	7624
719.394	7739
719.510	7646
719.626	7716
719.743	10514
719.859	18404
719.975	42617
720.092	177810
720.208	237994
720.324	23401
720.440	9066
720.557	7950
720.673	8761
720.789	6417
720.905	7154
721.021	6921
721.137	6171
721.253	5710
721.369	6216
721.486	5469
721.602	6825
721.718	5938
721.834	6371
721.950	5335
722.066	5221
722.181	4759
722.297	5382
722.413	5973
722.529	6516
722.645	5885
722.761	6289
722.877	5915
722.993	6329
723.108	9023
723.224	6745
723.340	6128
723.456	5773
723.571	4413
723.687	5635
723.803	5603
723.918	5264
724.034	4837
724.150	5356
724.265	5901
724.381	5403
724.497	5081
724.612	6022
724.728	4655
724.843	5018
724.959	6071
725.074	6116
725.190	5834
725.305	5509
725.421	5002
725.536	4941
725.651	6539
725.767	5943
725.882	5394
725.997	4761
726.113	4269
726.228	5118
726.343	4815
726.459	5024
726.574	4821
726.689	4980
726.804	5256
726.920	5437
727.035	4520
727.150	5178
727.265	4137
727.380	5012
727.495	5614
727.610	5052
727.725	5129
727.841	4729
727.956	4877
728.071	4738
728.186	4465
728.301	4730
728.416	5304
728.531	5855
728.645	4787
728.760	5201
728.875	4769
728.990	4828
729.105	4110
729.220	4004
729.335	4875
729.449	4855
729.564	4367
729.679	4805
729.794	4547
729.908	5213
730.023	4633
730.138	5220
730.253	4830
730.367	4720
730.482	4890
730.596	5266
730.711	6769
730.826	8288
730.940	7231
731.055	7415
731.169	7034
731.284	7458
731.398	6381
731.513	7716
731.627	8476
731.742	12278
731.856	12722
731.970	13618
732.085	15414
732.199	23003
732.313	40247
732.428	114071
732.542	284821
732.656	103698
732.771	24394
732.885	18556
732.999	17695
733.113	20029
733.227	18276
733.342	17793
733.456	17458
733.570	17165
733.684	15735
733.798	15152
733.912	15791
734.026	15307
734.140	15429
734.254	14248
734.368	15819
734.482	16043
734.596	14597
734.710	14288
734.824	14318
734.938	14710
735.052	14799
735.166	15362
735.280	13806
735.393	14188
735.507	13942
735.621	13844
735.735	11975
735.849	14643
735.962	13036
736.076	14186
736.190	13063
736.303	13895
736.417	13291
736.531	13143
736.644	12072
736.758	13248
736.872	11821
736.985	13179
737.099	11750
737.212	13084
737.326	11770
737.439	13908
737.553	10902
737.666	12303
737.780	10779
737.893	11182
738.007	11729
738.120	11609
738.233	11152
738.347	11614
738.460	11935
738.573	11896
738.687	11909
738.800	11742
738.913	11396
739.026	11227
739.140	10512
739.253	10732
739.366	10759
739.479	11188
739.592	10239
739.705	9872
739.818	11628
739.932	9993
740.045	10877
740.158	10362
740.271	11238
740.384	10545
740.497	9353
740.610	10979
740.723	8967
740.836	9288
740.949	10127
741.062	11129
741.174	9008
741.287	10418
741.400	8581
741.513	8171
741.626	9895
741.739	9487
741.851	8777
741.964	9503
742.077	7926
742.189	7386
742.302	8607
742.415	8435
742.527	8778
742.640	8991
742.753	7832
742.865	9037
742.978	7546
743.090	7824
743.203	8591
743.316	7724
743.428	8887
743.541	8029
743.653	7321
743.766	9176
743.878	8203
743.990	7108
744.103	8752
744.215	8127
744.327	7909
744.440	9707
744.552	8276
744.664	7046
744.777	8693
744.889	7406
745.001	6721
745.113	8259
745.226	5638
745.338	7250
745.450	8122
745.562	6753
745.674	6763
745.786	8005
745.898	6876
746.010	7171
746.122	6994
746.234	8118
746.347	7277
746.459	7240
746.570	5493
746.682	8385
746.794	7528
746.906	6018
747.018	6598
747.130	7554
747.242	5135
747.354	6923
747.466	6774
747.577	6163
747.689	6607
747.801	6430
747.913	5696
748.024	6378
748.136	6030
748.248	5950
748.359	6806
748.471	7285
748.583	4910
748.694	6037
748.806	6795
748.918	5889
749.029	6368
749.141	6775
749.252	5705
749.364	5768
749.475	4462
749.587	4945
749.698	5604
749.809	6300
749.921	5681
750.032	4927
750.144	5403
750.255	5289
750.366	5458
750.478	6058
750.589	5119
750.700	5475
750.811	5459
750.923	4718
751.034	4251
751.145	6488
751.256	3841
751.367	4260
751.479	4806
751.590	4411
751.701	4547
751.812	4269
751.923	5402
752.034	6523
752.145	4897
752.256	5951
752.367	4971
752.478	4224
752.589	5504
752.700	4893
752.811	4182
752.922	4644
753.032	4827
753.143	6278
753.254	4716
753.365	6378
753.476	5377
753.586	5670
753.697	4610
753.808	5342
753.919	3747
754.029	4945
754.140	3818
754.251	5148
754.361	4898
754.472	5373
754.582	3475
754.693	5886
754.804	4779
754.914	3966
755.025	2762
755.135	5115
755.246	5453
755.356	3841
755.466	4187
755.577	4445
755.687	3979
755.798	4512
755.908	4180
756.018	4613
756.129	4113
756.239	3712
756.349	4540
756.460	5442
756.570	4127
756.680	4778
756.790	4082
756.900	5206
757.011	4290
757.121	3519
757.231	3853
757.341	4390
757.451	3743
757.561	3061
757.671	4462
757.781	3648
757.891	4167
758.001	3407
758.111	4147
758.221	5086
758.331	3098
758.441	4281
758.551	4286
758.661	4733
758.771	5028
758.880	4224
758.990	4220
759.100	3643
759.210	3695
759.320	4608
759.429	3951
759.539	5002
759.649	4356
759.758	6009
759.868	5567
759.978	5425
760.087	6679
760.197	6786
760.307	5273
760.416	5028
760.526	4332
760.635	5076
760.745	5970
760.854	6393
760.964	7453
761.073	6650
761.182	5588
761.292	4971
761.401	4686
761.511	3722
761.620	4512
761.729	3945
761.839	3175
761.948	3946
762.057	3267
762.166	3837
762.276	2172
762.385	4190
762.494	3539
762.603	3682
762.712	3373
762.822	4044
762.931	2495
763.040	2804
763.149	2923
763.258	3598
763.367	3694
763.476	3853
763.585	2980
763.694	3731
763.803	2969
763.912	4293
764.021	3848
764.130	3894
764.238	3218
764.347	3917
764.456	3253
764.565	3761
764.674	2493
764.783	3804
764.891	3275
765.000	5205
765.109	4444
765.217	4032
765.326	4468
765.435	6238
765.543	6068
765.652	6662
765.761	7805
765.869	11529
765.978	18167
766.086	32184
766.195	66409
766.303	172118
766.412	323890
766.520	224292
766.629	67924
766.737	30674
766.846	17348
766.954	12538
767.062	10947
767.171	8378
767.279	7311
767.387	5181
767.496	5719
767.604	4520
767.712	4498
767.820	4905
767.928	4455
768.037	3517
768.145	3762
768.253	5320
768.361	4516
768.469	4200
768.577	2653
768.685	4712
768.793	4719
768.901	4368
769.009	4959
769.117	5721
769.225	5607
769.333	9821
769.441	14028
769.549	27235
769.657	66598
769.765	191623
769.873	247116
769.981	77528
770.088	23354
770.196	14081
770.304	10322
770.412	9498
770.519	7020
770.627	6876
770.735	5624
770.842	6155
770.950	6276
771.058	5793
771.165	7790
771.273	8484
771.380	8480
771.488	12409
771.595	12368
771.703	10725
771.810	10264
771.918	11033
772.025	14148
772.133	14450
772.240	13928
772.348	15927
772.455	14882
772.562	12742
772.670	12723
772.777	14053
772.884	12616
772.991	12793
773.099	13209
773.206	12138
773.313	12113
773.420	12650
773.528	12534
773.635	12199
773.742	12758
773.849	12858
773.956	10695
774.063	12410
774.170	11566
774.277	12682
774.384	10452
774.491	11417
774.598	11716
774.705	10922
774.812	10713
774.919	10957
775.026	10661
775.133	11886
775.239	10451
775.346	10119
775.453	11387
775.560	10183
775.667	11819
775.773	9684
775.880	10765
775.987	10503
776.093	11053
776.200	11451
776.307	8391
776.413	10069
776.520	10933
776.627	9162
776.733	8865
776.840	8904
776.946	12575
777.053	8663
777.159	8621
777.266	7502
777.372	10006
777.478	10100
777.585	8793
777.691	7769
777.798	9936
777.904	8371
778.010	8659
778.117	9134
778.223	8041
778.329	8163
778.435	7224
778.542	9557
778.648	7455
778.754	8127
778.860	8437
778.966	8554
779.072	7453
779.178	8712
779.284	6620
779.391	8107
779.497	7020
779.603	9758
779.708	5536
779.815	7792
779.920	10806
780.026	9106
780.132	8353
780.238	7331
780.344	6677
780.450	9427
780.556	5309
780.661	6725
780.767	7139
780.873	5063
780.979	7113
781.085	6976
781.190	7017
781.296	6116
781.402	6467
781.507	6602
781.613	4933
781.719	7271
781.824	6555
781.930	6971
782.035	7138
782.141	6659
782.246	4263
782.352	6883
782.457	5890
782.563	5968
782.668	6472
782.773	4941
782.879	3863
782.984	6815
783.090	6321
783.195	6965
783.300	6619
783.405	6014
783.511	4467
783.616	5224
783.721	5702
783.826	4484
783.932	5826
784.037	5293
784.142	5660
784.247	5853
784.352	5110
784.457	3985
784.562	6101
784.667	5806
784.772	3554
784.877	3912
784.982	6258
785.087	5154
785.192	5116
785.297	4264
785.402	4569
785.507	5151
785.611	4071
785.716	4086
785.821	3925
785.926	5006
786.031	4841
786.135	4818
786.240	4939
786.345	2882
786.450	4161
786.554	4610
786.659	4276
786.763	3996
786.868	4173
786.973	5275
787.077	3566
787.182	3582
787.286	4907
787.391	5365
787.495	2579
787.600	3245
787.704	4006
787.809	4968
787.913	3106
788.017	5192
788.122	4345
788.226	3408
788.330	2062
788.435	4838
788.539	4140
788.643	3056
788.747	1138
788.852	3886
788.956	3341
789.060	4346
789.164	3838
789.268	3392
789.372	3963
789.476	3172
789.580	2657
789.684	3832
789.788	4832
789.892	3221
789.996	3300
790.100	2752
790.204	3510
790.308	5029
790.412	1726
790.516	2009
790.620	3249
790.724	4664
790.828	3081
790.931	1547
791.035	3041
791.139	3385
791.242	2206
791.346	3823
791.450	3473
791.554	2402
791.657	1004
791.761	3589
791.864	3892
791.968	4324
792.072	2619
792.175	2597
792.279	2733
792.382	2253
792.486	1664
792.589	2600
792.693	2503
792.796	1508
792.899	3441
793.003	3841
793.106	757
793.209	2933
793.313	3048
793.416	351
793.519	3180
793.623	4713
793.726	2109
793.829	2285
793.932	1372
794.035	1255
794.138	3201
794.242	4393
794.345	1109
794.448	2036
794.551	816
794.654	5645
794.757	4978
794.860	2274
794.963	2931
795.066	1401
795.169	2548
795.272	2745
795.375	2128
795.477	1235
795.580	1968
795.683	1677
795.786	2420
795.889	1060
795.991	3113
796.094	3696
796.197	1090
796.300	3209
796.402	2385
796.505	1082
796.608	1163
796.710	2572
796.813	2338
796.915	2773
797.018	2735
797.120	2537
797.223	1481
797.326	3210
797.428	703
797.530	1315
797.633	832
797.735	3324
797.838	1936
797.940	3270
798.042	884
798.145	1939
798.247	1833
798.349	581
798.452	2873
798.554	2643
798.656	1586
798.758	3637
798.860	2123
798.962	1320
799.065	1023
799.167	819
799.269	2922
799.371	2766
799.473	3219
799.575	754
799.677	1041
799.779	3429
799.881	1
799.983	3106
800.085	1696
800.187	2055
800.289	149
800.390	1510
800.492	1908
800.594	2816
800.696	833
800.798	1769
800.899	878
801.001	1559
801.103	1361
801.205	1973
801.306	1773
801.408	1615
801.509	1983
801.611	2584
801.713	2219
801.814	799
801.916	1228
802.017	1507
802.119	104
802.220	1648
802.322	-600
802.423	2539
802.525	-230
802.626	2387
802.727	2800
802.829	1498
802.930	-1042
803.031	2822
803.133	887
803.234	1429
803.335	1023
803.436	564
803.538	1171
803.639	499
803.740	2457
803.841	1648
803.942	2139
804.043	1665
804.144	153
804.245	1251
804.346	542
804.447	597
804.548	986
804.649	1936
804.750	189
804.851	1334
804.952	752
805.053	749
805.154	258
805.255	2101
805.355	1388
805.456	1506
805.557	852
805.658	436
805.758	1971
805.859	2067
805.960	556
806.061	172
806.161	705
806.262	1523
806.362	-294
806.463	1405
806.564	1706
806.664	1221
806.765	722
806.865	369
806.966	911
807.066	443
807.166	2335
807.267	1817
807.367	283
807.468	1504
807.568	-76
807.668	1663
807.769	1542
807.869	995
807.969	1058
808.069	676
808.170	641
808.270	942
808.370	1829
808.470	1962
808.570	157
808.670	1441
808.770	674
808.870	456
808.970	1278
809.070	1152
809.170	109
809.271	1884
809.370	-93
809.470	1183
809.570	147
809.670	634
809.770	816
809.870	1693
809.970	-17
810.070	1126
810.169	1006
810.269	165
810.369	1959
810.469	1375
810.568	1146
810.668	714
810.768	914
810.867	1423
810.967	-31
811.066	1210
811.166	684
811.265	1635
811.365	-66
811.464	881
811.564	1088
811.663	703
811.763	-32
811.862	2620
811.962	1600
812.061	1067
812.160	-200
812.260	751
812.359	220
812.458	-129
812.557	1384
812.657	640
812.756	786
812.855	1548
812.954	56
813.053	1992
813.153	848
813.252	771
813.351	1714
813.450	1249
813.549	721
813.648	1530
813.747	232
813.846	2108
813.945	922
814.044	1285
814.143	1738
814.242	2054
814.341	339
814.439	1106
814.538	1362
814.637	1756
814.736	1706
814.835	1739
814.933	1036
815.032	3261
815.131	4747
815.229	10261
815.328	10307
815.427	7210
815.525	7047
815.624	6694
815.722	6509
815.821	7357
815.919	6810
816.018	5982
816.116	7993
816.215	7310
816.313	7765
816.412	10551
816.510	8821
816.609	10753
816.707	10225
816.805	9354
816.904	8889
817.002	9680
817.100	8683
817.198	10410
817.296	7965
817.395	9288
817.493	9089
817.591	7340
817.689	8321
817.787	8458
817.885	6748
817.983	8329
818.081	8005
818.179	9494
818.277	13391
818.375	10145
818.473	7378
818.571	7579
818.669	8148
818.767	9079
818.865	7125
818.963	6990
819.061	7939
819.158	8318
819.256	10522
819.354	12042
819.452	17872
819.549	9606
819.647	8202
819.745	6458
819.842	6208
819.940	7858
820.038	6915
820.135	5285
820.233	8234
820.330	7187
820.428	5915
820.525	7793
820.623	6037
820.720	4961
820.818	6810
820.915	7778
821.012	5911
821.110	5261
821.207	6843
821.304	5258
821.402	6499
821.499	6628
821.596	4973
821.693	6361
821.791	5931
821.888	5937
821.985	6469
822.082	4219
822.179	6576
822.276	6536
822.373	4727
822.470	6341
822.567	5713
822.664	4502
822.761	6893
822.858	6075
822.955	5108
823.052	4880
823.149	5915
823.246	6066
823.343	2784
823.440	5314
823.536	5279
823.633	4962
823.730	3832
823.827	5801
823.923	4098
824.020	5253
824.117	5515
824.213	4869
824.310	4176
824.407	4202
824.503	5383
824.600	3732
824.696	4774
824.793	6680
824.889	5323
824.986	3587
825.082	2343
825.179	4018
825.275	5583
825.371	4985
825.468	3589
825.564	2094
825.660	5704
825.757	5801
825.853	4559
825.949	3811
826.045	3733
826.142	5018
826.238	4377
826.334	4976
826.430	3444
826.526	3006
826.622	3263
826.718	5129
826.814	5135
826.910	4362
827.006	1892
827.102	2186
827.198	5222
827.294	4730
827.390	3663
827.486	3385
827.582	1630
827.678	2412
827.774	4582
827.869	1761
827.965	2572
828.061	2312
828.157	3843
828.252	4752
828.348	2023
828.444	2952
828.539	2935
828.635	3088
828.731	3708
828.826	2992
828.922	3602
829.017	3902
829.113	3774
829.208	2384
829.304	2867
829.399	5743
829.495	2646
829.590	4378
829.685	2669
829.781	4108
829.876	2716
829.971	1056
830.066	1803
830.162	3989
830.257	4259
830.352	3029
830.447	2210
830.543	2632
830.638	2660
830.733	4132
830.828	1763
830.923	3184
831.018	2477
831.113	3531
831.208	651
831.303	1547
831.398	1632
831.493	3680
831.588	4727
831.683	472
831.778	1663
831.873	2173
831.967	3711
832.062	2954
832.157	1754
832.252	2928
832.346	2192
832.441	4049
832.536	2774
832.631	2650
832.725	2020
832.820	2287
832.914	2004
833.009	1795
833.104	602
833.198	2311
833.293	2610
833.387	3385
833.482	2188
833.576	2418
833.670	2037
833.765	1781
833.859	2562
833.954	2903
834.048	2254
834.142	2274
834.237	706
834.331	2774
834.425	2373
834.519	2362
834.613	2069
834.708	2271
834.802	2320
834.896	1420
834.990	2055
835.084	1428
835.178	1220
835.272	1948
835.366	2638
835.460	3658
835.554	1268
835.648	1231
835.742	359
835.836	1496
835.930	91
836.024	2395
836.117	1652
836.211	1339
836.305	1358
836.399	1821
836.493	912
836.586	2533
836.680	1668
836.774	1133
836.867	2705
836.961	802
837.055	689
837.148	1071
837.242	1627
837.335	1812
837.429	967
837.522	847
837.616	1505
837.709	2048
837.803	856
837.896	2751
837.989	1675
838.083	1039
838.176	355
838.269	311
838.363	1584
838.456	642
838.549	2184
838.642	938
838.735	1036
838.829	1768
838.922	961
839.015	1835
839.108	-367
839.201	2329
839.294	1722
839.387	1220
839.480	-433
839.573	297
839.666	120
839.759	1148
839.852	256
839.945	1879
840.038	82
840.131	1150
840.223	849
840.316	1509
840.409	1438
840.502	1422
840.594	2032
840.687	-1433
840.780	465
840.873	993
840.965	-228
841.058	1786
841.150	970
841.243	253
841.336	936
841.428	992
841.521	-119
841.613	224
841.706	939
841.798	604
841.890	1332
841.983	978
842.075	301
842.167	1373
842.260	707
842.352	1568
842.444	491
842.537	-144
842.629	396
842.721	1050
842.813	728
842.905	158
842.997	1036
843.090	740
843.182	1004
843.274	-182
843.366	95
843.458	1285
843.550	1121
843.642	1011
843.734	446
843.826	-382
843.918	419
844.009	1970
844.101	106
844.193	714
844.285	1140
844.377	1490
844.469	699
844.560	-176
844.652	65
844.744	918
844.835	463
844.927	935
845.019	-261
845.110	529
845.202	231
845.293	-145
845.385	470
845.476	638
845.568	632
845.659	875
845.751	996
845.842	262
845.934	757
846.025	367
846.116	463
846.208	370
846.299	29
846.390	75
846.482	78
846.573	761
846.664	208
846.755	778
846.846	682
846.937	-1105
847.029	-672
847.120	-81
847.211	-293
847.302	1225
847.393	-266
847.484	1782
847.575	-262
847.666	-886
847.757	21
847.847	871
847.938	1325
848.029	594
848.120	300
848.211	-486
848.302	-191
848.392	305
848.483	321
848.574	511
848.664	-144
848.755	207
848.846	16
848.936	2
849.027	-29
849.118	1032
849.208	495
849.299	1638
849.389	2768
849.480	6950
849.570	11992
849.661	25807
849.751	32378
849.841	8226
849.932	498
850.022	582
850.112	102
850.203	188
850.293	-50
850.383	-456
850.474	2
850.564	227
850.654	682
850.744	57
850.834	-278
850.924	203
851.014	453
851.104	1103
851.194	-456
851.284	632
851.374	-537
851.464	-500
851.554	-55
851.644	230
851.734	201
851.824	1017
851.914	-416
852.004	1451
852.094	-657
852.183	-129
852.273	-49
852.363	17
852.452	311
852.542	598
852.632	-673
852.721	516
852.811	-18
852.901	502
852.990	167
853.080	98
853.169	616
853.259	1634
853.348	971
853.438	637
853.527	2186
853.617	3162
853.706	7206
853.795	12893
853.885	29171
853.974	48233
854.063	86211
854.152	99850
854.242	32959
854.331	8543
854.420	2365
854.509	3484
854.598	1945
854.687	1694
854.777	1595
854.866	746
854.955	1118
855.044	505
855.133	305
855.222	672
855.311	92
855.400	82
855.488	-359
855.577	-330
855.666	-1050
855.755	-204
855.844	306
855.933	214
856.021	315
856.110	72
856.199	-741
856.288	245
856.376	-510
856.465	-814
856.554	269
856.642	772
856.731	588
856.819	188
856.908	59
856.996	245
857.085	-942
857.173	5
857.262	-68
857.350	732
857.438	-104
857.527	223
857.615	-663
857.703	1106
857.792	-369
857.880	-171
857.968	-1138
858.056	-537
858.145	-24
858.233	49
858.321	-539
858.409	808
858.497	-655
858.585	-683
858.673	-447
858.761	-1072
858.849	-598
858.937	-202
859.025	75
859.113	-419
859.201	-772
859.289	925
859.377	-326
859.465	694
859.552	-882
859.640	-749
859.728	-777
859.816	201
859.903	-363
859.991	-337
860.079	108
860.166	-214
860.254	-9
860.342	427
860.429	-1183
860.517	-353
860.604	-1346
860.692	-384
860.779	-444
860.867	92
860.954	-350
861.042	564
861.129	537
861.216	341
861.304	-484
861.391	551
861.478	-554
861.565	206
861.653	206
861.740	-330
861.827	-61
861.914	899
862.001	-332
862.089	-108
862.176	-541
862.263	-40
862.350	-724
862.437	403
862.524	-524
862.611	860
862.698	-142
862.785	733
862.871	833
862.958	-415
863.045	-214
863.132	512
863.219	-491
863.306	-229
863.392	302
863.479	-13
863.566	-804
863.652	505
863.739	-6
863.826	264
863.912	921
863.999	-32
864.086	-59
864.172	135
864.259	801
864.345	43
864.432	-43
864.518	463
864.604	916
864.691	1284
864.777	1318
864.863	2348
864.950	3402
865.036	5888
865.122	9643
865.209	8748
865.295	7513
865.381	7867
865.467	7436
865.553	8344
865.639	8296
865.726	11755
865.812	19399
865.898	30949
865.984	43038
866.070	72439
866.156	58588
866.242	19115
866.328	9265
866.414	7305
866.499	6754
866.585	6456
866.671	5682
866.757	6865
866.843	5735
866.928	5993
867.014	6134
867.100	5601
867.186	5738
867.271	6013
867.357	5303
867.442	5130
867.528	5230
867.614	4942
867.699	5260
867.785	5926
867.870	5822
867.956	5559
868.041	4988
868.127	5968
868.212	3969
868.297	4988
868.383	4958
868.468	5686
868.553	5158
868.639	5524
868.724	4934
868.809	4872
868.894	3912
868.979	5097
869.065	4620
869.150	3254
869.235	4509
869.320	4557
869.405	3604
869.490	4450
869.575	4525
869.660	3257
869.745	5849
869.830	4780
869.915	3627
870.000	4187
870.085	4305
870.169	5867
870.254	5865
870.339	2514
870.424	4163
870.509	4511
870.593	4583
870.678	6199
870.763	3557
870.847	3756
870.932	4595
871.016	4861
871.101	3175
871.186	5478
871.270	5201
871.355	2802
871.439	3251
871.523	4478
871.608	2268
871.692	3442
871.777	4649
871.861	3831
871.945	3004
872.030	4671
872.114	2929
872.198	1720
872.282	3161
872.367	4227
872.451	3286
872.535	3447
872.619	3015
872.703	3738
872.787	3403
872.871	2799
872.955	1124
873.039	1904
873.123	3059
873.207	3774
873.291	1256
873.375	3414
873.459	3191
873.543	3496
873.627	2454
873.711	2292
873.794	3331
873.878	3653
873.962	1383
874.045	2653
874.129	2601
874.137	2707
874.213	3769
874.245	3135
874.296	2109
874.352	2605
874.380	2852
874.460	2433
874.464	2416
874.547	2034
874.568	1932
874.631	1648
874.676	2342
874.714	2910
874.784	3248
874.798	3322
874.881	3744
874.892	3386
874.965	916
874.999	1644
875.048	2636
875.107	2528
875.131	2476
875.215	1601
875.215	1601
875.298	1189
875.323	1667
875.381	2827
875.430	2942
875.465	2998
875.538	2654
875.548	2615
875.631	963
875.646	1029
875.714	1277
875.753	1231
875.798	1170
875.861	2209
875.881	2557
875.964	1462
875.968	1498
876.047	2121
876.076	2135
876.130	2188
876.183	2211
876.213	2202
876.291	1676
876.296	1640
876.379	2485
876.398	2315
876.462	1781
876.506	1650
876.545	1495
876.613	1410
876.628	1397
876.711	2252
876.721	2258
876.794	2372
876.828	2002
876.877	1469
876.935	1207
876.960	1091
877.043	1630
877.043	1629
877.125	1343
877.150	1646
877.208	2269
877.258	1189
877.291	550
877.365	1377
877.374	1455
877.456	597
877.472	840
877.539	1994
877.579	1791
877.622	1486
877.687	1650
877.704	1752
877.787	1157
877.794	1237
877.869	1961
877.901	2007
877.952	1974
878.008	1091
878.034	723
878.115	911
878.117	915
878.199	544
878.222	893
878.282	1836
878.329	1932
878.364	1911
878.437	1788
878.447	1778
878.529	919
878.544	906
878.611	876
878.651	1204
878.694	1636
878.758	1466
878.776	1337
878.858	836
878.865	820
878.941	845
878.972	757
879.023	592
879.078	840
879.105	1034
879.185	1377
879.187	1377
879.269	1488
879.292	1460
879.351	1497
879.399	881
879.433	428
879.506	1584
879.516	1709
879.598	529
879.613	492
879.680	635
879.720	996
879.762	1313
879.827	1027
879.844	948
879.926	883
879.933	933
880.007	1114
880.040	691
880.089	510
880.147	2113
880.171	2613
880.253	2984
880.254	2988
880.335	3183
880.360	3804
880.417	5686
880.467	7911
880.499	9103
880.574	7994
880.580	7777
880.662	3138
880.680	2518
880.744	722
880.787	622
880.825	974
880.893	996
880.907	872
880.989	1102
881.000	1071
881.070	1542
881.106	1510
881.152	1130
881.213	193
881.233	-103
881.315	587
881.319	565
881.396	543
881.426	697
881.478	972
881.532	1296
881.559	1374
881.639	858
881.641	846
881.722	683
881.745	865
881.803	1208
881.852	979
881.885	880
881.958	464
881.966	420
882.047	215
882.064	209
882.129	159
882.171	175
882.210	78
882.277	-158
882.291	-85
882.372	580
882.383	688
882.454	937
882.489	618
882.535	187
882.596	668
882.616	924
882.697	97
882.702	137
882.778	680
882.808	679
882.859	326
882.914	152
882.940	177
883.020	561
883.021	565
883.102	696
883.127	861
883.183	867
883.233	813
883.264	771
883.339	73
883.345	49
883.426	254
883.445	417
883.507	768
883.551	903
883.587	1022
883.657	846
883.668	822
883.749	832
883.763	763
883.830	362
883.869	543
883.910	811
883.975	953
883.991	898
884.072	923
884.081	862
884.152	729
884.187	948
884.233	1413
884.292	1357
884.314	966
884.394	-512
884.398	-562
884.475	157
884.504	529
884.555	529
884.610	182
884.636	182
884.716	893
884.716	896
884.797	1183
884.821	1218
884.877	873
884.927	282
884.958	129
885.033	309
885.038	312
885.118	301
885.139	355
885.199	10
885.244	-508
885.279	-247
885.350	975
885.359	1071
885.439	1205
885.456	1215
885.520	622
885.561	224
885.600	51
885.667	257
885.680	372
885.760	536
885.773	601
885.840	121
885.878	-143
885.920	46
885.984	330
886.000	382
886.080	569
886.089	592
886.160	393
886.195	251
886.240	395
886.300	623
886.320	542
886.400	149
886.406	130
886.480	-15
886.511	-4
886.560	274
886.616	287
886.640	225
886.720	147
886.722	148
886.800	350
886.827	374
886.879	313
886.932	293
886.959	530
887.038	1110
887.039	1100
887.119	81
887.143	-152
887.198	231
887.248	584
887.278	464
887.354	-129
887.358	-118
887.437	372
887.459	470
887.517	298
887.564	203
887.596	214
887.669	-51
887.676	-103
887.755	-289
887.774	-398
887.835	78
887.880	544
887.914	424
887.985	33
887.994	80
888.073	499
888.090	578
888.153	477
888.195	456
888.232	662
888.300	1007
888.311	891
888.391	121
888.405	-31
888.470	77
888.510	144
888.549	139
888.615	175
888.628	233
888.708	634
888.720	668
888.787	536
888.825	499
888.866	129
888.930	-421
888.945	-367
889.024	-34
889.035	2
889.103	189
889.140	319
889.182	138
889.245	-124
889.261	-59
889.340	247
889.349	286
889.419	36
889.454	-101
889.498	-292
889.559	-512
889.577	-564
889.656	-779
889.664	-791
889.735	-18
889.768	358
889.814	623
889.873	978
889.978	-774
890.083	508
890.187	-459
890.292	96
890.397	-20
890.501	489
890.606	50
890.710	430
890.815	100
890.919	-311
891.024	409
891.128	359
891.233	963
891.337	-89
891.442	123
891.546	-320
891.650	31
891.755	-325
891.859	1196
891.963	104
892.068	120
892.172	-268
892.276	-233
892.380	-169
892.484	171
892.589	-241
892.693	26
892.797	-621
892.901	-392
893.005	-317
893.109	671
893.213	-50
893.317	549
893.421	-40
893.525	-596
893.629	-697
893.733	788
893.837	-506
893.941	-630
894.045	189
894.148	-486
894.252	-396
894.356	223
894.460	55
894.564	-389
894.667	-740
894.771	171
894.875	41
894.978	-409
895.082	-609
895.186	451
895.289	484
895.393	-208
895.496	-661
895.600	-88
895.703	-820
895.807	-628
895.910	89
896.014	-198
896.117	-423
896.221	309
896.324	-602
896.427	332
896.531	127
896.634	-846
896.737	-360
896.840	127
896.944	-8
897.047	130
897.150	1
897.253	-463
897.356	-191
897.460	-442
897.563	-190
897.666	373
897.769	573
897.872	-364
897.975	-347
898.078	-229
898.181	-586
898.284	-748
898.387	398
898.490	720
898.593	-189
898.695	99
898.798	-991
898.901	502
899.004	-775
899.107	-152
899.209	-423
899.312	90
899.415	-329
899.518	85
899.620	-578
899.723	-833
899.826	-130
899.928	40
900.031	-562
900.133	-402
900.236	-39
900.338	-550
900.441	-289
900.543	-397
900.646	-982
900.748	-520
900.851	78
900.953	-215
901.055	-46
901.158	-483
901.260	-1271
901.362	-91
901.465	-866
901.567	-431
901.669	-262
901.771	-564
901.873	-939
901.976	90
902.078	-454
902.180	-610
902.282	-930
902.384	20
902.486	-670
902.588	-170
902.690	-272
902.792	-852
902.894	-231
902.996	-341
903.098	-190
903.200	-669
903.302	-349
903.404	535
903.505	-499
903.607	-607
903.709	-306
903.811	-336
903.913	-386
904.014	-930
904.116	-935
904.218	138
904.319	613
904.421	139
904.523	-609
904.624	-572
904.726	23
904.827	-366
904.929	-877
905.030	-336
905.132	-202
905.233	-331
905.335	-987
905.436	-692
905.537	-865
905.639	-827
905.740	-1041
905.841	-224
905.943	-216
906.044	-955
906.145	118
906.247	612
906.348	-638
906.449	76
906.550	-378
906.651	698
906.752	-94
906.854	-91
906.955	-561
907.056	-559
907.157	-362
907.258	-273
907.359	-627
907.460	-648
907.561	-610
907.662	-140
907.762	-703
907.863	-512
907.964	-122
908.065	-151
908.166	-826
908.267	-850
908.367	-1297
908.468	-556
908.569	-704
908.670	-926
908.770	281
908.871	-652
908.971	-489
909.072	-323
909.173	428
909.273	-887
909.374	-1016
909.474	-724
909.575	-827
909.675	-504
909.776	-776
909.876	-901
909.977	-12
910.077	-86
910.177	83
910.278	-650
910.378	-995
910.478	-74
910.579	245
910.679	-276
910.779	-105
910.879	-823
910.980	-414
911.080	48
911.180	-620
911.280	-386
911.380	-697
911.480	170
911.580	-576
911.680	-416
911.780	-527
911.880	-968
911.980	-699
912.080	-572
912.180	235
912.280	-456
912.380	-1391
912.480	-188
912.580	-312
912.679	-1239
912.779	-482
912.879	-411
912.979	-834
913.078	-914
913.178	-435
913.278	-473
913.377	-786
913.477	472
913.577	-298
913.676	-100
913.776	-559
913.875	-151
913.975	-444
914.074	-800
914.174	-680
914.273	-419
914.373	-380
914.472	-365
914.572	-1260
914.671	-503
914.770	-679
914.870	-844
914.969	-351
915.068	-141
915.167	-260
915.267	-1018
915.366	-625
915.465	359
915.564	-1149
915.663	-23
915.763	-800
915.862	-1026
915.961	-396
916.060	-483
916.159	-361
916.258	-765
916.357	-522
916.456	-509
916.555	-887
916.654	-687
916.752	-530
916.851	-865
916.950	-457
917.049	332
917.148	-729
917.247	64
917.345	-1147
917.444	557
917.543	-509
917.642	-273
917.740	-136
917.839	-140
917.937	922
918.036	-257
918.135	-530
918.233	-769
918.332	-874
918.430	-601
918.529	-752
918.627	468
918.726	-1135
918.824	-1213
918.923	-1460
919.021	-382
919.119	-1331
919.218	-938
919.316	-539
919.414	-765
919.512	-478
919.611	-146
919.709	216
919.807	-134
919.905	-686
920.003	-179
920.102	-150
920.200	-945
920.298	-753
920.396	-567
920.494	-468
920.592	-565
920.690	196
920.788	-396
920.886	-1057
920.984	-203
921.082	-1045
921.180	-235
921.277	-345
921.375	-504
921.473	-4
921.571	-208
921.669	-767
921.766	-507
921.864	-70
921.962	556
922.060	43
922.157	29
922.255	327
922.352	445
922.450	591
922.548	-223
922.645	164
922.743	1348
922.840	2750
922.938	1610
923.035	1773
923.133	2431
923.230	2066
923.327	3064
923.425	2231
923.522	3153
923.619	2084
923.717	1921
923.814	2476
923.911	1351
924.008	2069
924.106	1775
924.203	1987
924.300	1763
924.397	1636
924.494	2132
924.591	2051
924.688	2126
924.786	2488
924.883	2265
924.979	1206
925.077	1642
925.173	1378
925.270	783
925.367	1323
925.464	2131
925.561	1705
925.658	1271
925.755	1703
925.852	1790
925.948	1708
926.045	2703
926.142	1935
926.239	1699
926.335	1369
926.432	2178
926.529	1402
926.625	1779
926.722	959
926.818	2062
926.915	1209
927.011	1454
927.108	1199
927.204	826
927.301	874
927.397	1705
927.494	2062
927.590	565
927.687	1145
927.783	2692
927.879	1293
927.976	671
928.072	1226
928.168	1802
928.264	2466
928.361	1243
928.457	2127
928.553	933
928.649	1280
928.745	1480
928.841	916
928.937	1104
929.033	1419
929.129	1707
929.225	1760
929.321	1355
929.417	773
929.513	1746
929.609	1357
929.705	787
929.801	1707
929.897	1570
929.993	1343
930.089	1104
930.184	219
930.280	255
930.376	906
930.471	159
930.567	832
930.663	881
930.758	352
930.854	1979
930.950	1308
931.045	132
931.141	1446
931.236	1073
931.332	1205
931.427	34
931.523	1087
931.618	1236
931.714	525
931.809	4
931.905	1120
932.000	563
932.095	731
932.191	1363
932.286	900
932.381	886
932.476	-539
932.572	884
932.667	64
932.762	651
932.857	878
932.952	1151
933.047	292
933.142	886
933.237	778
933.332	1075
933.427	992
933.522	540
933.617	-241
933.712	775
933.807	390
933.902	487
933.997	283
934.092	942
934.187	-66
934.282	1019
934.376	1032
934.471	1467
934.566	-409
934.661	780
934.755	603
934.850	904
934.945	517
935.039	3
935.134	364
935.228	452
935.323	856
935.417	747
935.512	-143
935.606	340
935.701	285
935.795	1251
935.890	757
935.984	714
936.079	-1
936.173	114
936.267	480
936.362	-174
936.456	1207
936.550	753
936.644	463
936.738	-72
936.833	161
936.927	-317
937.021	-260
937.115	630
937.209	-77
937.303	997
937.397	-1232
937.491	461
937.585	1134
937.679	940
937.773	403
937.867	490
937.961	-190
938.055	481
938.149	155
938.243	273
938.337	-337
938.430	61
938.524	288
938.618	77
938.712	386
938.805	-493
938.899	185
938.993	1758
939.086	195
939.180	-525
939.274	-1151
939.367	259
939.461	-637
939.554	234
939.648	-180
939.741	-110
939.835	-651
939.928	860
940.022	541
940.115	400
940.208	-104
940.302	505
940.395	-129
940.488	-772
940.582	410
940.675	-168
940.768	-90
940.861	-71
940.954	939
941.048	-416
941.141	-793
941.234	-412
941.327	-738
941.420	726
941.513	475
941.606	-1277
941.699	122
941.792	321
941.885	-14
941.978	296
942.071	-496
942.164	-545
942.257	-621
942.349	-270
942.442	184
942.535	-832
942.628	206
942.721	805
942.813	-1133
942.906	841
942.999	-522
943.091	-842
943.184	47
943.277	-887
943.369	-1197
943.462	-521
943.554	-322
943.647	-633
943.739	-733
943.832	-630
943.924	-1314
944.017	230
944.109	-1426
944.201	-455
944.294	-720
944.386	280
944.478	-672
944.571	-711
944.663	-413
944.755	-169
944.847	70
944.940	-715
945.032	-1986
945.124	-859
945.216	489
945.308	223
945.400	258
945.492	-514
945.584	-562
945.676	418
945.768	-419
945.860	-166
945.952	-732
946.044	-893
946.136	-905
946.228	-1063
946.320	-997
946.412	-592
946.503	-482
946.595	-725
946.687	-1020
946.779	-1293
946.870	-408
946.962	-1088
947.054	-492
947.145	47
947.237	-1739
947.329	397
947.420	-916
947.512	-1015
947.603	-1542
947.695	-548
947.786	-914
947.878	-1820
947.969	-1139
948.061	-1444
948.152	-1238
948.243	-1145
948.335	-89
948.426	-1017
948.517	-880
948.609	-740
948.700	-927
948.791	-763
948.882	-724
948.973	-1102
949.065	-910
949.156	17
949.247	-2236
949.338	-1041
949.429	-1472
949.520	-932
949.611	-1324
949.702	-192
949.793	-854
949.884	-478
949.975	-1330
950.066	-1640
950.157	-1633
950.247	-494
950.338	-2400
950.429	-1615
950.520	-760
950.611	-1665
950.701	-691
950.792	-1343
950.883	-1205
950.973	-1015
951.064	-994
951.155	-653
951.245	-1173
951.336	-377
951.427	-1964
951.517	346
951.608	-292
951.698	-392
951.788	-1089
951.879	-636
951.969	-1577
952.060	-590
952.150	-590
952.240	-182
952.331	-2271
952.421	30
952.511	-1459
952.602	-1293
952.692	-1535
952.782	-405
952.872	-1379
952.962	-1046
953.052	-1274
953.143	-1004
953.233	-833
953.323	-661
953.413	-804
953.503	-879
953.593	-340
953.683	-1174
953.773	-2132
953.863	-1310
953.953	-1480
954.042	-1091
954.132	-1371
954.222	-565
954.312	-1608
954.402	-1062
954.492	-1096
954.581	-612
954.671	-966
954.761	-1138
954.850	-411
954.940	-1403
955.030	-1160
955.119	-1545
955.209	-1126
955.298	-581
955.388	-793
955.477	-282
955.567	-1350
955.656	-1366
955.746	-1018
955.835	-1654
955.925	-1425
956.014	-1391
956.103	-1592
956.193	-677
956.282	-994
956.371	-1543
956.461	-1576
956.550	-726
956.639	-447
956.728	-498
956.817	-1660
956.906	-2031
956.995	-995
957.085	-1284
957.174	-1256
957.263	-523
957.352	-1149
957.441	-1484
957.530	-1508
957.619	-221
957.708	-765
957.796	-962
957.885	-1632
957.974	-1859
958.063	-789
958.152	-2172
958.241	-982
958.329	-487
958.418	-1590
958.507	-1772
958.596	-495
958.684	-1802
958.773	-1035
958.861	-1436
958.950	-1866
959.039	-1516
959.127	-1730
959.216	-810
959.304	-678
959.393	-2074
959.481	-1020
959.570	-1242
959.658	-2172
959.746	-1000
959.835	-542
959.923	-1144
960.011	-1462
960.100	-1040
960.188	-888
960.276	-952
960.365	-1055
960.453	-1302
960.541	-1741
960.629	-664
960.717	-1022
960.805	-2109
960.893	-1873
960.981	-1873
961.069	-385
961.158	-1230
961.245	-103
961.333	-960
961.421	-1997
961.509	-1114
961.597	-497
961.685	-2370
961.773	-1155
961.861	-1462
961.949	-465
962.036	-1744
962.124	-833
962.212	-1280
962.299	-1490
962.387	-1522
962.475	-1610
962.562	-1537
962.650	-515
962.738	-290
962.825	-1576
962.913	-1581
963.000	-1903
963.088	-1457
963.175	-897
963.263	-1177
963.350	-802
963.438	-1521
963.525	-1620
963.612	-1275
963.700	-1566
963.787	-87
963.874	-1332
963.962	-1373
964.049	-1086
964.136	-991
964.223	-1247
964.310	-1335
964.398	-1263
964.485	-1529
964.572	-1076
964.659	-1078
964.746	-2002
964.833	-1478
964.920	-1502
965.007	-1851
965.094	-155
965.181	-1078
965.268	-1462
965.355	-254
965.441	-902
965.528	-1377
965.615	-726
965.702	-877
965.789	-1388
965.875	-1475
965.962	-828
966.049	-1557
966.136	-1033
966.222	-1731
966.309	-281
966.395	-1270
966.482	-1020
966.569	-1881
966.655	-1500
966.742	-892
966.828	-1193
966.915	-1577
967.001	-794
967.087	-1594
967.174	-906
967.260	-1027
967.347	-1721
967.433	-1623
967.519	-1513
967.605	-1203
967.692	-1376
967.778	-1481
967.864	-614
967.950	-1327
968.036	-955
968.123	-1119
968.209	-1377
968.295	-1581
968.381	696
968.467	-1090
968.553	-2121
968.639	-1042
968.725	-1837
968.811	-749
968.897	-1061
968.983	-1803
969.069	-1802
969.154	-991
969.240	-978
969.326	-819
969.412	-1139
969.497	-2030
969.583	-1106
969.669	-248
969.755	-34
969.840	-1743
969.926	-1007
970.012	-185
970.097	-233
970.183	-850
970.268	-1320
970.354	-813
970.439	-2099
970.525	-200
970.610	-2036
970.696	-1046
970.781	-810
970.866	-1150
970.952	-944
971.037	-1474
971.122	-426
971.208	-1095
971.293	-941
971.378	-1896
971.463	-1336
971.549	-633
971.634	-1553
971.719	-1083
971.804	-584
971.889	-585
971.974	-1807
972.059	-1025
972.144	-1270
972.229	-1282
972.314	-750
972.399	-600
972.484	-1612
972.569	-767
972.654	-2015
972.739	-242
972.824	-1597
972.908	-960
972.993	-1337
973.078	-2131
973.163	-1896
973.247	-194
973.332	-2866
973.417	90
973.501	-2086
973.586	-1425
973.671	-830
973.755	-1380
973.840	-843
973.924	-551
974.009	-802
974.093	-333
974.178	-572
974.262	-324
974.346	-1063
974.431	-829
974.515	-694
974.600	-560
974.684	-1165
974.768	-457
974.852	-136
974.937	-1664
975.021	-803
975.105	-645
975.189	-1454
975.273	-216
975.358	-2309
975.442	-1597
975.526	-427
975.610	-1940
975.694	-1671
975.778	57
975.862	-1079
975.946	-2964
976.030	-504
976.114	-1894
976.198	-587
976.281	-1387
976.365	-757
976.449	-999
976.533	-845
976.617	-1345
976.700	-405
976.784	-989
976.868	-1339
976.951	-1147
977.035	-1795
977.119	-613
977.202	-1289
977.286	-1047
977.369	-1812
977.453	-115
977.536	-349
977.620	-1172
977.703	120
977.787	-803
977.870	-484
977.953	143
978.037	-1684
978.120	-719
978.203	-1974
978.287	-956
978.370	-1107
978.453	-1464
978.536	-1307
978.620	-294
978.703	-1455
978.786	-1084
978.869	-1625
978.952	-1618
979.035	187
979.118	-480
979.201	-1898
979.284	-872
979.367	-1037
979.450	-938
979.533	-1836
979.616	-376
979.699	-1647
979.782	-861
979.865	-966
979.948	-1989
980.030	-616
980.113	-1458
980.196	-1537
980.279	104
980.361	-1150
980.444	-1261
980.526	-886
980.609	-317
980.692	-1000
980.774	-433
980.857	-2346
980.939	-205
981.022	-1015
981.104	-1087
981.187	-1202
981.269	-492
981.352	-1427
981.434	-1875
981.516	-1440
981.599	31
981.681	-863
981.763	-1648
981.846	-1654
981.928	-1428
982.010	-1183
982.092	-1152
982.174	-565
982.256	-1474
982.339	-415
982.421	-703
982.503	-618
982.585	-1491
982.667	-680
982.749	-941
982.831	-607
982.913	-1435
982.995	-748
983.077	-1659
983.158	-477
983.240	-1025
983.322	-1191
983.404	-786
983.486	-1695
983.568	-1286
983.649	-1652
983.731	-391
983.813	-1514
983.894	64
983.976	-986
984.058	-1731
984.139	-208
984.221	-2360
984.302	-949
984.384	-756
984.465	-1906
984.547	-385
984.628	-1067
984.710	-747
984.791	-920
984.872	-730
984.954	-1499
985.035	-387
985.116	-2343
985.198	-1705
985.279	-327
985.360	-1303
985.441	-1653
985.522	-672
985.604	-1197
985.685	-1798
985.766	-606
985.847	59
985.928	-1689
986.009	-924
986.090	-1677
986.171	-834
986.252	-877
986.333	-1062
986.414	-1084
986.495	-545
986.576	-1406
986.656	-735
986.737	269
986.818	-563
986.899	-1480
986.980	-1142
987.060	-23
987.141	-942
987.222	-1285
987.302	-489
987.383	-1257
987.464	-805
987.544	-881
987.625	-1620
987.705	-562
987.786	-672
987.866	-455
987.947	-1303
988.027	-712
988.108	-1123
988.188	-619
988.268	-514
988.349	-1051
988.429	-795
988.509	-969
988.589	-885
988.670	-2106
988.750	145
988.830	-1193
988.910	-784
988.990	-796
989.070	-948
989.151	-1566
989.231	-1130
989.311	-209
989.391	-779
989.471	-1310
989.551	-1743
989.631	-1460
989.711	201
989.791	-1367
989.870	-1706
989.950	-537
990.030	-1614
990.110	-723
990.190	-1704
990.269	-876
990.349	-978
990.429	-1070
990.509	-478
990.588	-1561
990.668	-686
990.747	-1614
990.827	-751
990.907	-1281
990.986	-1336
991.066	-1610
991.145	-1485
991.225	-1079
991.304	-1354
991.383	-448
991.463	-1511
991.542	-915
991.622	-1296
991.701	-2021
991.780	-1715
991.859	-1344
991.939	-1537
992.018	-1245
992.097	-771
992.176	-1067
992.256	-1162
992.335	-2136
992.414	-696
992.493	-1903
992.572	-1008
992.651	28
992.730	-1688
992.809	-1420
992.888	-2086
992.967	-1758
993.046	-1034
993.125	-1660
993.203	-1352
993.282	-988
993.361	-1680
993.440	-1569
993.519	-1424
993.597	-1655
993.676	-1864
993.755	-159
993.834	-1215
993.912	-2097
993.991	-285
994.069	-1632
994.148	-721
994.226	-2150
994.305	-1444
994.384	-1255
994.462	-1071
994.540	-2071
994.619	-2176
994.697	-819
994.776	-1736
994.854	-1193
994.932	-1934
995.011	-1451
995.089	-2028
995.167	-1672
995.245	-1670
995.324	-2154
995.402	103
995.480	-1958
995.558	-1430
995.636	-2212
995.714	-1286
995.792	176
995.870	-2424
995.948	-1682
996.026	296
996.104	-2689
996.182	-1435
996.260	-1960
996.338	-889
996.416	-1715
996.494	-1817
996.572	-168
996.649	-2119
996.727	-1798
996.805	-1483
996.883	-2143
996.960	-1663
997.038	-1417
997.116	-1507
997.193	-849
997.271	-1150
997.348	-2178
997.426	-1246
997.504	-2099
997.581	-774
997.658	-1795
997.736	-1884
997.813	-1868
997.891	-33
997.968	-1939
998.046	-1142
998.123	-1807
998.200	-2007
998.277	-3024
998.355	-1438
998.432	-2062
998.509	-511
998.586	-1597
998.663	-1493
998.741	-1567
998.818	-1048
998.895	-1475
998.972	-1731
999.049	-1216
999.126	-1449
999.203	-802
999.280	-1024
999.357	-2048
999.434	-1463
999.511	-1519
999.587	-950
999.664	-2428
999.741	-956
999.818	-1411
999.895	-2030
999.971	-2811
1000.048	-1583
1000.125	-1036
1000.202	-2535
1000.278	-1442
1000.355	-1683
1000.431	-1585
1000.508	-1255
1000.584	-1385
1000.661	-1514
1000.738	-1969
1000.814	-1228
1000.890	-1586
1000.967	-1138
1001.043	-1024
1001.120	-2429
1001.196	-1368
1001.272	-2096
1001.349	-1830
1001.425	-1181
1001.501	-1458
1001.577	-2348
1001.654	-1338
1001.730	-1958
1001.806	-1173
1001.882	-1382
1001.958	-864
1002.034	-1571
1002.110	-1373
1002.186	-1851
1002.262	-2259
1002.338	-1751
1002.414	-329
1002.490	-1155
1002.566	-2667
1002.642	-1821
1002.718	-1585
1002.794	-2113
1002.870	-1889
1002.945	-1614
1003.021	-1846
1003.097	-1631
1003.173	-929
1003.248	-2482
1003.324	-1600
1003.400	-1316
1003.475	-1540
1003.551	-1570
1003.626	-1701
1003.702	-1252
1003.777	-1174
1003.853	-1345
1003.928	-1691
1004.004	-1818
1004.079	-909
1004.155	-1124
1004.230	-3273
1004.305	-572
1004.381	-1595
1004.456	-768
1004.531	-773
1004.607	-1739
1004.682	-1520
1004.757	-1622
1004.832	-2284
1004.907	-2098
1004.982	-1168
1005.057	-1037
1005.133	-1715
1005.208	-1680
1005.283	-2026
1005.358	-1276
1005.433	-2397
1005.508	-1522
1005.583	-1528
1005.657	-2222
1005.732	-1939
1005.807	-2499
1005.882	-2338
1005.957	-2121
1006.032	-1022
1006.106	-1661
1006.181	-1888
1006.256	-1468
1006.331	-2643
1006.405	-1159
1006.480	-1474
1006.554	-2310
1006.629	-1441
1006.704	-1631
1006.778	-1442
1006.853	-676
1006.927	-1886
1007.002	-1777
1007.076	-1858
1007.150	-2136
1007.225	-1353
1007.299	-1241
1007.373	-2102
1007.448	-1029
1007.522	-1125
1007.596	-1302
1007.671	-2024
1007.745	-1125
1007.819	-2464
1007.893	-1644
1007.967	-929
1008.041	-1885
1008.115	-877
1008.190	-1541
1008.264	-1289
1008.338	-2231
1008.412	-1899
1008.486	-1995
1008.560	-1914
1008.633	-2237
1008.707	-2903
1008.781	-2194
1008.855	-1571
1008.929	-1535
1009.003	-1827
1009.076	-2060
1009.150	-1763
1009.224	-1650
1009.298	-1674
1009.371	-1624
1009.445	-1203
1009.519	-1202
1009.592	-1859
1009.666	-1105
1009.739	-1642
1009.813	-2316
1009.886	-365
1009.960	-2548
1010.033	-1567
1010.107	-1202
1010.180	-2244
1010.253	-2206
1010.327	-1637
1010.400	-2146
1010.473	-2889
1010.547	-1046
1010.620	-1864
1010.693	-1019
1010.766	-1823
1010.840	-1461
1010.913	-1361
1010.986	-2247
1011.059	-1674
1011.132	-1866
1011.205	-1450
1011.278	-1718
1011.351	-2413
1011.424	-1373
1011.497	-1909
1011.570	-1494
1011.643	-1106
1011.716	-1333
1011.789	-1223
1011.862	-1501
1011.934	110
1012.007	-2564
1012.080	-2052
1012.153	-1751
1012.225	-933
1012.298	-2072
1012.371	-2026
1012.443	-1015
1012.516	-2617
1012.588	-1030
1012.661	-1356
1012.733	-2245
1012.806	-1736
1012.879	-1608
1012.951	-1576
1013.023	-1063
1013.096	-1588
1013.168	-2247
1013.241	-1090
1013.313	-2418
1013.385	-1868
1013.458	-1609
1013.530	-1300
1013.602	-3041
1013.674	-1310
1013.746	-2303
1013.819	-1620
1013.891	-888
1013.963	-2574
1014.035	-1466
1014.107	-1276
1014.179	-1508
1014.251	-1816
1014.323	-1528
1014.395	-1045
1014.467	-2034
1014.539	-1998
1014.611	-2031
1014.683	-1981
1014.754	-1779
1014.826	-2466
1014.898	-1592
1014.970	-2520
1015.042	-1021
1015.113	-1391
1015.185	-929
1015.257	-2444
1015.328	-1713
1015.400	-1752
1015.471	-2036
1015.543	-2616
1015.615	-1468
1015.686	-1679
1015.757	-1458
1015.829	-1937
1015.901	-1842
1015.972	-1818
1016.043	-2060
1016.115	-1877
1016.186	-1440
1016.257	-2284
1016.328	-1525
1016.400	-1492
1016.471	-2143
1016.542	-2654
1016.613	-1593
1016.685	-2556
1016.756	-1655
1016.827	-2216
1016.898	-2788
1016.969	-986
1017.040	-1542
1017.111	-2112
1017.182	-2432
1017.253	-2228
1017.324	-2146
1017.395	-2638
1017.466	-1743
1017.537	-1543
1017.608	-2399
1017.678	-1994
1017.749	-2042
1017.820	-2175
1017.891	-2120
1017.961	-2653
1018.032	-2189
1018.103	-2168
1018.173	-2725
1018.244	-2354
1018.315	-1593
1018.385	-1960
1018.456	-1732
1018.526	-2366
1018.597	-1672
1018.667	-1859
1018.738	-1862
1018.808	-2257
1018.878	-2630
1018.949	-2597
1019.019	-1121
1019.089	-1876
1019.160	-2207
1019.230	-3154
1019.300	-1253
1019.371	-2701
1019.441	-990
1019.511	-2342
1019.581	-1898
1019.651	-2157
1019.721	-2180
1019.791	-1674
1019.861	-2241
1019.931	-2468
1020.001	-2232
1020.071	-2352
1020.141	-2114
1020.211	-2200
1020.281	-1832
1020.351	-2664
1020.421	-1107
1020.491	-1388
1020.560	-3034
1020.630	-2079
1020.700	-2272
1020.770	-3240
1020.839	-2427
1020.909	-2079
1020.979	-1838
1021.048	-1856
1021.118	-2205
1021.187	-1894
1021.257	-1558
1021.326	-1255
1021.396	-1872
1021.465	-1701
1021.535	-2344
1021.604	-3212
1021.674	-1704
1021.743	-2503
1021.812	-2064
1021.882	-2419
1021.951	-2089
1022.020	-2777
1022.089	-1794
1022.159	-2675
1022.228	-2026
1022.297	-2745
1022.366	-1828
1022.435	-3210
1022.504	-1878
1022.573	-2176
1022.642	-2880
1022.711	-1937
1022.781	-3244
1022.849	-3021
1022.918	-2338
1022.987	-2880
1023.056	-2277
1023.125	-2203
1023.194	-1435
1023.263	-2570
1023.331	-1610
1023.400	-2370
1023.469	-2460
1023.538	-2246
1023.606	-1855
1023.675	-2511
1023.744	-3223
1023.812	-2374
1023.881	-1973
1023.949	-2247
1024.018	-2979
1024.086	-2415
1024.155	-2788
1024.223	-2020
1024.292	-2168
1024.360	-2058
1024.429	-2143
1024.497	-2661
1024.565	-1920
1024.634	-2316
1024.702	-1421
1024.770	-2258
1024.838	-2549
1024.907	-1960
1024.975	-2544
1025.043	-2093
1025.111	-2055
1025.179	-2408
1025.247	-2241
1025.315	-2442
1025.383	-2262
1025.451	-2851
1025.519	-1845
1025.587	-3351
1025.655	-1475
1025.723	-3244
1025.791	-2103
1025.859	-2295
1025.927	-1943
1025.995	-3166
1026.062	-1512
1026.130	-2282
1026.198	-3000
1026.266	-2341
1026.333	-2067
1026.401	-1698
1026.469	-2056
1026.536	-2571
1026.604	-2399
1026.671	-2733
1026.739	-1864
1026.806	-2100
1026.874	-2024
1026.941	-2237
1027.009	-2457
1027.076	-2726
1027.144	-2012
1027.211	-3012
1027.278	-2890
1027.345	-2583
1027.413	-2343
1027.480	-2196
1027.547	-2263
1027.614	-2722
1027.682	-1598
1027.749	-2930
1027.816	-2699
1027.883	-2231
1027.950	-2037
1028.017	-2369
1028.084	-2065
1028.151	-2464
1028.218	-2305
1028.285	-2674
1028.352	-2327
1028.419	-2784
1028.486	-2137
1028.553	-2977
1028.619	-2143
1028.686	-2966
1028.753	-3150
1028.820	-2648
1028.886	-2391
1028.953	-3317
1029.020	-1378
1029.086	-2058
1029.153	-2694
1029.220	-2452
1029.286	-2953
1029.353	-2510
1029.419	-2481
1029.486	-2859
1029.552	-2936
1029.619	-2800
1029.685	-2482
1029.751	-2598
1029.818	-1677
1029.884	-2564
1029.951	-1721
1030.017	-1843
1030.083	-2599
1030.149	-2220
1030.216	-2045
1030.282	-2816
1030.348	-2433
1030.414	-2582
1030.480	-2076
1030.546	-2208
1030.612	-2397
1030.678	-2483
1030.744	-1485
1030.810	-2233
1030.876	-1925
1030.942	-2575
1031.008	-2368
1031.074	-2702
1031.140	-1661
1031.206	-2141
1031.272	-3087
1031.337	-1873
1031.403	-1225
1031.469	-2685
1031.534	-2057
1031.600	-1888
1031.666	-2470
1031.731	-2366
1031.797	-1953
1031.863	-2584
1031.928	-1746
1031.994	-2654
1032.059	-2331
1032.125	-1890
1032.190	-2525
1032.256	-3027
1032.321	-2672
1032.386	-2377
1032.452	-1841
1032.517	-2270
1032.582	-2074
1032.647	-2346
1032.713	-2071
1032.778	-2635
1032.843	-2268
1032.908	-1781
1032.974	-2586
1033.039	-3046
1033.104	-1787
1033.169	-2602
1033.234	-2373
1033.299	-2535
1033.364	-2482
1033.429	-2896
1033.494	-2233
1033.559	-2517
1033.624	-2047
1033.688	-2409
1033.753	-3284
1033.818	-1909
1033.883	-1880
1033.948	-1771
1034.013	-1971
1034.077	-2272
1034.142	-1629
1034.207	-1944
1034.271	-614
1034.336	-1131
1034.400	-2173
1034.465	-2849
1034.530	-1538
1034.594	-2885
1034.658	-2067
1034.723	-1637
1034.787	-2404
1034.852	-1946
1034.916	-1444
1034.981	-2272
1035.045	-2223
1035.109	-2303
1035.173	-1733
1035.238	-2515
1035.302	-2419
1035.366	-1958
1035.430	-1778
1035.495	-2395
1035.559	-2560
1035.623	-2334
1035.687	-2490
1035.751	-2425
1035.815	-2223
1035.879	-2248
1035.943	-1765
1036.007	-2107
1036.071	-1772
1036.135	-2302
1036.198	-2185
1036.262	-3588
1036.326	-1877
1036.390	-2239
1036.454	-1693
1036.517	-2090
1036.581	-1507
1036.645	-2601
1036.709	-2282
1036.772	-2116
1036.836	-2089
1036.900	-2273
1036.963	-2364
1037.026	-2307
1037.090	-1887
1037.154	-2292
1037.217	-2885
1037.280	-2793
1037.344	-1410
1037.407	-2005
1037.471	-2218
1037.534	-2522
1037.597	-1286
1037.661	-2131
1037.724	-2107
1037.787	-2253
1037.850	-2543
1037.913	-3276
1037.977	-1284
1038.040	-1835
1038.103	-2956
1038.166	-2684
1038.229	-1860
1038.292	-2554
1038.355	-1932
1038.418	-2455
1038.481	-982
1038.544	-2555
1038.607	-2710
1038.670	-2151
1038.732	-2058
1038.795	-2783
1038.858	-2377
1038.921	-1515
1038.984	-2133
1039.046	-2300
1039.109	-2027
1039.172	-2216
1039.234	-2000
1039.297	-2496
1039.360	-2359
1039.422	-2725
1039.485	-1694
1039.547	-3517
1039.610	-1657
1039.672	-1919
1039.734	-2604
1039.797	-1952
1039.859	-2554
1039.922	-2710
1039.984	-1865
1040.046	-2700
1040.109	-2821
1040.171	-2336
1040.233	-2646
1040.295	-2078
1040.358	-1580
1040.420	-2574
1040.482	-1972
1040.544	-2908
1040.606	-2116
1040.668	-2996
1040.730	-2195
1040.792	-2148
1040.854	-1790
1040.916	-2347
1040.978	-2538
1041.040	-2134
1041.102	-2179
1041.164	-2606
1041.225	-2127
1041.287	-2725
1041.349	-2029
1041.411	-2445
1041.472	-1869
1041.534	-2908
1041.596	-1944
1041.657	-2512
1041.719	-1534
1041.781	-2181
1041.842	-2378
1041.904	-2493
1041.965	-2254
1042.027	-2057
1042.088	-1931
1042.150	-2155
1042.211	-1768
1042.272	-2055
1042.334	-2436
1042.395	-2025
1042.456	-1800
1042.518	-1891
1042.579	-1453
1042.640	-2241
1042.701	-2283
1042.763	-2611
1042.824	-1598
1042.885	-2418
1042.946	-1445
1043.007	-2468
1043.068	-1656
1043.129	-2122
1043.190	-2066
1043.251	-1872
1043.312	-1757
1043.373	-1798
1043.434	-2038
1043.495	-2148
1043.556	-2195
1043.616	-2051
1043.677	-2881
1043.738	-2206
1043.799	-2177
1043.859	-1918
1043.920	-1906
1043.981	-2422
1044.041	-1904
1044.102	-2759
1044.162	-1773
1044.223	-2882
1044.284	-2332
1044.344	-2593
1044.405	-2728
1044.465	-1738
1044.525	-1860
1044.586	-1919
1044.646	-2163
1044.707	-1721
1044.767	-1090
1044.827	-2494
1044.887	-1693
1044.948	-2018
1045.008	-2041
1045.068	-2494
1045.128	-1832
1045.188	-1660
1045.249	-1232
1045.309	-2630
1045.369	-1986
1045.429	-2254
1045.489	-1079
1045.549	-1977
1045.609	-1309
1045.669	-1515
1045.729	-2340
1045.789	-2497
1045.848	-2129
1045.908	-1112
1045.968	-969
1046.028	-1650
1046.088	-1715
1046.147	-1168
1046.207	-2184
1046.267	-2247
1046.326	-2193
1046.386	-2174
1046.446	-1158
1046.505	-1776
1046.565	-1164
1046.624	-1247
1046.684	-1036
1046.743	-1827
1046.803	-309
1046.862	-1022
1046.922	0
