'Start Wavelength	183.907
'End Wavelength	1046.922
'Gate Delay	5.000
'Gate Width (ms)	1.050
'Laser Output Level	0.000
'X Position	0.000
'Y Position	0.000
'Z Position	0.000
'Grid Point Number	1.000
'Shot Number	100.000
183.907	-175.000
183.977	-1109.000
184.047	-116
184.116	-78
184.186	-256
184.256	190
184.325	-469
184.395	-538
184.465	777
184.534	211
184.604	-545
184.674	150
184.743	-413
184.813	28
184.883	-279
184.952	284
185.022	132
185.092	511
185.161	-160
185.231	82
185.301	-137
185.370	286
185.440	-367
185.509	350
185.579	85
185.649	-87
185.718	-641
185.788	816
185.857	-609
185.927	-54
185.996	-147
186.066	78
186.136	-221
186.205	5
186.275	100
186.344	-249
186.414	-451
186.483	-593
186.553	854
186.622	746
186.692	-138
186.761	-962
186.831	-482
186.900	-284
186.970	201
187.039	-109
187.109	1339
187.178	-328
187.248	21
187.317	711
187.387	-610
187.456	265
187.526	521
187.595	619
187.664	-623
187.734	164
187.803	-294
187.873	246
187.942	800
188.012	-423
188.081	-397
188.150	271
188.220	-147
188.289	-266
188.358	52
188.428	372
188.497	-95
188.567	613
188.636	-299
188.705	77
188.775	126
188.844	226
188.913	318
188.983	120
189.052	-26
189.121	209
189.191	292
189.260	897
189.329	913
189.399	-101
189.468	806
189.537	-289
189.606	89
189.676	259
189.745	352
189.814	585
189.883	161
189.953	381
190.022	1153
190.091	3649
190.161	4421
190.230	1446
190.299	-707
190.368	441
190.437	-343
190.507	570
190.576	-232
190.645	95
190.714	788
190.783	739
190.853	402
190.922	283
190.991	-69
191.060	-554
191.129	96
191.198	837
191.268	187
191.337	1100
191.406	766
191.475	385
191.544	-144
191.613	-74
191.682	-494
191.752	-723
191.821	-362
191.890	352
191.959	161
192.028	227
192.097	-99
192.166	790
192.235	378
192.304	607
192.373	-567
192.442	1219
192.511	-190
192.580	166
192.650	169
192.719	-202
192.788	655
192.857	1156
192.926	-383
192.995	278
193.064	1310
193.133	1330
193.202	1397
193.271	2395
193.340	236
193.409	842
193.478	1382
193.547	1585
193.615	2157
193.684	2475
193.753	1175
193.822	1320
193.891	1119
193.960	697
194.029	61
194.098	411
194.167	296
194.236	156
194.305	145
194.374	415
194.443	551
194.512	423
194.580	866
194.649	261
194.718	513
194.787	547
194.856	-726
194.925	993
194.994	259
195.062	-921
195.131	159
195.200	677
195.269	-204
195.338	709
195.407	668
195.475	904
195.544	715
195.613	612
195.682	25
195.751	169
195.819	-216
195.888	627
195.957	1039
196.026	-4
196.094	965
196.163	584
196.232	1640
196.301	85
196.369	137
196.438	850
196.507	-464
196.576	635
196.644	384
196.713	664
196.782	279
196.850	154
196.919	105
196.988	1046
197.056	288
197.125	66
197.194	1219
197.262	720
197.331	584
197.400	322
197.468	462
197.537	42
197.606	544
197.674	759
197.743	3500
197.812	1660
197.880	4221
197.949	2436
198.017	3823
198.086	2390
198.155	932
198.223	1372
198.292	4182
198.360	1950
198.429	927
198.497	303
198.566	2590
198.635	4633
198.703	1919
198.772	1278
198.840	4910
198.909	5845
198.977	1676
199.046	1228
199.114	792
199.183	627
199.251	986
199.320	-168
199.388	336
199.457	1080
199.525	629
199.594	-517
199.662	276
199.731	589
199.799	556
199.867	448
199.936	1095
200.004	617
200.073	410
200.141	134
200.210	-32
200.278	744
200.346	369
200.415	1350
200.483	458
200.552	-50
200.620	199
200.688	235
200.757	-94
200.825	368
200.893	455
200.962	198
201.030	655
201.098	713
201.167	1062
201.235	964
201.303	631
201.372	710
201.440	710
201.508	661
201.577	698
201.645	831
201.713	247
201.781	10
201.850	1345
201.918	674
201.986	208
202.055	823
202.123	569
202.191	443
202.259	784
202.327	1099
202.396	154
202.464	1010
202.532	1077
202.600	2150
202.669	892
202.737	687
202.805	1028
202.873	-228
202.941	656
203.009	140
203.078	660
203.146	1183
203.214	216
203.282	-124
203.350	1148
203.418	1047
203.487	1014
203.555	876
203.623	851
203.691	601
203.759	245
203.827	138
203.895	951
203.963	368
204.031	654
204.099	942
204.168	292
204.236	1202
204.304	48
204.372	972
204.440	667
204.508	650
204.576	768
204.644	891
204.712	-148
204.780	920
204.848	467
204.916	343
204.984	600
205.052	698
205.120	68
205.188	607
205.256	129
205.324	267
205.392	900
205.460	1155
205.528	1342
205.596	1083
205.664	1508
205.732	1470
205.799	5396
205.867	9188
205.935	1907
206.003	2068
206.071	694
206.139	1576
206.207	994
206.275	578
206.343	622
206.411	905
206.478	1192
206.546	739
206.614	1205
206.682	369
206.750	839
206.818	831
206.885	1315
206.953	-168
207.021	2455
207.089	1499
207.157	647
207.225	1296
207.292	903
207.360	650
207.428	1079
207.496	994
207.563	760
207.631	947
207.699	1122
207.767	1168
207.834	822
207.902	637
207.970	650
208.038	717
208.105	706
208.173	1529
208.241	1620
208.309	2444
208.376	1582
208.444	2791
208.512	2370
208.579	964
208.647	1145
208.715	2159
208.782	940
208.850	1027
208.918	1319
208.985	1145
209.053	578
209.120	636
209.188	-4
209.256	928
209.323	813
209.391	1191
209.459	2366
209.526	1505
209.594	737
209.661	935
209.729	1207
209.796	1924
209.864	1333
209.932	463
209.999	2334
210.067	1144
210.134	1846
210.202	1581
210.269	1772
210.337	1962
210.404	1530
210.472	1455
210.539	1331
210.607	577
210.674	871
210.742	2092
210.809	1483
210.877	1169
210.944	2000
211.012	968
211.079	2606
211.146	1191
211.214	1094
211.281	1249
211.349	2082
211.416	1750
211.484	1634
211.551	1997
211.618	2115
211.686	1703
211.753	922
211.821	1592
211.888	1629
211.955	1435
212.023	1125
212.090	1479
212.157	1926
212.225	2433
212.292	5128
212.359	10948
212.427	28970
212.494	13553
212.561	3975
212.629	3617
212.696	2232
212.763	2771
212.831	2313
212.898	2680
212.965	1267
213.032	1699
213.100	1879
213.167	1615
213.234	1831
213.301	1963
213.369	2338
213.436	1701
213.503	615
213.570	1820
213.638	1643
213.705	1172
213.772	1127
213.839	1802
213.906	2649
213.973	1539
214.041	1097
214.108	1181
214.175	1643
214.242	1406
214.309	1548
214.376	2026
214.444	1480
214.511	1366
214.578	919
214.645	1878
214.712	1526
214.779	1632
214.846	901
214.913	2650
214.980	3178
215.048	2532
215.115	2410
215.182	2095
215.249	1825
215.316	787
215.383	2327
215.450	2154
215.517	1017
215.584	1794
215.651	936
215.718	1107
215.785	1737
215.852	1145
215.919	1420
215.986	1476
216.053	647
216.120	1402
216.187	1804
216.254	1685
216.321	545
216.388	1178
216.455	1972
216.522	1663
216.589	1620
216.656	2859
216.722	3109
216.789	3345
216.856	3382
216.923	3457
216.990	2272
217.057	1937
217.124	2196
217.191	2568
217.258	3365
217.324	4467
217.391	5503
217.458	3985
217.525	2872
217.592	1948
217.659	1534
217.725	2854
217.792	2201
217.859	2848
217.926	1377
217.993	1130
218.059	2044
218.126	1229
218.193	1126
218.260	1377
218.327	2141
218.393	-6
218.460	707
218.527	483
218.594	1045
218.660	1690
218.727	2836
218.794	1405
218.860	1851
218.927	352
218.994	1555
219.061	549
219.127	1043
219.194	1140
219.261	1157
219.327	974
219.394	2385
219.461	57
219.527	856
219.594	1486
219.661	1240
219.727	771
219.794	1038
219.860	616
219.927	1458
219.994	2618
220.060	2417
220.127	2479
220.193	2733
220.260	2938
220.326	4051
220.393	6436
220.460	8846
220.526	5706
220.593	3427
220.659	4797
220.726	4814
220.792	13219
220.859	9945
220.925	11428
220.992	15088
221.058	16747
221.125	18725
221.191	13965
221.258	5266
221.324	4078
221.391	2491
221.457	2250
221.524	2727
221.590	3771
221.657	16561
221.723	10837
221.789	10482
221.856	8927
221.922	4714
221.989	2759
222.055	2121
222.121	773
222.188	1860
222.254	1860
222.321	1886
222.387	840
222.453	2329
222.520	1126
222.586	621
222.652	1431
222.719	673
222.785	1501
222.851	668
222.918	1040
222.984	731
223.050	1478
223.116	-477
223.183	1844
223.249	983
223.315	372
223.382	869
223.448	1247
223.514	348
223.580	751
223.647	771
223.713	741
223.779	753
223.845	1120
223.911	1005
223.978	-246
224.044	983
224.110	1024
224.176	477
224.242	1444
224.309	35
224.375	1349
224.441	324
224.507	804
224.573	-477
224.639	367
224.705	83
224.772	965
224.838	339
224.904	958
224.970	926
225.036	348
225.102	-570
225.168	573
225.234	1366
225.300	765
225.366	1264
225.432	925
225.499	903
225.565	817
225.631	759
225.697	779
225.763	1637
225.829	1826
225.895	1938
225.961	3641
226.027	2660
226.093	1983
226.159	3823
226.225	5882
226.291	14058
226.357	24053
226.423	11313
226.489	5219
226.554	4308
226.620	4363
226.686	4778
226.752	6085
226.818	12685
226.884	32295
226.950	28784
227.016	11873
227.082	5746
227.148	3954
227.214	2966
227.279	2387
227.345	781
227.411	1404
227.477	884
227.543	2099
227.609	2210
227.674	1928
227.740	345
227.806	1226
227.872	1547
227.938	821
228.003	1375
228.069	1372
228.135	915
228.201	1027
228.267	930
228.332	1165
228.398	-569
228.464	1374
228.530	1085
228.595	1028
228.661	1023
228.727	791
228.792	1753
228.858	664
228.924	-9
228.990	3152
229.055	950
229.121	2354
229.187	924
229.252	492
229.318	-201
229.384	566
229.449	567
229.515	-775
229.581	-960
229.646	1204
229.712	1042
229.777	1276
229.843	1628
229.909	1910
229.974	1668
230.040	1285
230.105	1339
230.171	638
230.236	3341
230.302	5487
230.368	3384
230.433	1537
230.499	1746
230.564	1555
230.630	602
230.695	976
230.761	1423
230.826	422
230.892	1875
230.957	860
231.023	130
231.088	577
231.154	231
231.219	978
231.284	384
231.350	1746
231.415	-188
231.481	1525
231.546	-145
231.612	802
231.677	162
231.742	132
231.808	2324
231.873	500
231.939	-631
232.004	1769
232.069	755
232.135	1136
232.200	308
232.265	1094
232.331	139
232.396	15
232.461	98
232.527	594
232.592	-105
232.657	962
232.723	403
232.788	-15
232.853	824
232.918	1293
232.984	23
233.049	-470
233.114	-281
233.179	773
233.245	2218
233.310	1674
233.375	-781
233.440	649
233.506	175
233.571	199
233.636	341
233.701	805
233.766	277
233.832	1335
233.897	288
233.962	-761
234.027	1110
234.092	730
234.157	625
234.222	194
234.288	1652
234.353	4226
234.418	2622
234.483	1758
234.548	1006
234.613	1090
234.678	1358
234.743	1187
234.808	4232
234.873	1691
234.938	1735
235.004	914
235.069	1634
235.134	352
235.199	1264
235.264	1280
235.329	319
235.394	1736
235.459	1569
235.524	532
235.589	1598
235.654	1208
235.719	148
235.784	1497
235.849	1136
235.913	1862
235.978	2190
236.043	2228
236.108	1004
236.173	827
236.238	2338
236.303	1231
236.368	1224
236.433	2762
236.498	3185
236.563	4653
236.627	10306
236.692	43044
236.757	36005
236.822	11898
236.887	7117
236.952	6837
237.017	4016
237.081	5789
237.146	5376
237.211	17067
237.276	41840
237.341	70430
237.405	28673
237.470	11412
237.535	7350
237.600	4969
237.664	3724
237.729	2293
237.794	2953
237.859	9388
237.923	4454
237.988	1881
238.053	2634
238.118	2649
238.182	7812
238.247	7260
238.312	2135
238.376	2592
238.441	856
238.506	1350
238.570	855
238.635	2893
238.700	395
238.764	1350
238.829	2270
238.893	2384
238.958	1254
239.023	1248
239.087	206
239.152	1831
239.216	612
239.281	952
239.346	1415
239.410	1368
239.475	512
239.539	5961
239.604	3455
239.668	2278
239.733	316
239.797	1654
239.862	2390
239.926	3565
239.991	2269
240.055	1073
240.120	231
240.184	473
240.249	283
240.313	233
240.378	382
240.442	2994
240.507	5008
240.571	1117
240.635	1106
240.700	2834
240.764	418
240.829	756
240.893	-554
240.957	720
241.022	2157
241.086	3992
241.151	769
241.215	-259
241.279	1538
241.344	1723
241.408	1329
241.472	267
241.537	1474
241.601	2180
241.665	-158
241.730	1302
241.794	1683
241.858	-195
241.922	1767
241.987	1399
242.051	1118
242.115	348
242.179	1287
242.244	74
242.308	1800
242.372	1212
242.436	585
242.501	1266
242.565	183
242.629	1024
242.693	1530
242.757	52
242.822	412
242.886	2097
242.950	1301
243.014	779
243.078	2061
243.142	1260
243.206	2177
243.271	2049
243.335	2983
243.399	6348
243.463	28361
243.527	79229
243.591	23010
243.655	7230
243.719	3498
243.783	4373
243.847	6449
243.911	9692
243.975	3603
244.040	909
244.104	2810
244.168	1247
244.232	1266
244.296	3797
244.360	7537
244.424	2121
244.488	1930
244.552	2273
244.615	330
244.679	1692
244.743	-15
244.807	-183
244.871	282
244.935	988
244.999	646
245.063	691
245.127	1793
245.191	4977
245.255	4645
245.319	1866
245.383	-294
245.446	1380
245.510	628
245.574	794
245.638	539
245.702	325
245.766	964
245.829	1825
245.893	269
245.957	440
246.021	1563
246.085	104
246.149	1602
246.212	3659
246.276	6028
246.340	1905
246.404	1253
246.467	3319
246.531	971
246.595	2675
246.659	2438
246.722	349
246.786	1659
246.850	1867
246.913	1810
246.977	202
247.041	1769
247.104	1421
247.168	1208
247.232	3180
247.295	8886
247.359	3546
247.423	1168
247.486	1845
247.550	1656
247.614	568
247.677	578
247.741	1209
247.804	658
247.868	1513
247.932	2064
247.995	8950
248.059	2053
248.122	1196
248.186	1776
248.249	3509
248.313	16663
248.376	15801
248.440	7854
248.503	2171
248.567	3402
248.630	2667
248.694	4095
248.757	5978
248.821	20156
248.884	9917
248.948	7382
249.011	12388
249.075	22861
249.138	17977
249.202	5666
249.265	2793
249.328	4489
249.392	2744
249.455	3402
249.519	2962
249.582	2494
249.645	4652
249.709	3635
249.772	4335
249.835	3999
249.899	2720
249.962	3647
250.025	2875
250.089	6622
250.152	9020
250.215	4061
250.279	2636
250.342	5024
250.405	4718
250.468	4268
250.532	6907
250.595	14720
250.658	68352
250.721	118896
250.785	33296
250.848	15337
250.911	9967
250.974	8482
251.038	8370
251.101	14459
251.164	8215
251.227	8053
251.290	9781
251.354	21066
251.417	97854
251.480	99506
251.543	64115
251.606	183586
251.669	137032
251.732	45510
251.795	32103
251.859	37286
251.922	112771
251.985	62346
252.048	19742
252.111	12687
252.174	9550
252.237	13261
252.300	31139
252.363	47894
252.426	134245
252.489	48208
252.552	17995
252.615	11865
252.678	12760
252.741	25801
252.804	52657
252.867	143415
252.930	60251
252.993	21566
253.056	13250
253.119	9207
253.182	8577
253.245	19650
253.308	13099
253.371	5617
253.434	4444
253.497	4868
253.559	8116
253.622	4963
253.685	4016
253.748	3930
253.811	2892
253.874	3277
253.937	2557
254.000	3112
254.062	4760
254.125	8092
254.188	4920
254.251	3929
254.314	2124
254.376	1507
254.439	4071
254.502	2684
254.565	4229
254.628	9046
254.690	3152
254.753	934
254.816	1388
254.878	2493
254.941	5973
255.004	4745
255.067	1820
255.129	1104
255.192	1525
255.255	-33
255.317	881
255.380	1590
255.443	323
255.505	445
255.568	-16
255.631	807
255.693	452
255.756	61
255.819	1420
255.881	316
255.944	966
256.006	253
256.069	906
256.132	967
256.194	558
256.257	2497
256.319	2175
256.382	1403
256.444	2523
256.507	2069
256.569	1626
256.632	1443
256.694	4083
256.757	19319
256.819	63850
256.882	26134
256.944	8950
257.007	5404
257.069	3239
257.132	5183
257.194	4965
257.257	1788
257.319	1129
257.381	4285
257.444	13796
257.506	72643
257.569	75007
257.631	22563
257.693	10380
257.756	5993
257.818	3812
257.880	2670
257.943	2399
258.005	1162
258.067	1392
258.130	1453
258.192	1757
258.254	1857
258.317	875
258.379	1870
258.441	2675
258.503	3565
258.566	4805
258.628	6083
258.690	1310
258.753	2138
258.815	2236
258.877	1498
258.939	1366
259.001	1229
259.064	1355
259.126	132
259.188	1485
259.250	1642
259.312	1848
259.375	4374
259.437	2316
259.499	1254
259.561	605
259.623	939
259.685	412
259.747	1273
259.809	4506
259.872	8406
259.934	16391
259.996	11830
260.058	2283
260.120	55
260.182	719
260.244	1650
260.306	668
260.368	865
260.430	143
260.492	434
260.554	2264
260.616	2951
260.678	4294
260.740	6495
260.802	1032
260.864	946
260.926	-71
260.988	1565
261.050	550
261.112	236
261.174	6963
261.236	6328
261.298	1344
261.359	2370
261.421	4613
261.483	74
261.545	1483
261.607	-139
261.669	855
261.731	1256
261.793	3551
261.854	0
261.916	757
261.978	-86
262.040	590
262.102	981
262.164	1077
262.225	518
262.287	66
262.349	735
262.411	10
262.472	1549
262.534	1324
262.596	3686
262.658	1584
262.719	-553
262.781	1579
262.843	2600
262.904	1853
262.966	2468
263.028	4131
263.090	30049
263.151	88590
263.213	23193
263.275	6223
263.336	3437
263.398	3402
263.459	606
263.521	943
263.583	1760
263.644	521
263.706	-162
263.767	-470
263.829	665
263.891	-403
263.952	410
264.014	-15
264.075	-133
264.137	33
264.198	594
264.260	14
264.321	-207
264.383	163
264.444	1044
264.506	-184
264.567	-440
264.629	1168
264.690	-649
264.752	419
264.813	703
264.875	-146
264.936	218
264.998	203
265.059	-421
265.120	1524
265.182	2884
265.243	27675
265.305	27754
265.366	6522
265.427	2074
265.489	2249
265.550	409
265.611	683
265.673	174
265.734	1027
265.795	1080
265.857	835
265.918	609
265.979	7912
266.040	49331
266.102	42109
266.163	8711
266.224	4015
266.286	1887
266.347	1076
266.408	1231
266.469	304
266.530	115
266.592	-202
266.653	988
266.714	1246
266.775	507
266.836	-65
266.898	-569
266.959	-109
267.020	-75
267.081	1262
267.142	-379
267.203	311
267.264	-1074
267.326	526
267.387	-92
267.448	-344
267.509	-195
267.570	162
267.631	-552
267.692	-445
267.753	44
267.814	-165
267.875	3089
267.936	2877
267.997	1132
268.058	1355
268.119	383
268.180	271
268.241	-283
268.302	140
268.363	-742
268.424	-685
268.485	-324
268.546	-852
268.607	-118
268.668	-401
268.729	-495
268.790	-118
268.851	-451
268.912	270
268.972	880
269.033	-914
269.094	74
269.155	511
269.216	-356
269.277	-23
269.338	161
269.398	672
269.459	-254
269.520	-83
269.581	280
269.642	-31
269.702	-637
269.763	578
269.824	-272
269.885	-440
269.945	59
270.006	939
270.067	527
270.128	-404
270.188	-536
270.249	-765
270.310	-632
270.370	247
270.431	-568
270.492	-487
270.553	-764
270.613	793
270.674	1216
270.734	-372
270.795	-131
270.856	232
270.916	-754
270.977	-471
271.038	14
271.098	-124
271.159	181
271.219	231
271.280	-219
271.340	67
271.401	-781
271.462	469
271.522	-571
271.583	218
271.643	-180
271.704	-685
271.764	-83
271.825	1149
271.885	12853
271.946	21581
272.006	3903
272.066	7116
272.127	15564
272.187	3028
272.248	1172
272.308	2350
272.369	7734
272.429	3440
272.489	1260
272.550	391
272.610	1013
272.671	1080
272.731	1132
272.791	1344
272.852	-76
272.912	803
272.972	-723
273.033	-94
273.093	-461
273.153	-39
273.214	-26
273.274	1166
273.334	2788
273.394	6753
273.455	1623
273.515	2905
273.575	4980
273.635	1260
273.696	3272
273.756	9504
273.816	2348
273.876	847
273.936	2399
273.997	6678
274.057	263
274.117	333
274.177	1070
274.237	9901
274.297	11229
274.358	4790
274.418	5510
274.478	3096
274.538	612
274.598	1371
274.658	4541
274.718	4641
274.778	2027
274.838	807
274.898	1373
274.958	8607
275.018	10519
275.078	5658
275.138	1248
275.198	1021
275.258	729
275.318	306
275.378	-134
275.438	718
275.498	170
275.558	3180
275.618	7936
275.678	3898
275.738	1615
275.798	401
275.858	-156
275.918	215
275.978	107
276.038	-81
276.098	-222
276.157	448
276.217	1642
276.277	376
276.337	174
276.397	-451
276.457	375
276.517	50
276.576	-225
276.636	-850
276.696	-245
276.756	1577
276.815	-38
276.875	-676
276.935	-164
276.995	-162
277.055	-699
277.114	-825
277.174	-492
277.234	2474
277.293	74
277.353	-911
277.413	875
277.472	-795
277.532	-785
277.592	708
277.651	1996
277.711	4571
277.771	359
277.830	4690
277.890	4390
277.950	4277
278.009	16939
278.069	4968
278.128	3714
278.188	4753
278.248	1721
278.307	5378
278.367	3401
278.426	225
278.486	-470
278.545	-639
278.605	-661
278.664	-157
278.724	-61
278.783	3299
278.843	9982
278.902	2171
278.962	861
279.021	832
279.081	1201
279.140	1162
279.199	1111
279.259	1380
279.318	3129
279.378	4236
279.437	6311
279.496	28940
279.556	101323
279.615	81148
279.675	16670
279.734	8286
279.793	9164
279.853	18512
279.912	7158
279.971	2297
280.031	2848
280.090	5618
280.149	11233
280.208	10542
280.268	63356
280.327	69850
280.386	10648
280.445	5747
280.505	3995
280.564	2547
280.623	1329
280.682	2363
280.742	2435
280.801	557
280.860	-273
280.919	-103
280.978	540
281.037	181
281.097	-990
281.156	286
281.215	-506
281.274	545
281.333	3494
281.392	2264
281.451	462
281.510	420
281.569	36
281.628	-491
281.688	478
281.747	27
281.806	-805
281.865	-173
281.924	238
281.983	-20
282.042	-506
282.101	-612
282.160	-354
282.219	-900
282.278	-633
282.337	942
282.396	-529
282.454	358
282.513	-175
282.572	1037
282.631	546
282.690	-190
282.749	-1209
282.808	90
282.867	-836
282.926	361
282.985	-248
283.043	-727
283.102	-850
283.161	-267
283.220	983
283.279	1563
283.338	19
283.396	-216
283.455	316
283.514	-182
283.573	-319
283.631	-70
283.690	-945
283.749	1131
283.808	-75
283.866	448
283.925	-428
283.984	173
284.043	-162
284.101	-404
284.160	-1120
284.219	128
284.277	406
284.336	419
284.395	2877
284.453	3059
284.512	394
284.570	333
284.629	634
284.688	943
284.746	35
284.805	1421
284.863	1107
284.922	2108
284.981	1857
285.039	3134
285.098	7903
285.156	25915
285.215	118217
285.273	116704
285.332	35738
285.390	14592
285.449	9181
285.507	6294
285.566	4280
285.624	3301
285.683	1965
285.741	1291
285.799	485
285.858	698
285.916	-407
285.975	-99
286.033	660
286.091	77
286.150	-376
286.208	517
286.267	742
286.325	-151
286.383	435
286.442	860
286.500	451
286.558	539
286.616	-509
286.675	553
286.733	351
286.791	-714
286.850	198
286.908	786
286.966	917
287.024	997
287.083	566
287.141	291
287.199	480
287.257	838
287.315	450
287.374	434
287.432	1323
287.490	489
287.548	505
287.606	1751
287.664	1540
287.723	1758
287.781	764
287.839	1832
287.897	3139
287.955	5828
288.013	13772
288.071	35753
288.129	133031
288.187	361111
288.245	170333
288.303	51433
288.361	28598
288.419	18858
288.477	14147
288.535	9158
288.593	6427
288.651	3824
288.709	2557
288.767	2859
288.825	1445
288.883	1340
288.941	367
288.999	759
289.057	493
289.115	-4
289.173	-477
289.231	634
289.289	-386
289.346	-766
289.404	191
289.462	101
289.520	292
289.578	218
289.636	-185
289.694	253
289.751	-18
289.809	56
289.867	-379
289.925	583
289.983	-371
290.040	-160
290.098	-527
290.156	-137
290.214	-504
290.271	-544
290.329	-331
290.387	-453
290.444	-268
290.502	-181
290.560	-818
290.617	-539
290.675	-499
290.733	-1305
290.790	-572
290.848	173
290.906	-886
290.963	41
291.021	-668
291.078	-327
291.136	-460
291.194	-385
291.251	183
291.309	-45
291.366	-1428
291.424	-966
291.481	-1200
291.539	-1359
291.596	-4
291.654	-485
291.711	-232
291.769	-368
291.826	-677
291.884	-263
291.941	-1382
291.999	-855
292.056	-1151
292.114	-1262
292.171	-1181
292.228	-913
292.286	-545
292.343	-449
292.401	-695
292.458	-481
292.515	-1034
292.573	-561
292.630	-771
292.687	79
292.745	-575
292.802	-123
292.859	-594
292.917	1313
292.974	501
293.031	-700
293.089	-1896
293.146	-1511
293.203	-1344
293.260	-116
293.318	-538
293.375	-466
293.432	-1302
293.489	-372
293.546	-443
293.604	-762
293.661	2140
293.718	9252
293.775	3005
293.832	-268
293.889	-122
293.947	-141
294.004	-574
294.061	-828
294.118	-575
294.175	1476
294.232	450
294.289	-760
294.346	-79
294.403	-124
294.460	-1300
294.517	-706
294.574	-683
294.631	-510
294.688	310
294.745	1252
294.802	7839
294.859	5910
294.916	1812
294.973	409
295.030	-29
295.087	-570
295.144	-400
295.201	224
295.258	-1080
295.315	184
295.372	1792
295.429	6674
295.486	2048
295.542	397
295.599	5
295.656	622
295.713	1424
295.770	3889
295.827	797
295.883	836
295.940	-1762
295.997	209
296.054	-161
296.111	-98
296.167	-644
296.224	-246
296.281	-627
296.338	-478
296.394	-951
296.451	-753
296.508	1018
296.564	2822
296.621	2538
296.678	11186
296.734	17666
296.791	4679
296.848	1481
296.904	1814
296.961	2429
297.018	5772
297.074	4403
297.131	1262
297.187	959
297.244	1962
297.301	8311
297.357	18594
297.414	4779
297.470	1131
297.527	27
297.583	-356
297.640	-195
297.696	-276
297.753	-300
297.809	-813
297.866	-641
297.922	-6
297.979	-1280
298.035	-1205
298.092	-213
298.148	1774
298.204	2616
298.261	775
298.317	3717
298.374	13413
298.430	8205
298.486	2643
298.543	1955
298.599	1401
298.656	2443
298.712	5850
298.768	26865
298.824	25353
298.881	6520
298.937	1847
298.993	1042
299.050	722
299.106	569
299.162	-112
299.218	335
299.275	456
299.331	639
299.387	2510
299.443	10999
299.500	12384
299.556	2761
299.612	721
299.668	1212
299.724	320
299.780	1070
299.837	370
299.893	470
299.949	4113
300.005	5984
300.061	5738
300.117	14532
300.173	6506
300.229	1199
300.285	832
300.341	970
300.397	914
300.453	-1031
300.510	-333
300.566	-103
300.622	91
300.678	1849
300.734	4137
300.790	5025
300.845	7856
300.901	3622
300.957	4087
301.013	2729
301.069	382
301.125	1378
301.181	2097
301.237	832
301.293	-890
301.349	581
301.405	-822
301.461	-751
301.516	-856
301.572	-154
301.628	-249
301.684	-587
301.740	-95
301.796	1669
301.851	686
301.907	2038
301.963	4384
302.019	12352
302.074	43751
302.130	44901
302.186	16936
302.242	4783
302.297	2712
302.353	2543
302.409	3172
302.464	2006
302.520	2138
302.576	6528
302.631	9400
302.687	3227
302.743	881
302.798	924
302.854	928
302.910	1365
302.965	2793
303.021	2476
303.076	879
303.132	985
303.187	665
303.243	352
303.299	175
303.354	417
303.410	234
303.465	64
303.521	-561
303.576	-709
303.632	417
303.687	1950
303.743	8911
303.798	8782
303.853	2424
303.909	115
303.964	349
304.020	296
304.075	1429
304.130	988
304.186	1091
304.241	2950
304.297	1368
304.352	652
304.358	606
304.407	235
304.449	513
304.463	606
304.518	-238
304.539	-163
304.573	-35
304.629	991
304.630	999
304.684	1555
304.720	5321
304.739	7157
304.794	14089
304.811	11960
304.850	6624
304.902	1685
304.905	1394
304.960	1358
304.992	2177
305.015	2622
305.071	2553
305.083	2153
305.126	781
305.173	271
305.181	208
305.236	-195
305.264	55
305.292	264
305.347	-66
305.354	48
305.402	1141
305.445	2408
305.457	2655
305.512	3201
305.535	2631
305.567	1822
305.622	980
305.626	1099
305.678	5136
305.716	11642
305.733	13406
305.788	11986
305.807	10038
305.843	7939
305.897	12331
305.898	12362
305.953	13136
305.988	8579
306.008	6206
306.063	2667
306.078	2164
306.118	1426
306.168	1132
306.173	1104
306.228	542
306.259	580
306.283	734
306.338	223
306.349	524
306.393	2135
306.440	4083
306.448	4253
306.503	3358
306.530	2755
306.558	3005
306.613	4915
306.620	5226
306.668	6637
306.711	7779
306.723	7652
306.778	5904
306.801	4534
306.833	3425
306.888	2045
306.892	1981
306.943	1609
306.982	1231
306.997	1083
307.052	1777
307.072	1720
307.107	1678
307.162	1535
307.163	1536
307.217	2307
307.253	2733
307.272	2852
307.327	2650
307.343	2763
307.381	3171
307.434	2534
307.436	2572
307.491	4469
307.524	6005
307.546	6411
307.600	7002
307.614	6700
307.655	5219
307.704	4072
307.710	4123
307.765	4812
307.795	5206
307.819	5948
307.874	7925
307.885	8399
307.929	10540
307.975	13701
307.984	15374
308.038	27430
308.065	35749
308.093	70021
308.148	150586
308.156	167168
308.202	257219
308.246	326190
308.257	313036
308.312	160162
308.336	97872
308.366	67541
308.421	33717
308.426	31068
308.475	22094
308.517	16486
308.530	15523
308.585	12882
308.607	11757
308.639	10697
308.694	9622
308.697	9577
308.748	11234
308.787	12634
308.803	12586
308.857	12067
308.877	12113
308.912	13818
308.967	16708
308.967	16723
309.021	25616
309.058	32635
309.076	43544
309.130	81868
309.148	96532
309.185	205101
309.238	385819
309.239	387309
309.293	424542
309.328	396769
309.348	337866
309.402	153381
309.418	106806
309.457	72542
309.508	39975
309.511	39179
309.566	28687
309.598	23235
309.620	22256
309.674	20859
309.688	20582
309.729	18015
309.778	14554
309.783	14307
309.837	11239
309.868	10005
309.892	10621
309.946	12227
309.959	12771
310.001	14373
310.049	15703
310.055	15189
310.109	9958
310.139	6766
310.163	5776
310.218	4217
310.229	3928
310.272	3808
310.319	3805
310.326	3731
310.381	3083
310.409	2798
310.435	2854
310.489	2783
310.499	2796
310.543	3074
310.589	3433
310.598	3573
310.652	4209
310.679	4547
310.706	3937
310.760	2511
310.769	2293
310.814	2412
310.859	2509
310.868	2532
310.923	2725
310.948	2712
310.977	2902
311.031	3513
311.038	3547
311.085	3075
311.128	2688
311.139	2624
311.193	2335
311.218	2126
311.247	2354
311.301	2932
311.308	2966
311.356	2333
311.398	1831
311.410	1866
311.464	1937
311.488	1993
311.518	2201
311.572	2512
311.578	2541
311.626	2516
311.668	2444
311.680	2476
311.734	2565
311.758	2608
311.788	2494
311.842	2189
311.847	2157
311.896	2360
311.937	2493
311.950	2666
312.004	3393
312.027	3691
312.058	3675
312.112	3640
312.117	3624
312.165	2867
312.207	2202
312.297	2076
312.386	1461
312.476	2328
312.566	4957
312.656	2699
312.745	3182
312.835	3307
312.925	5438
313.015	4966
313.104	3818
313.194	4482
313.284	3877
313.374	4222
313.463	2560
313.553	1995
313.643	1727
313.732	2733
313.822	3910
313.912	4917
314.001	2356
314.091	2834
314.180	1807
314.270	2784
314.360	1995
314.449	2934
314.539	2605
314.628	1564
314.718	1684
314.808	2168
314.897	2431
314.987	2440
315.076	2415
315.166	3048
315.255	2843
315.345	3484
315.434	3264
315.524	3872
315.613	3437
315.703	5001
315.792	10761
315.881	31490
315.971	11311
316.060	5400
316.150	3928
316.239	3664
316.328	3147
316.418	3345
316.507	3513
316.597	9735
316.686	4094
316.775	2509
316.865	3833
316.954	2020
317.043	1907
317.133	2077
317.222	1903
317.311	2681
317.400	904
317.490	3711
317.579	3503
317.668	3535
317.757	6811
317.847	15965
317.936	57600
318.025	18527
318.114	10642
318.203	6997
318.293	8701
318.382	3949
318.471	3127
318.560	3554
318.649	5677
318.738	2278
318.828	1748
318.917	2798
319.006	2408
319.095	6248
319.184	10549
319.273	6238
319.362	4235
319.451	3122
319.540	1746
319.629	4513
319.718	5760
319.807	2572
319.896	3019
319.985	11212
320.074	5003
320.163	1461
320.252	2708
320.341	2547
320.430	1938
320.519	2977
320.608	2698
320.697	1787
320.786	1278
320.875	2627
320.964	2902
321.053	5120
321.142	7291
321.230	9548
321.319	5809
321.408	11849
321.497	5598
321.586	4678
321.675	3788
321.764	3638
321.852	2982
321.941	5914
322.030	4141
322.119	4106
322.207	9598
322.296	5764
322.385	3435
322.474	4429
322.562	10863
322.651	6051
322.740	5361
322.829	7273
322.917	5463
323.006	4120
323.095	4384
323.183	7050
323.272	4771
323.361	8792
323.449	17036
323.538	4999
323.626	8823
323.715	6616
323.804	3086
323.892	7666
323.981	5623
324.069	5074
324.158	6850
324.246	5125
324.335	3157
324.424	4897
324.512	2759
324.601	4436
324.689	16462
324.778	35724
324.866	6822
324.954	2809
325.043	2257
325.131	2649
325.220	4301
325.308	4600
325.397	3694
325.485	2770
325.574	1233
325.662	1740
325.750	901
325.839	1233
325.927	1949
326.015	3068
326.104	1672
326.192	2612
326.280	1615
326.369	1073
326.457	2226
326.545	3443
326.634	1371
326.722	2275
326.810	2238
326.898	2353
326.987	3001
327.075	4211
327.163	7290
327.251	15865
327.340	26493
327.428	19927
327.516	2739
327.604	1800
327.692	2399
327.781	2988
327.869	8569
327.957	12305
328.045	2249
328.133	2213
328.221	2161
328.309	3651
328.397	3898
328.485	7848
328.574	3126
328.662	7301
328.750	4407
328.838	2850
328.926	2938
329.014	1679
329.102	1959
329.190	3312
329.278	2886
329.366	2313
329.454	1498
329.542	2379
329.630	3018
329.718	2883
329.806	3329
329.893	4556
329.981	6901
330.069	18606
330.157	70046
330.245	201072
330.333	104811
330.421	17451
330.509	10165
330.597	14947
330.684	9377
330.772	3398
330.860	2123
330.948	3282
331.036	1929
331.123	1430
331.211	1581
331.299	2232
331.387	2744
331.475	3431
331.562	2201
331.650	1161
331.738	1552
331.825	1586
331.913	2312
332.001	433
332.089	1314
332.176	2059
332.264	3877
332.352	3655
332.439	1277
332.527	1612
332.614	1280
332.702	2027
332.790	1558
332.877	2391
332.965	3761
333.052	1511
333.140	1935
333.228	3549
333.315	2052
333.403	3202
333.490	3869
333.578	2315
333.665	5551
333.753	3549
333.840	1961
333.928	2833
334.015	4824
334.103	5407
334.190	10922
334.278	3545
334.365	1796
334.452	3539
334.540	2579
334.627	1370
334.715	2190
334.802	3847
334.889	14462
334.977	16543
335.064	3776
335.151	2704
335.239	987
335.326	1569
335.413	6280
335.501	7607
335.588	5493
335.675	4022
335.762	3744
335.850	3276
335.937	3589
336.024	7626
336.111	16207
336.199	8309
336.286	3363
336.373	2557
336.460	1200
336.547	1518
336.635	1931
336.722	1780
336.809	1656
336.896	1821
336.983	3767
337.070	7182
337.157	10092
337.245	7921
337.332	6458
337.419	2636
337.506	3240
337.593	1988
337.680	1901
337.767	4985
337.854	2099
337.941	2368
338.028	3823
338.115	1068
338.202	2145
338.289	2622
338.376	7551
338.463	3261
338.550	3726
338.637	3698
338.724	3088
338.811	10454
338.898	4007
338.984	1948
339.071	3427
339.158	24484
339.245	26790
339.332	6404
339.419	2387
339.506	1888
339.593	497
339.679	1795
339.766	1345
339.853	1469
339.940	4462
340.027	2057
340.113	1445
340.200	1377
340.287	2247
340.374	1892
340.460	4202
340.547	1143
340.634	2473
340.720	7710
340.807	4175
340.894	1810
340.980	3505
341.067	3619
341.154	2306
341.240	1299
341.327	3859
341.414	1884
341.500	1917
341.587	1506
341.674	765
341.760	2234
341.847	2711
341.933	1278
342.020	-56
342.106	937
342.193	1948
342.279	2487
342.366	1221
342.452	3312
342.539	1565
342.625	2652
342.712	7708
342.798	3435
342.885	2629
342.971	2230
343.058	6198
343.144	2420
343.230	1992
343.317	1814
343.403	1306
343.490	1993
343.576	1245
343.662	3365
343.749	9763
343.835	30295
343.921	9170
344.008	35578
344.094	75802
344.180	14761
344.267	4100
344.353	10390
344.439	10246
344.525	3785
344.612	2800
344.698	4214
344.784	3115
344.870	1968
344.957	1033
345.043	1827
345.129	1210
345.215	2050
345.301	1052
345.387	683
345.474	137
345.560	545
345.646	1410
345.732	2654
345.818	2539
345.904	1349
345.990	1179
346.076	1367
346.162	1900
346.249	2688
346.335	3665
346.421	2181
346.507	6160
346.593	17974
346.679	2882
346.765	1918
346.851	1391
346.937	656
347.023	2248
347.108	4337
347.194	1047
347.280	805
347.366	1823
347.452	5905
347.538	24699
347.624	15011
347.710	8926
347.796	2779
347.882	6773
347.967	8850
348.053	4935
348.139	8339
348.225	2296
348.311	3381
348.397	2894
348.482	1823
348.568	2065
348.654	520
348.740	1145
348.825	922
348.911	3736
348.997	11678
349.083	22567
349.168	3295
349.254	1280
349.340	1334
349.425	1484
349.511	4526
349.597	20195
349.682	13548
349.768	9282
349.854	5218
349.939	1490
350.025	1536
350.110	2022
350.196	1856
350.282	119
350.367	1489
350.453	1606
350.538	6002
350.624	4542
350.709	1773
350.795	856
350.880	4059
350.966	6955
351.051	3159
351.137	1000
351.222	1545
351.308	2087
351.393	6360
351.479	1693
351.564	1006
351.649	898
351.735	929
351.820	1860
351.906	6018
351.991	9348
352.076	5410
352.162	6879
352.247	2135
352.332	1368
352.418	1637
352.503	1901
352.588	10423
352.673	7328
352.759	1865
352.844	294
352.929	1439
353.014	1957
353.100	2620
353.185	3460
353.270	3982
353.355	4014
353.441	2245
353.526	2030
353.611	3200
353.696	2938
353.781	2354
353.866	399
353.952	1900
354.037	1863
354.122	5441
354.207	5344
354.292	2982
354.377	978
354.462	341
354.547	945
354.632	2596
354.717	6491
354.802	10453
354.887	3068
354.972	2502
355.057	3643
355.142	3857
355.227	6488
355.312	2233
355.397	3684
355.482	7460
355.567	5647
355.652	11450
355.737	6727
355.822	12116
355.907	9705
355.991	2422
356.076	1196
356.161	1309
356.246	1243
356.331	2173
356.416	3389
356.501	30282
356.585	35092
356.670	6306
356.755	3862
356.840	5733
356.924	23954
357.009	87389
357.094	29794
357.179	9606
357.263	17685
357.348	6078
357.433	2638
357.517	5614
357.602	8853
357.687	8821
357.771	6073
357.856	3817
357.941	3560
358.025	20898
358.110	114511
358.195	48467
358.279	4412
358.364	2163
358.448	7543
358.533	18029
358.617	15464
358.702	16007
358.787	6582
358.871	4003
358.956	2063
359.040	1098
359.125	872
359.209	2044
359.294	752
359.378	1869
359.462	2187
359.547	1515
359.631	1103
359.716	654
359.800	1187
359.885	1889
359.969	1236
360.053	7307
360.138	15170
360.222	4004
360.306	2174
360.391	2429
360.475	2853
360.559	5296
360.644	6735
360.728	6075
360.812	15736
360.896	46500
360.981	13381
361.065	5149
361.149	3138
361.233	3621
361.318	4711
361.402	4401
361.486	6756
361.570	1707
361.654	1274
361.739	4442
361.823	27874
361.907	50032
361.991	8047
362.075	3084
362.159	4491
362.243	5229
362.327	7225
362.411	12216
362.495	4054
362.580	1812
362.664	1944
362.748	905
362.832	2478
362.916	3481
363.000	13936
363.084	38606
363.168	57112
363.252	11883
363.336	4101
363.420	4078
363.503	6817
363.587	7340
363.671	2277
363.755	1308
363.839	3103
363.923	688
364.007	3101
364.091	3174
364.175	2103
364.258	14285
364.342	14129
364.426	23625
364.510	11234
364.594	5883
364.677	7444
364.761	40417
364.845	28039
364.929	5486
365.013	3607
365.096	3449
365.180	3619
365.264	3070
365.347	11116
365.431	4609
365.515	613
365.598	1121
365.682	1893
365.766	-141
365.849	433
365.933	985
366.017	1915
366.100	868
366.184	-93
366.267	2794
366.351	6295
366.435	2828
366.518	199
366.602	443
366.685	968
366.769	1354
366.852	1600
366.936	2190
367.019	1627
367.103	939
367.186	2093
367.270	668
367.353	-181
367.436	3179
367.520	2450
367.603	1392
367.687	1132
367.770	2430
367.853	2628
367.937	7595
368.020	11822
368.104	1851
368.187	2039
368.270	2855
368.353	1717
368.437	3124
368.520	5738
368.603	3653
368.687	7097
368.770	14488
368.853	3607
368.936	3055
369.020	1963
369.103	453
369.186	906
369.269	530
369.352	2942
369.436	2391
369.519	1205
369.602	-308
369.685	3444
369.768	4153
369.851	5252
369.934	1055
370.018	374
370.101	1771
370.184	2998
370.267	1123
370.350	1751
370.433	3664
370.516	15585
370.599	24812
370.682	6226
370.765	6738
370.848	9903
370.931	22020
371.014	8437
371.097	35
371.180	2191
371.263	979
371.346	81
371.429	2522
371.511	1375
371.594	1218
371.677	2774
371.760	2923
371.843	3647
371.926	35847
372.009	91557
372.091	24261
372.174	7834
372.257	21816
372.340	7778
372.423	3235
372.505	4272
372.588	1915
372.671	5533
372.754	19072
372.836	9503
372.919	4348
373.002	5567
373.085	2136
373.167	4102
373.250	7545
373.332	20680
373.415	46773
373.498	117430
373.580	36592
373.663	56355
373.746	79311
373.828	13490
373.911	4314
373.993	2615
374.076	4997
374.159	5019
374.241	4713
374.324	14746
374.406	11703
374.489	22952
374.571	70316
374.654	23734
374.736	10799
374.819	38473
374.901	68281
374.983	78282
375.066	11982
375.148	5154
375.231	5809
375.313	8853
375.395	2700
375.478	966
375.560	2413
375.643	2412
375.725	10889
375.807	54058
375.890	36033
375.972	6361
376.054	3828
376.136	4979
376.219	2390
376.301	12275
376.383	39744
376.465	15447
376.548	6385
376.630	9553
376.712	30755
376.794	12847
376.877	1617
376.959	389
377.041	1365
377.123	937
377.205	1080
377.287	-39
377.369	1000
377.452	1068
377.534	885
377.616	665
377.698	619
377.780	200
377.862	1032
377.944	1344
378.026	1387
378.108	2767
378.190	1505
378.272	1105
378.354	920
378.436	-117
378.518	88
378.600	2266
378.682	3090
378.764	9120
378.846	7108
378.928	1298
379.010	2237
379.091	3306
379.173	3259
379.255	836
379.337	1432
379.419	4077
379.501	15665
379.583	5649
379.664	2097
379.746	1871
379.828	8033
379.910	11235
379.991	10667
380.073	1844
380.155	981
380.237	1852
380.318	801
380.400	614
380.482	1845
380.564	2966
380.645	3864
380.727	3216
380.809	2853
380.890	1116
380.972	929
381.053	753
381.135	1816
381.217	2900
381.298	8955
381.380	4341
381.461	4356
381.543	30868
381.624	37516
381.706	6668
381.787	2434
381.869	3569
381.951	18616
382.032	82591
382.113	47867
382.195	5809
382.276	6129
382.358	7811
382.439	24794
382.521	35969
382.602	66057
382.684	23256
382.765	32441
382.846	30308
382.928	37836
383.009	20579
383.090	16330
383.172	61237
383.253	91406
383.334	32311
383.416	42995
383.497	24166
383.578	15074
383.659	23353
383.741	59936
383.822	152145
383.903	72198
383.984	25041
384.066	42244
384.147	24444
384.228	5703
384.309	4662
384.390	3086
384.471	1956
384.553	2142
384.634	3069
384.715	4700
384.796	1774
384.877	3098
384.958	11081
385.039	10137
385.120	3393
385.201	2626
385.282	1182
385.363	2705
385.444	1748
385.525	4964
385.606	18561
385.687	17093
385.768	3457
385.849	3403
385.930	33852
386.011	66218
386.092	14890
386.173	2980
386.254	2039
386.335	7256
386.416	10279
386.496	7606
386.577	9014
386.658	2531
386.739	1075
386.820	2409
386.901	963
386.981	1575
387.062	1379
387.143	2702
387.224	8440
387.304	8936
387.385	3310
387.466	415
387.547	2903
387.627	752
387.708	6253
387.789	19571
387.869	24391
387.950	8878
388.031	1229
388.111	-660
388.192	2487
388.273	2971
388.353	1674
388.434	2106
388.514	7529
388.595	30299
388.676	30378
388.756	10222
388.837	7930
388.917	6183
388.998	5219
389.078	9151
389.159	7770
389.239	1935
389.320	4321
389.400	562
389.480	4658
389.561	9224
389.641	6329
389.722	2407
389.802	2204
389.883	5279
389.963	14793
390.043	8750
390.124	2532
390.204	4031
390.284	11378
390.365	9235
390.445	30982
390.525	180807
390.605	169305
390.686	23885
390.766	6257
390.846	3853
390.927	1645
391.007	830
391.087	3220
391.167	1894
391.247	415
391.328	3395
391.408	2895
391.488	2777
391.568	1138
391.648	2562
391.728	3498
391.808	3456
391.888	2897
391.969	5946
392.049	9128
392.129	5769
392.209	7005
392.289	14127
392.369	7838
392.449	4763
392.529	4572
392.609	6642
392.689	7610
392.769	16287
392.849	14973
392.929	15267
393.009	25755
393.089	24601
393.169	36425
393.248	131000
393.328	614075
393.408	663813
393.488	147199
393.568	34778
393.648	18031
393.728	11742
393.807	9280
393.887	10184
393.967	10043
394.047	11405
394.127	15745
394.206	31148
394.286	122379
394.366	547468
394.446	602559
394.525	148587
394.605	35331
394.685	18177
394.764	13716
394.844	12496
394.924	11034
395.003	7795
395.083	6646
395.163	7658
395.242	6617
395.322	7413
395.402	5506
395.481	9169
395.561	9586
395.640	15475
395.720	18675
395.799	23311
395.879	29133
395.958	49551
396.038	187304
396.117	716733
396.197	796015
396.276	234962
396.356	62731
396.435	31050
396.515	23527
396.594	21691
396.673	37145
396.753	156365
396.832	568288
396.912	369986
396.991	61636
397.070	19641
397.150	9508
397.229	8912
397.308	8995
397.388	11437
397.467	8172
397.546	4801
397.625	1686
397.705	5300
397.784	4115
397.863	2940
397.942	1596
398.022	2552
398.101	3176
398.180	7069
398.259	3291
398.338	2600
398.417	1417
398.497	656
398.576	2219
398.655	21
398.734	1253
398.813	1063
398.892	2884
398.971	6112
399.050	3654
399.129	1551
399.208	2022
399.287	1668
399.366	559
399.445	548
399.524	26
399.603	-1086
399.682	1562
399.761	2313
399.840	6956
399.919	7179
399.998	923
400.077	-748
400.156	-94
400.235	2523
400.313	1021
400.392	550
400.471	5123
400.550	7656
400.629	947
400.708	1833
400.786	271
400.865	533
400.944	766
401.023	2072
401.102	-40
401.180	450
401.259	766
401.338	-107
401.416	762
401.495	-363
401.574	1398
401.652	-597
401.731	1418
401.810	572
401.888	-165
401.967	-248
402.046	-399
402.124	696
402.203	-390
402.281	559
402.360	875
402.438	3438
402.517	1763
402.596	822
402.674	875
402.753	1537
402.831	1195
402.910	2302
402.988	6506
403.066	20093
403.145	12266
403.223	6543
403.302	15387
403.380	11281
403.459	9657
403.537	3838
403.615	1684
403.694	-558
403.772	687
403.850	577
403.929	460
404.007	-344
404.085	2927
404.164	2760
404.242	1716
404.320	5041
404.398	11685
404.477	13926
404.555	42561
404.633	36629
404.711	8605
404.789	4542
404.868	2258
404.946	775
405.024	894
405.102	659
405.180	-506
405.258	-1427
405.336	1455
405.415	595
405.493	3131
405.571	4333
405.649	366
405.727	-967
405.805	1432
405.883	1010
405.961	496
406.039	138
406.117	61
406.195	1464
406.273	5410
406.351	29358
406.429	18993
406.507	1703
406.585	-113
406.663	138
406.740	280
406.818	-795
406.896	-181
406.974	1537
407.052	760
407.130	13983
407.208	21916
407.285	9828
407.363	887
407.441	1838
407.519	1835
407.596	3074
407.674	18457
407.752	92186
407.830	68663
407.907	8954
407.985	1296
408.063	4443
408.141	6337
408.218	3009
408.296	557
408.373	1107
408.451	1037
408.529	358
408.606	183
408.684	243
408.762	99
408.839	224
408.917	-261
408.994	-348
409.072	218
409.149	316
409.227	893
409.304	329
409.382	635
409.459	1725
409.537	1947
409.614	1175
409.692	510
409.769	-74
409.846	1401
409.924	1743
410.001	44
410.079	-234
410.156	764
410.233	1641
410.311	2500
410.388	784
410.465	-317
410.543	-927
410.620	48
410.697	1067
410.775	580
410.852	-981
410.929	1567
411.006	385
411.083	-1043
411.161	-940
411.238	-230
411.315	-34
411.392	-477
411.469	-59
411.547	-304
411.624	-1997
411.701	-622
411.778	-193
411.855	1197
411.932	-39
412.009	112
412.086	1036
412.163	1274
412.240	3
412.317	708
412.394	46
412.471	-111
412.548	-447
412.625	276
412.702	989
412.779	144
412.856	357
412.933	-233
413.010	317
413.087	1021
413.164	2915
413.241	5354
413.318	722
413.395	859
413.471	65
413.548	1044
413.625	-169
413.702	-855
413.779	-413
413.855	-175
413.932	-81
414.009	-1300
414.086	-210
414.162	-458
414.239	473
414.316	2430
414.393	8798
414.469	1635
414.546	-205
414.623	-294
414.699	-135
414.776	12
414.853	724
414.929	3657
415.006	1119
415.082	-32
415.159	-199
415.236	698
415.312	1074
415.389	772
415.465	165
415.542	90
415.618	-598
415.695	773
415.771	265
415.848	-475
415.924	-367
416.000	-498
416.077	1414
416.153	770
416.230	-621
416.306	-420
416.383	-184
416.459	-167
416.535	-88
416.612	106
416.688	753
416.764	-124
416.841	-336
416.917	-933
416.993	-70
417.069	-335
417.146	415
417.222	1602
417.298	498
417.374	-342
417.451	427
417.527	-343
417.603	-210
417.679	-205
417.755	-319
417.831	-727
417.908	-475
417.984	-364
418.060	-758
418.136	1058
418.212	1332
418.288	-452
418.364	172
418.440	-664
418.516	270
418.592	66
418.668	1852
418.744	2549
418.820	2294
418.896	460
418.972	-617
419.048	-343
419.124	1819
419.200	-621
419.276	-10
419.352	-818
419.428	338
419.504	27
419.579	366
419.655	-139
419.731	299
419.807	987
419.883	3666
419.959	2538
420.034	534
420.110	1174
420.186	5804
420.262	4576
420.337	286
420.413	-217
420.489	230
420.565	1032
420.640	-872
420.716	317
420.792	-797
420.867	1758
420.943	-261
421.019	959
421.094	-183
421.170	721
421.245	520
421.321	1163
421.397	1764
421.472	13885
421.548	49237
421.623	27075
421.699	2939
421.774	1316
421.850	418
421.925	986
422.001	990
422.076	1159
422.152	228
422.227	1818
422.302	4301
422.378	4469
422.453	9607
422.529	29852
422.604	142734
422.679	322862
422.755	166941
422.830	36744
422.905	10895
422.981	4924
423.056	3603
423.131	2485
423.207	1444
423.282	625
423.357	2578
423.432	363
423.508	2177
423.583	2585
423.658	2954
423.733	49
423.808	492
423.883	3398
423.959	5312
424.034	3999
424.109	4205
424.184	4249
424.259	1047
424.334	287
424.409	-583
424.484	-90
424.559	237
424.634	167
424.709	-311
424.784	218
424.859	200
424.934	410
425.009	2629
425.084	5947
425.159	766
425.234	315
425.309	-379
425.384	-188
425.459	-963
425.534	-862
425.609	-769
425.683	-253
425.758	-347
425.833	227
425.908	114
425.983	756
426.058	6122
426.132	2375
426.207	-108
426.282	780
426.357	-975
426.431	425
426.506	-15
426.581	-643
426.655	-217
426.730	-339
426.805	664
426.879	262
426.954	-12
427.029	622
427.103	6570
427.178	19449
427.253	8653
427.327	-194
427.402	-707
427.476	-456
427.551	-725
427.625	-685
427.700	421
427.774	-899
427.849	-270
427.923	-1762
427.998	-752
428.072	-207
428.147	1697
428.221	9816
428.296	35838
428.370	18650
428.444	1597
428.519	-323
428.593	33
428.667	30
428.742	224
428.816	2051
428.890	16689
428.965	29040
429.039	5362
429.113	1133
429.188	699
429.262	-682
429.336	605
429.410	2026
429.485	2969
429.559	399
429.633	-429
429.707	-363
429.781	621
429.855	14550
429.930	24257
430.004	6353
430.078	4179
430.152	11593
430.226	62779
430.300	68531
430.374	8525
430.448	2262
430.522	1703
430.596	3788
430.670	6021
430.744	31134
430.818	44327
430.892	8308
430.966	-22
431.040	585
431.114	-1099
431.188	-652
431.262	-263
431.336	-1532
431.410	740
431.484	-105
431.557	750
431.631	-300
431.705	71
431.779	5228
431.853	31244
431.927	21446
432.000	2514
432.074	-633
432.148	-1236
432.222	-1277
432.295	-151
432.369	-713
432.443	-17
432.516	7563
432.590	21932
432.664	7820
432.737	-139
432.811	-722
432.885	-1318
432.958	181
433.032	-1256
433.106	-1306
433.179	-652
433.253	-920
433.326	-1360
433.400	-276
433.473	176
433.547	-995
433.620	-482
433.694	-723
433.767	4
433.841	-1389
433.914	-1126
433.988	-809
434.061	216
434.134	90
434.208	-899
434.281	-1321
434.355	-156
434.428	-452
434.501	-804
434.575	-1398
434.648	-678
434.721	-240
434.795	1105
434.868	960
434.941	-1496
435.014	-886
435.088	-934
435.161	-333
435.234	178
435.307	-159
435.381	-845
435.454	-529
435.527	309
435.600	-713
435.673	-35
435.746	-378
435.819	-94
435.892	-281
435.966	1072
436.039	-13
436.112	533
436.185	-1244
436.258	-1402
436.331	-1566
436.404	-1249
436.477	-1352
436.550	-1246
436.623	173
436.696	-204
436.769	-287
436.842	-542
436.915	-631
436.987	-1112
437.060	-643
437.133	-794
437.206	-1754
437.279	122
437.352	-941
437.425	-291
437.498	-786
437.570	-62
437.643	-457
437.716	-204
437.789	-1008
437.861	-873
437.934	-611
438.007	-547
438.080	-380
438.152	-582
438.225	1530
438.298	13104
438.370	42125
438.443	16925
438.516	601
438.588	-675
438.661	-513
438.734	-483
438.806	-706
438.879	-161
438.951	-79
439.024	13
439.096	-194
439.169	-557
439.241	-596
439.314	-426
439.386	-1864
439.459	-20
439.531	-469
439.604	-461
439.676	-489
439.749	-1115
439.821	-865
439.893	-664
439.966	-657
440.038	-323
440.110	-593
440.183	-770
440.255	-1256
440.327	102
440.400	3737
440.472	17742
440.544	12476
440.617	-79
440.689	95
440.761	-852
440.833	-317
440.905	-462
440.978	-805
441.050	-888
441.122	-303
441.194	-559
441.266	-1111
441.338	-340
441.411	702
441.483	4049
441.555	5720
441.627	894
441.699	69
441.771	-1001
441.843	-727
441.915	-471
441.987	-265
442.059	394
442.131	-476
442.203	-452
442.275	-537
442.347	796
442.419	1378
442.491	10103
442.563	27007
442.635	10337
442.706	1237
442.778	756
442.850	381
442.922	-777
442.994	-691
443.066	256
443.137	-38
443.209	-148
443.281	262
443.353	2353
443.425	14617
443.496	57932
443.568	55090
443.640	16833
443.711	1973
443.783	109
443.855	-133
443.926	-380
443.998	-330
444.070	-408
444.141	-135
444.213	61
444.285	918
444.356	-657
444.428	-268
444.499	-1032
444.571	-1207
444.642	-973
444.714	-579
444.785	-63
444.857	122
444.928	333
445.000	373
445.071	-102
445.143	191
445.214	810
445.285	1715
445.357	7277
445.428	40698
445.500	106175
445.571	57067
445.642	24125
445.714	5859
445.785	2545
445.856	-108
445.928	290
445.999	95
446.070	-154
446.141	286
446.213	-171
446.284	-559
446.355	-558
446.426	-971
446.497	-1002
446.569	-496
446.640	-354
446.711	-122
446.782	-581
446.853	-933
446.924	172
446.995	-354
447.066	542
447.138	-470
447.209	-983
447.280	-1598
447.351	-858
447.422	-1887
447.493	-945
447.564	-436
447.635	-810
447.706	-790
447.777	-1518
447.847	-597
447.918	-1076
447.989	-1140
448.060	-745
448.131	52
448.202	-439
448.273	-418
448.344	-1
448.414	-635
448.485	-282
448.556	193
448.627	-1101
448.698	-626
448.768	-1033
448.839	-1126
448.910	-1492
448.981	-512
449.051	-87
449.122	-880
449.193	-361
449.263	-663
449.334	-438
449.405	735
449.475	558
449.546	534
449.616	574
449.687	1330
449.758	-241
449.828	-189
449.899	79
449.969	-200
450.040	-196
450.110	584
450.181	266
450.251	-294
450.322	96
450.392	-645
450.463	-20
450.533	-1011
450.604	-193
450.674	-278
450.744	727
450.815	-442
450.885	-322
450.955	-380
451.026	-1079
451.096	-762
451.166	-1329
451.237	-426
451.307	25
451.377	-181
451.447	-1363
451.518	31
451.588	-201
451.658	-1077
451.728	-862
451.799	-564
451.869	632
451.939	-437
452.009	-1258
452.079	-987
452.149	-342
452.219	-602
452.289	172
452.360	615
452.430	-728
452.500	-347
452.570	35
452.640	632
452.710	1387
452.780	1999
452.850	2075
452.920	806
452.990	-147
453.060	-982
453.129	-364
453.199	-548
453.269	1413
453.339	2177
453.409	2963
453.479	2655
453.549	5850
453.619	6279
453.688	2063
453.758	-346
453.828	-491
453.898	-155
453.968	-678
454.037	-627
454.087	-391
454.107	-301
454.168	-474
454.177	-508
454.247	-232
454.249	-248
454.316	-846
454.330	-822
454.386	-760
454.411	-789
454.456	-878
454.492	-269
454.525	255
454.574	-114
454.595	-271
454.655	-236
454.665	-234
454.734	-638
454.736	-617
454.804	-238
454.817	-139
454.873	345
454.898	360
454.943	364
454.979	189
455.013	-23
455.060	14
455.082	22
455.141	-535
455.152	-611
455.221	703
455.222	717
455.291	1314
455.303	1925
455.360	4310
455.384	7195
455.430	12144
455.465	8991
455.499	6117
455.546	2747
455.569	1227
455.627	1033
455.638	1000
455.707	-226
455.708	-217
455.777	-736
455.789	-719
455.846	-616
455.869	-631
455.916	-759
455.950	-628
455.985	-481
456.031	-811
456.054	-922
456.112	-279
456.124	-190
456.193	-238
456.193	-243
456.262	-460
456.274	-350
456.332	238
456.355	-41
456.401	-756
456.436	-916
456.470	-1081
456.516	-1040
456.540	-1005
456.597	-897
456.609	-868
456.678	-846
456.678	-853
456.747	-1132
456.759	-1152
456.817	-1075
456.840	-955
456.886	-911
456.920	-886
456.955	-776
457.001	-474
457.024	-396
457.082	-585
457.093	-597
457.162	-452
457.163	-445
457.232	-692
457.243	-621
457.301	-498
457.324	-599
457.370	-534
457.405	-333
457.439	-53
457.485	253
457.508	242
457.566	829
457.577	985
457.646	1163
457.647	1166
457.715	476
457.727	600
457.784	1377
457.808	1787
457.853	2260
457.889	2595
457.922	2868
457.969	1967
457.991	1615
458.050	1604
458.060	1743
458.129	4201
458.130	4262
458.198	5025
458.211	4643
458.267	2883
458.292	2027
458.336	1078
458.372	1055
458.405	1371
458.453	1787
458.474	1885
458.533	3168
458.543	3446
458.611	7815
458.614	7862
458.680	5369
458.694	4319
458.749	2251
458.775	1781
458.818	745
458.855	455
458.887	321
458.936	288
458.955	278
459.016	17
459.024	-23
459.093	803
459.097	759
459.162	-200
459.177	-165
459.230	56
459.257	1
459.299	-100
459.338	44
459.368	157
459.418	485
459.437	604
459.499	171
459.505	155
459.574	597
459.579	620
459.643	-229
459.659	-406
459.711	-72
459.740	73
459.780	53
459.820	206
459.849	261
459.900	427
459.917	554
459.981	411
459.986	388
460.054	222
460.061	232
460.123	362
460.141	568
460.191	1349
460.222	1583
460.260	1507
460.302	1591
460.328	1667
460.382	1278
460.397	1249
460.462	1542
460.465	1623
460.534	3982
460.543	4233
460.602	15111
460.623	19826
460.671	32425
460.703	47658
460.739	49906
460.783	44948
460.808	40527
460.864	10347
460.876	6804
460.944	1483
460.945	1417
461.013	644
461.024	533
461.081	382
461.104	567
461.150	929
461.184	825
461.218	596
461.264	344
461.286	214
461.345	232
461.355	307
461.423	634
461.425	637
461.491	257
461.505	279
461.559	343
461.585	209
461.628	334
461.665	712
461.696	966
461.745	1509
461.764	1495
461.825	663
461.832	653
461.901	959
461.905	989
461.969	692
461.985	552
462.037	549
462.065	600
462.105	608
462.145	671
462.173	701
462.225	451
462.241	418
462.305	773
462.310	779
462.378	983
462.385	943
462.446	907
462.465	907
462.514	892
462.545	1154
462.582	1318
462.625	1257
462.650	1286
462.705	1301
462.718	1182
462.785	587
462.786	588
462.854	255
462.865	332
462.922	1038
462.945	1134
462.990	1340
463.025	1468
463.058	1178
463.104	1014
463.126	1010
463.184	875
463.194	922
463.262	1050
463.264	1062
463.330	2111
463.344	2403
463.398	3091
463.424	3190
463.466	1910
463.504	728
463.533	876
463.583	1039
463.601	826
463.663	320
463.669	317
463.737	279
463.743	291
463.805	1035
463.823	1190
463.873	1668
463.903	2030
463.940	1718
463.982	1372
464.008	1421
464.062	1457
464.076	1362
464.142	590
464.144	605
464.211	1309
464.221	1440
464.279	1628
464.301	1606
464.347	1388
464.381	1249
464.414	1246
464.461	1321
464.482	1381
464.540	1725
464.550	1666
464.617	629
464.620	606
464.685	1910
464.699	2189
464.753	2676
464.779	2927
464.820	3830
464.859	4771
464.888	4113
464.938	2628
464.956	2806
465.018	3462
465.023	3440
465.091	3083
465.098	3064
465.158	3092
465.177	3067
465.226	3134
465.257	3151
465.293	3246
465.336	3469
465.361	3697
465.416	4084
465.428	4035
465.495	3690
465.496	3692
465.563	3227
465.575	3135
465.631	4101
465.654	4592
465.698	4243
465.734	3826
465.765	3885
465.813	3958
465.833	4075
465.893	4512
465.900	4500
465.968	4249
465.972	4224
466.035	3934
466.052	3893
466.102	4063
466.131	4147
466.170	4394
466.210	4588
466.237	5075
466.290	6060
466.304	5943
466.369	5322
466.372	5346
466.439	5937
466.449	6015
466.506	6248
466.528	6305
466.573	7120
466.607	7731
466.641	7424
466.687	7005
466.708	7492
466.766	8748
466.775	8713
466.842	8447
466.845	8423
466.909	8078
466.925	7991
466.977	7288
467.004	6909
467.044	7428
467.083	7939
467.111	8102
467.163	8371
467.178	8571
467.242	9398
467.245	9359
467.312	8384
467.321	8249
467.379	7700
467.400	7484
467.446	7062
467.480	6743
467.559	6714
467.638	5355
467.717	4909
467.796	6117
467.875	5988
467.955	5026
468.034	5118
468.113	5120
468.192	6521
468.271	5514
468.350	5736
468.429	4828
468.508	4974
468.588	5136
468.667	7836
468.746	12694
468.825	12778
468.904	4122
468.983	4166
469.062	2774
469.141	3965
469.220	3339
469.299	3780
469.378	3470
469.456	6862
469.535	5159
469.614	3915
469.693	4141
469.772	5131
469.851	4180
469.930	3923
470.009	4488
470.088	4064
470.166	3185
470.245	4474
470.324	4612
470.403	4854
470.482	3628
470.560	3202
470.639	3078
470.718	4070
470.797	3296
470.875	5401
470.954	8345
471.033	9842
471.111	3303
471.190	4173
471.269	2663
471.347	2507
471.426	2515
471.505	3070
471.583	4535
471.662	4316
471.740	4369
471.819	4586
471.898	4048
471.976	4400
472.055	3110
472.133	2849
472.212	4182
472.290	3412
472.369	2948
472.447	2436
472.526	2188
472.604	3151
472.683	2559
472.761	2516
472.839	2844
472.918	3094
472.996	2849
473.075	2400
473.153	3082
473.231	3579
473.310	2550
473.388	2393
473.466	3095
473.545	4549
473.623	3780
473.701	3967
473.780	4508
473.858	5105
473.936	9468
474.014	4838
474.093	3083
474.171	3486
474.249	3352
474.327	2083
474.405	2129
474.484	3046
474.562	3027
474.640	2713
474.718	3429
474.796	4082
474.874	4314
474.952	3394
475.030	2676
475.108	4669
475.187	5688
475.265	5703
475.343	5483
475.421	4972
475.499	3053
475.577	3599
475.655	3087
475.733	3122
475.811	3134
475.889	2810
475.966	2134
476.044	2152
476.122	2549
476.200	4082
476.278	3818
476.356	2212
476.434	1773
476.512	2625
476.590	3515
476.667	3191
476.745	1158
476.823	2463
476.901	2210
476.979	2053
477.056	1876
477.134	4508
477.212	7624
477.290	3836
477.367	2143
477.445	1467
477.523	1011
477.601	2159
477.678	1196
477.756	2338
477.834	1299
477.911	1268
477.989	1948
478.066	1645
478.144	1559
478.222	2129
478.299	2349
478.377	4254
478.454	2775
478.532	2352
478.609	577
478.687	2449
478.764	1005
478.842	2440
478.919	1581
478.997	1676
479.074	927
479.152	1461
479.229	1361
479.307	812
479.384	685
479.461	2719
479.539	1992
479.616	1122
479.694	1086
479.771	1400
479.848	363
479.926	-351
480.003	1470
480.080	1249
480.157	896
480.235	1323
480.312	1121
480.389	900
480.467	837
480.544	2831
480.621	2848
480.698	1503
480.775	899
480.853	2136
480.930	1633
481.007	1695
481.084	1058
481.161	3336
481.238	2536
481.315	891
481.392	1513
481.470	4522
481.547	5397
481.624	2819
481.701	628
481.778	376
481.855	1105
481.932	1177
482.009	1088
482.086	430
482.163	1006
482.240	1968
482.317	4066
482.393	3870
482.470	1778
482.547	1596
482.624	170
482.701	1476
482.778	1332
482.855	1573
482.932	749
483.009	873
483.085	1559
483.162	1920
483.239	2666
483.316	966
483.393	276
483.469	935
483.546	570
483.623	973
483.699	454
483.776	1485
483.853	1415
483.930	2736
484.006	1476
484.083	3664
484.160	10256
484.236	21226
484.313	16084
484.389	9780
484.466	9878
484.543	8573
484.619	7907
484.696	10627
484.772	7964
484.849	7721
484.925	8301
485.002	9905
485.078	8300
485.155	9237
485.231	7514
485.308	6813
485.384	7597
485.461	8557
485.537	7556
485.614	8890
485.690	6877
485.766	7565
485.843	6502
485.919	7778
485.995	7538
486.072	7072
486.148	6854
486.224	5833
486.301	6927
486.377	7061
486.453	5745
486.530	8134
486.606	11992
486.682	11703
486.758	9647
486.835	9078
486.911	8037
486.987	9533
487.063	10700
487.139	12157
487.215	10895
487.292	9125
487.368	7460
487.444	7763
487.520	7822
487.596	8985
487.672	10119
487.748	16618
487.824	23562
487.900	12709
487.976	7283
488.052	6645
488.128	7840
488.204	5693
488.280	6531
488.356	7766
488.432	6165
488.508	7328
488.584	5324
488.660	5752
488.736	5800
488.812	5436
488.888	7658
488.964	7785
489.039	8839
489.115	13176
489.191	10627
489.267	6211
489.343	5502
489.418	5034
489.494	5133
489.570	3930
489.646	6009
489.722	5505
489.797	4879
489.873	5036
489.949	5632
490.024	6048
490.100	3772
490.176	5067
490.251	3676
490.327	6375
490.403	4006
490.478	4378
490.554	3510
490.629	3965
490.705	4043
490.781	4894
490.856	3936
490.932	4680
491.007	3894
491.083	3891
491.158	3022
491.234	4328
491.309	3941
491.385	3782
491.460	3001
491.536	3393
491.611	3549
491.686	3859
491.762	4200
491.837	5565
491.913	7108
491.988	9533
492.063	12001
492.139	5146
492.214	2873
492.289	2913
492.365	2417
492.440	3878
492.515	2501
492.590	2665
492.666	2996
492.741	3551
492.816	3046
492.891	1686
492.967	2596
493.042	2836
493.117	2233
493.192	2884
493.267	5071
493.342	13566
493.418	19119
493.493	4922
493.568	3071
493.643	2527
493.718	2242
493.793	2560
493.868	3200
493.943	2140
494.018	2611
494.093	1561
494.168	1186
494.243	2096
494.318	2780
494.393	3374
494.468	1321
494.543	2980
494.618	1943
494.693	1844
494.768	1007
494.842	2816
494.917	1755
494.992	2543
495.067	1897
495.142	2515
495.217	1533
495.292	1202
495.366	2082
495.441	2017
495.516	3377
495.591	2770
495.665	8155
495.740	19807
495.815	10136
495.890	2777
495.964	845
496.039	4164
496.114	2567
496.188	4280
496.263	4313
496.338	1931
496.412	1945
496.487	4099
496.561	3019
496.636	3344
496.710	3591
496.785	4522
496.860	3990
496.934	4309
497.009	4363
497.083	5964
497.158	4935
497.232	6200
497.307	7728
497.381	7456
497.455	9226
497.530	8994
497.604	9902
497.679	11332
497.753	13394
497.827	19415
497.902	21313
497.976	21016
498.050	21667
498.125	28954
498.199	32894
498.273	32091
498.348	31094
498.422	25243
498.496	19402
498.570	16920
498.645	13901
498.719	11498
498.793	10518
498.867	10257
498.941	9084
499.016	10557
499.090	17240
499.164	10196
499.238	5620
499.312	5154
499.386	5566
499.460	5859
499.534	4331
499.609	4428
499.683	3526
499.757	3625
499.831	3332
499.905	8922
499.979	9678
500.053	3369
500.127	3757
500.201	2544
500.275	3116
500.349	1746
500.422	2528
500.496	2808
500.570	4728
500.644	6741
500.718	8049
500.792	4030
500.866	1661
500.940	2488
501.013	1754
501.087	1657
501.161	2039
501.235	1168
501.309	2815
501.382	4952
501.456	7642
501.530	2734
501.603	2265
501.677	1859
501.751	-109
501.825	2468
501.898	1887
501.972	2427
502.046	2146
502.119	844
502.193	2448
502.266	2767
502.340	1417
502.413	1164
502.487	2500
502.561	281
502.634	486
502.708	1858
502.781	241
502.855	1554
502.928	-442
503.002	853
503.075	302
503.149	823
503.222	43
503.295	49
503.369	1049
503.442	511
503.516	1308
503.589	4048
503.662	2258
503.736	1411
503.809	2527
503.882	1827
503.956	2843
504.029	3166
504.102	5645
504.175	10384
504.249	3198
504.322	2842
504.395	1330
504.468	762
504.542	244
504.615	1058
504.688	2364
504.761	-839
504.834	1986
504.907	649
504.980	956
505.053	596
505.127	-1201
505.200	3349
505.273	139
505.346	-751
505.419	-781
505.492	705
505.565	-246
505.638	179
505.711	238
505.784	-715
505.857	270
505.930	1271
506.003	-1162
506.076	1714
506.149	-194
506.221	-1422
506.294	738
506.367	3
506.440	3264
506.513	4363
506.586	881
506.659	-240
506.731	734
506.804	91
506.877	-575
506.950	1188
507.022	1366
507.095	-1092
507.168	297
507.241	1082
507.313	-771
507.386	-147
507.459	1415
507.531	161
507.604	95
507.677	448
507.749	-683
507.822	3480
507.894	3266
507.967	7243
508.040	3940
508.112	4019
508.185	2890
508.257	1536
508.330	3405
508.402	2096
508.475	1417
508.547	2508
508.620	1155
508.692	2125
508.765	2247
508.837	1212
508.909	1501
508.982	1150
509.054	1705
509.127	1204
509.199	1126
509.271	445
509.344	850
509.416	1447
509.488	1600
509.560	1614
509.633	686
509.705	1527
509.777	1531
509.849	2268
509.922	642
509.994	1070
510.066	2401
510.138	1461
510.210	8141
510.283	6074
510.355	4781
510.427	4137
510.499	3730
510.571	3821
510.643	2277
510.715	4593
510.787	2286
510.859	4290
510.931	2216
511.003	2919
511.076	3933
511.148	2578
511.219	2545
511.291	2593
511.363	2673
511.435	3358
511.507	1191
511.579	3503
511.651	3377
511.723	2167
511.795	2283
511.867	2185
511.939	2770
512.010	1574
512.082	2662
512.154	928
512.226	2346
512.298	5655
512.369	6489
512.441	5505
512.513	4295
512.585	2869
512.656	3275
512.728	2568
512.800	3358
512.871	3258
512.943	2969
513.015	2671
513.086	3206
513.158	3182
513.230	1949
513.301	3342
513.373	4176
513.444	3240
513.516	2617
513.588	1891
513.659	2753
513.731	2142
513.802	1610
513.874	4939
513.945	5305
514.016	2549
514.088	3200
514.159	1838
514.231	3548
514.302	4995
514.374	5755
514.445	2881
514.516	5905
514.588	3613
514.659	3132
514.730	3523
514.802	5120
514.873	6586
514.944	10540
515.016	6451
515.087	5111
515.158	4297
515.229	6833
515.301	8913
515.372	15847
515.443	9704
515.514	7195
515.585	3669
515.656	4407
515.728	4055
515.799	2995
515.870	4001
515.941	2553
516.012	1841
516.083	4576
516.154	3764
516.225	4901
516.296	5054
516.367	3813
516.438	3678
516.509	3367
516.580	4765
516.651	12089
516.722	34493
516.793	19898
516.864	5170
516.935	4236
517.006	5923
517.077	5650
517.148	11128
517.219	42217
517.289	73808
517.360	14312
517.431	5378
517.502	1944
517.573	2674
517.643	2951
517.714	3677
517.785	3724
517.856	2646
517.926	4295
517.997	4697
518.068	4863
518.138	7960
518.209	8059
518.280	28906
518.350	119501
518.421	55617
518.492	7099
518.562	3989
518.633	2764
518.703	2366
518.774	7346
518.845	12402
518.915	13338
518.986	4327
519.056	3412
519.127	5268
519.197	5187
519.268	5817
519.338	4364
519.408	2107
519.479	2154
519.549	1859
519.620	2121
519.690	1737
519.760	950
519.831	1547
519.901	1131
519.971	1626
520.042	1325
520.112	926
520.182	2183
520.253	2409
520.323	1215
520.393	470
520.463	2646
520.534	-659
520.604	3066
520.674	2478
520.744	132
520.814	855
520.885	2240
520.955	1982
521.025	3339
521.095	1971
521.165	1858
521.235	1343
521.305	473
521.375	1156
521.445	1414
521.515	640
521.585	1588
521.655	175
521.725	1769
521.795	2338
521.865	-819
521.935	2657
522.005	227
522.075	1084
522.145	1776
522.215	-62
522.285	1449
522.355	255
522.424	2052
522.494	1334
522.564	1488
522.634	2853
522.704	8654
522.774	3268
522.843	1520
522.913	1056
522.983	1263
523.053	543
523.122	764
523.192	5
523.262	3041
523.331	4802
523.401	1236
523.471	706
523.540	1399
523.610	-319
523.680	409
523.749	699
523.819	967
523.888	163
523.958	16
524.027	1155
524.097	-219
524.166	697
524.236	-918
524.305	2306
524.375	131
524.444	-462
524.514	2035
524.583	-475
524.653	-178
524.722	1064
524.791	-712
524.861	1520
524.930	-1293
524.999	-983
525.069	1489
525.138	-69
525.207	-1341
525.277	602
525.346	566
525.415	680
525.484	895
525.554	-290
525.623	216
525.692	2417
525.761	659
525.830	1803
525.900	710
525.969	2560
526.038	4211
526.107	6008
526.176	25814
526.245	21567
526.314	7399
526.383	12786
526.452	17225
526.522	31559
526.591	36681
526.660	7214
526.729	3196
526.797	4931
526.867	5659
526.935	30737
527.004	72763
527.073	51938
527.142	3474
527.211	1586
527.280	1241
527.349	2141
527.418	-1249
527.487	1219
527.555	-934
527.624	-106
527.693	-826
527.762	994
527.831	-1597
527.899	130
527.968	74
528.037	-360
528.106	1083
528.174	1271
528.243	81
528.312	336
528.380	213
528.449	-325
528.518	780
528.586	-1407
528.655	621
528.723	677
528.792	-739
528.861	-2405
528.929	-2497
528.998	772
529.066	-347
529.135	439
529.203	-1273
529.272	-2374
529.340	51
529.409	1002
529.477	-1474
529.545	-833
529.614	1097
529.682	-1113
529.751	-887
529.819	1777
529.887	-972
529.956	-1012
530.024	634
530.092	-1256
530.161	1218
530.229	571
530.297	-1426
530.365	462
530.434	-364
530.502	-1735
530.570	498
530.638	-1482
530.707	-321
530.775	761
530.843	-1442
530.911	-1741
530.979	202
531.047	-826
531.115	23
531.183	473
531.252	-264
531.320	-758
531.388	-1389
531.456	241
531.524	-2971
531.592	90
531.660	1034
531.728	-1527
531.796	-1148
531.864	-836
531.932	169
532.000	-913
532.067	-688
532.135	-144
532.203	14
532.271	-1003
532.339	764
532.407	2618
532.475	1173
532.542	504
532.610	-142
532.678	-1119
532.746	5192
532.814	15283
532.881	3274
532.949	415
533.017	-21
533.084	17
533.152	-697
533.220	-134
533.287	-1292
533.355	-54
533.423	-360
533.490	-227
533.558	-444
533.625	25
533.693	-163
533.761	249
533.828	378
533.896	-478
533.963	1628
534.031	844
534.098	1744
534.166	50
534.233	-1290
534.300	709
534.368	435
534.435	-1115
534.503	224
534.570	831
534.637	-924
534.705	133
534.772	873
534.840	1713
534.907	11046
534.974	17327
535.041	1682
535.109	607
535.176	-382
535.243	-79
535.310	239
535.378	-1657
535.445	145
535.512	-390
535.579	-166
535.646	-1214
535.714	146
535.781	1981
535.848	1095
535.915	735
535.982	-535
536.049	-338
536.116	1055
536.183	219
536.250	346
536.317	-153
536.384	719
536.451	650
536.518	663
536.585	-1089
536.652	1515
536.719	1359
536.786	-568
536.853	-857
536.920	842
536.987	1355
537.053	375
537.120	6143
537.187	7082
537.254	-265
537.321	-923
537.388	1119
537.454	-962
537.521	-1021
537.588	-272
537.654	564
537.721	1224
537.788	1490
537.855	162
537.921	860
537.988	438
538.055	770
538.121	-489
538.188	320
538.254	235
538.321	2402
538.388	1461
538.454	1379
538.521	1856
538.587	659
538.654	331
538.720	64
538.787	-636
538.853	729
538.920	47
538.986	28
539.053	-195
539.119	620
539.185	653
539.252	954
539.318	332
539.385	1298
539.451	-424
539.517	1560
539.583	1263
539.650	2234
539.716	4093
539.782	961
539.849	-647
539.915	1626
539.981	-276
540.047	-40
540.114	452
540.180	1908
540.246	-465
540.312	1206
540.378	1803
540.444	3146
540.510	1970
540.576	5633
540.643	1041
540.709	-759
540.775	880
540.841	435
540.907	1064
540.973	1696
541.039	1613
541.105	2020
541.171	685
541.237	-264
541.303	1545
541.369	2541
541.435	955
541.500	1859
541.566	188
541.632	86
541.698	57
541.764	1056
541.830	97
541.896	-411
541.961	530
542.027	278
542.093	315
542.159	977
542.224	-607
542.290	2478
542.356	1469
542.421	3324
542.487	1348
542.553	870
542.618	657
542.684	545
542.750	211
542.815	1648
542.881	161
542.947	4182
543.012	4199
543.078	653
543.143	-244
543.209	958
543.274	-553
543.340	1298
543.405	1268
543.471	2269
543.536	530
543.602	609
543.667	-465
543.732	1805
543.798	-296
543.863	1151
543.928	-354
543.994	-171
544.059	461
544.124	975
544.190	717
544.255	1129
544.320	1468
544.386	355
544.451	1423
544.516	1456
544.581	-390
544.646	2969
544.712	6272
544.777	1936
544.842	722
544.907	506
544.972	104
545.037	-251
545.102	1304
545.168	473
545.233	947
545.298	2046
545.363	965
545.428	1549
545.493	2920
545.558	3097
545.623	1524
545.688	-616
545.753	1201
545.818	1198
545.883	1692
545.947	686
546.012	719
546.077	14
546.142	2054
546.207	1228
546.272	1435
546.337	1324
546.401	1546
546.466	1641
546.531	186
546.596	1581
546.661	342
546.725	1918
546.790	-116
546.855	992
546.919	-660
546.984	1548
547.049	355
547.113	1458
547.178	424
547.243	1788
547.307	2346
547.372	2401
547.436	1803
547.501	2158
547.565	2220
547.630	3149
547.695	2323
547.759	1836
547.823	2476
547.888	2232
547.952	2026
548.017	2895
548.081	4203
548.146	4138
548.210	2593
548.274	2640
548.339	2610
548.403	2808
548.468	1463
548.532	1520
548.596	1334
548.660	2961
548.725	2872
548.789	1843
548.853	3953
548.917	2658
548.982	1319
549.046	2704
549.110	965
549.174	1916
549.238	2273
549.303	1833
549.367	3346
549.431	2031
549.495	2065
549.559	2280
549.623	2962
549.687	2873
549.751	3552
549.815	3259
549.879	4037
549.943	3124
550.007	3726
550.071	3346
550.135	3940
550.199	3263
550.263	3556
550.327	3084
550.391	3322
550.455	4243
550.519	3123
550.582	4269
550.646	3725
550.710	4844
550.774	4190
550.838	4336
550.901	4878
550.965	5172
551.029	3779
551.093	5938
551.156	5904
551.220	7263
551.284	9794
551.347	6622
551.411	6111
551.475	5349
551.538	4864
551.602	3855
551.666	3514
551.729	2426
551.793	3545
551.856	3675
551.920	2307
551.983	3011
552.047	2484
552.110	3811
552.174	3195
552.237	3827
552.301	3532
552.364	3104
552.428	2915
552.491	3170
552.554	3326
552.618	2818
552.681	4336
552.745	2176
552.808	3788
552.871	5769
552.934	4116
552.998	3118
553.061	2421
553.124	3302
553.187	3142
553.251	4117
553.314	3733
553.377	2950
553.440	3851
553.503	8538
553.567	13536
553.630	4545
553.693	3129
553.756	3427
553.819	2854
553.882	2784
553.945	2424
554.008	3393
554.071	1934
554.134	2372
554.197	1510
554.260	2167
554.323	4194
554.386	3744
554.449	3068
554.512	3374
554.575	2058
554.638	2866
554.701	2017
554.764	2730
554.827	2292
554.889	3185
554.952	2054
555.015	1280
555.078	1759
555.141	2221
555.203	1763
555.266	2571
555.329	2721
555.391	1977
555.454	1614
555.517	2474
555.580	1865
555.642	1465
555.705	802
555.768	2888
555.830	2917
555.893	1334
555.955	1384
556.018	1674
556.080	1579
556.143	1794
556.206	536
556.268	2586
556.330	1602
556.393	1866
556.455	1512
556.518	1289
556.580	1653
556.643	1258
556.705	1716
556.767	504
556.830	897
556.892	2605
556.955	1132
557.017	1941
557.079	950
557.142	1081
557.204	920
557.266	3652
557.328	2448
557.391	-149
557.453	1021
557.515	1574
557.577	194
557.639	1221
557.701	1254
557.764	1112
557.826	572
557.888	1997
557.950	1887
558.012	2438
558.074	3077
558.136	7511
558.198	22699
558.260	9529
558.322	1538
558.384	2532
558.446	4193
558.508	5443
558.570	6387
558.632	8542
558.694	12677
558.756	17637
558.818	51827
558.880	150440
558.942	51175
559.003	27442
559.065	14106
559.127	5380
559.189	5113
559.251	5149
559.312	8725
559.374	20504
559.436	82144
559.498	47516
559.559	6543
559.621	5340
559.683	5359
559.744	9629
559.806	30258
559.868	56895
559.929	10265
559.991	4971
560.052	6992
560.114	21314
560.176	14677
560.237	11785
560.299	22100
560.360	4275
560.422	1036
560.483	889
560.545	1267
560.606	615
560.667	881
560.729	333
560.790	1415
560.852	1055
560.913	391
560.974	972
561.036	397
561.097	1378
561.158	1180
561.220	1566
561.281	680
561.342	699
561.403	825
561.465	875
561.526	3012
561.587	4999
561.648	812
561.709	528
561.771	-39
561.832	563
561.893	360
561.954	855
562.015	-256
562.076	90
562.137	316
562.198	-708
562.259	748
562.320	423
562.381	296
562.442	1461
562.503	1058
562.564	755
562.625	666
562.686	375
562.747	559
562.808	661
562.869	1015
562.930	790
562.991	463
563.051	1188
563.112	166
563.173	107
563.234	-510
563.294	1048
563.355	-327
563.416	1328
563.477	9
563.537	850
563.598	620
563.659	869
563.720	124
563.780	617
563.841	347
563.901	853
563.962	49
564.023	797
564.083	-206
564.144	1275
564.204	392
564.265	1029
564.325	1320
564.386	1727
564.446	1364
564.507	1258
564.567	1080
564.628	1316
564.688	430
564.749	600
564.809	843
564.869	1465
564.930	-70
564.990	2102
565.050	968
565.111	1391
565.171	1112
565.231	1323
565.292	2250
565.352	970
565.412	2081
565.472	2362
565.532	1861
565.593	2259
565.653	2383
565.713	2525
565.773	3027
565.833	3192
565.893	4319
565.953	2866
566.013	3356
566.074	3954
566.134	4105
566.194	4447
566.254	4420
566.314	5665
566.374	5009
566.434	6305
566.494	7162
566.554	6567
566.614	6739
566.673	7332
566.733	8366
566.793	9030
566.853	8641
566.913	10678
566.973	10205
567.033	10810
567.092	9478
567.152	10549
567.212	9882
567.272	11005
567.331	11778
567.391	12805
567.451	14171
567.511	14453
567.570	13742
567.630	12606
567.690	12192
567.749	13569
567.809	15113
567.868	17972
567.928	20974
567.988	24822
568.047	30531
568.107	40111
568.166	55535
568.226	89922
568.285	128713
568.345	113375
568.404	90882
568.464	79884
568.523	72996
568.582	74019
568.642	81407
568.701	100089
568.761	143788
568.820	225153
568.879	224633
568.939	166565
568.998	126671
569.057	96703
569.116	76577
569.176	62086
569.235	51051
569.294	42393
569.353	36511
569.413	31435
569.472	26675
569.531	23291
569.590	20604
569.649	18404
569.708	16186
569.767	14825
569.827	13633
569.886	11045
569.945	10427
570.004	10545
570.063	9507
570.122	9124
570.181	7620
570.240	6293
570.299	6594
570.358	6690
570.417	5620
570.475	6511
570.534	4930
570.593	5788
570.652	4269
570.711	4738
570.770	3908
570.829	5906
570.887	4847
570.946	4671
571.005	2797
571.064	3799
571.122	2251
571.181	2937
571.240	2946
571.299	2912
571.357	1848
571.416	2529
571.475	1969
571.533	3182
571.592	1980
571.650	1870
571.709	1575
571.768	2561
571.826	2154
571.885	2656
571.943	1634
572.002	1878
572.060	2040
572.119	2099
572.177	1687
572.236	1071
572.294	1361
572.352	2590
572.411	1242
572.469	1078
572.528	1427
572.586	1537
572.644	1285
572.703	1443
572.761	611
572.819	1540
572.877	1355
572.936	1147
572.994	1151
573.052	1245
573.110	1430
573.169	1057
573.227	175
573.285	2094
573.343	1396
573.401	1475
573.459	1009
573.517	1031
573.576	708
573.634	2173
573.692	1415
573.750	913
573.808	585
573.866	2135
573.924	779
573.982	1196
574.040	1912
574.098	1753
574.155	792
574.213	1626
574.271	413
574.329	888
574.387	123
574.445	-22
574.503	1322
574.560	1992
574.618	875
574.676	912
574.734	593
574.792	2083
574.849	1293
574.907	1128
574.965	506
575.022	585
575.080	460
575.138	1478
575.195	1280
575.253	127
575.311	877
575.368	2318
575.426	830
575.483	1764
575.541	836
575.598	500
575.656	1339
575.713	1111
575.771	1486
575.828	1081
575.886	1751
575.943	1798
576.001	767
576.058	512
576.115	439
576.173	781
576.230	887
576.287	1978
576.345	1074
576.402	1876
576.459	1379
576.517	1185
576.574	1007
576.631	1118
576.688	991
576.746	1105
576.803	534
576.860	1022
576.917	1555
576.974	2053
577.031	630
577.089	1738
577.146	930
577.203	1264
577.260	1248
577.317	949
577.374	1749
577.431	1146
577.488	1453
577.545	1647
577.602	1099
577.659	1263
577.716	503
577.773	1615
577.830	333
577.886	2437
577.943	768
578.000	1992
578.057	1812
578.114	2883
578.171	1864
578.227	3291
578.284	1476
578.341	1433
578.398	1509
578.454	2602
578.511	1580
578.568	2081
578.625	1323
578.681	1590
578.738	1150
578.794	1070
578.851	687
578.908	1830
578.964	1084
579.021	644
579.077	946
579.134	1406
579.190	467
579.247	2299
579.303	1577
579.360	2171
579.416	942
579.473	1181
579.529	977
579.586	2129
579.642	2404
579.698	2022
579.755	2721
579.811	2928
579.867	2663
579.924	1824
579.980	1363
580.036	2867
580.093	2163
580.149	3150
580.205	3442
580.261	3169
580.317	2926
580.374	2598
580.430	1949
580.486	2589
580.542	1635
580.598	1846
580.619	1673
580.654	1370
580.692	1938
580.710	2219
580.765	2088
580.767	2080
580.823	2683
580.838	2690
580.879	2696
580.911	2472
580.935	2302
580.984	2579
580.991	2618
581.047	3694
581.057	3558
581.103	2940
581.130	2510
581.159	2060
581.203	2950
581.215	3187
581.270	3199
581.276	3083
581.326	1903
581.349	2210
581.382	2663
581.422	2493
581.438	2406
581.494	2005
581.494	2016
581.550	3009
581.567	2919
581.606	2662
581.640	2541
581.661	2499
581.713	3613
581.717	3693
581.773	2977
581.786	2802
581.829	2149
581.859	2005
581.885	1969
581.932	2708
581.940	2822
581.996	3234
582.004	3161
582.052	2719
582.077	2763
582.107	2839
582.150	3220
582.163	3312
582.219	2743
582.223	2806
582.274	3641
582.296	3462
582.330	3227
582.368	3674
582.386	3857
582.441	3310
582.441	3306
582.497	3024
582.514	3034
582.552	3262
582.587	3671
582.608	3867
582.659	3639
582.663	3608
582.719	3934
582.732	3811
582.774	3521
582.805	3893
582.830	4267
582.877	4305
582.885	4278
582.941	4240
582.950	4323
582.996	4826
583.023	4953
583.052	5143
583.095	5459
583.107	5543
583.162	5518
583.168	5576
583.218	5837
583.240	5737
583.273	5708
583.313	5107
583.328	4883
583.384	6278
583.385	6262
583.439	5630
583.458	5718
583.494	5907
583.531	5773
583.549	5750
583.603	5509
583.605	5505
583.660	5886
583.676	5982
583.715	6013
583.748	6018
583.770	6206
583.820	6979
583.825	7011
583.881	6348
583.893	6385
583.936	6874
583.965	6822
583.991	6620
584.038	6891
584.046	6978
584.101	6778
584.110	6839
584.156	7053
584.183	6870
584.211	6772
584.255	7433
584.266	7577
584.321	7877
584.328	7965
584.376	8774
584.400	8519
584.431	8080
584.472	8203
584.486	8341
584.541	8628
584.545	8649
584.596	8789
584.617	8929
584.651	9640
584.689	10418
584.706	10469
584.761	9544
584.762	9537
584.816	10457
584.834	10896
584.871	11450
584.906	11069
584.926	10937
584.978	11014
584.980	11041
585.035	12279
585.051	12404
585.090	12624
585.123	13015
585.145	13395
585.195	13447
585.200	13510
585.254	15596
585.267	16051
585.309	17365
585.340	17907
585.364	18257
585.412	18787
585.419	18906
585.473	20321
585.484	20443
585.528	22183
585.556	24626
585.583	30409
585.628	40727
585.637	45751
585.692	82892
585.700	89286
585.747	111283
585.772	108635
585.801	78979
585.845	37142
585.856	33228
585.910	24051
585.917	23021
585.965	22469
585.989	22156
586.019	22073
586.061	22148
586.074	22307
586.128	23068
586.133	23081
586.183	23113
586.205	23039
586.237	23345
586.277	23830
586.292	24122
586.346	25360
586.349	25331
586.401	25787
586.421	26585
586.455	27410
586.493	27419
586.509	27991
586.564	29720
586.565	29731
586.618	32138
586.637	32701
586.672	33019
586.709	32556
586.727	32856
586.781	35588
586.781	35658
586.835	37004
586.853	37374
586.889	37912
586.925	38161
586.944	38720
586.996	40977
586.998	41122
587.052	43166
587.068	43746
587.106	45532
587.140	46958
587.161	48025
587.212	50817
587.215	51056
587.269	53429
587.284	54269
587.323	57295
587.356	59319
587.377	60659
587.427	63621
587.431	64090
587.485	69203
587.499	70515
587.539	74079
587.571	76501
587.593	79016
587.643	85066
587.648	85912
587.702	93161
587.715	94927
587.755	102176
587.786	107181
587.810	111577
587.858	121170
587.864	122767
587.917	136355
587.930	139462
587.971	152087
588.001	160682
588.025	169028
588.073	185747
588.079	188912
588.133	215490
588.145	221274
588.187	246913
588.217	264961
588.241	282949
588.288	319397
588.295	326233
588.348	379571
588.360	390827
588.402	444623
588.431	483242
588.456	526385
588.503	610080
588.510	626968
588.564	760711
588.575	788522
588.617	943728
588.646	1053677
588.671	1202416
588.718	1494087
588.725	1560995
588.778	2083234
588.789	2190981
588.832	2658546
588.861	2968004
588.886	2954204
588.932	2819574
588.939	2787315
588.993	2388083
589.004	2343406
589.047	2864605
589.075	3129700
589.100	2923611
589.147	2447787
589.154	2379896
589.207	1846094
589.218	1739294
589.261	1588941
589.290	1496234
589.314	1537830
589.361	1629976
589.368	1681992
589.421	2114171
589.433	2206918
589.475	2616914
589.504	2893334
589.528	2834926
589.576	2582121
589.582	2601384
589.635	2778701
589.647	2791636
589.689	2344566
589.718	1997640
589.742	1706248
589.790	1146563
589.795	1115799
589.849	822588
589.861	755238
589.902	633947
589.932	544439
589.955	503827
590.004	418299
590.009	413568
590.062	352760
590.075	337231
590.115	304623
590.146	278781
590.168	266654
590.218	237339
590.222	235964
590.275	210734
590.289	203690
590.328	191847
590.360	181279
590.381	175315
590.431	160111
590.435	159807
590.488	146897
590.503	143029
590.541	136355
590.574	129819
590.594	127149
590.645	119209
590.647	119232
590.700	110465
590.716	107546
590.753	103712
590.787	99730
590.806	98021
590.859	92123
590.859	92332
590.912	88135
590.930	86530
590.965	84512
591.001	81944
591.018	80723
591.071	76439
591.072	76153
591.124	73552
591.143	72348
591.177	70692
591.214	68391
591.230	68096
591.283	66422
591.285	66138
591.336	63788
591.356	62562
591.389	61965
591.427	60803
591.442	60041
591.495	56432
591.498	55982
591.547	55170
591.569	54579
591.600	53972
591.640	52609
591.653	52500
591.706	51430
591.711	51136
591.759	50054
591.782	49245
591.811	48634
591.853	47287
591.864	47212
591.917	46047
591.924	45718
591.969	44450
591.995	43468
592.022	43155
592.066	42253
592.075	42462
592.127	42882
592.137	42805
592.180	42227
592.208	41572
592.233	40960
592.279	39433
592.285	39484
592.338	38743
592.350	38435
592.390	37795
592.421	37076
592.443	37582
592.491	38274
592.495	38299
592.548	36745
592.562	36187
592.600	35108
592.633	33951
592.653	34067
592.704	33885
592.705	34067
592.775	33365
592.846	33246
592.916	32346
592.987	32911
593.058	30969
593.128	30192
593.199	30540
593.270	28330
593.341	29203
593.411	28939
593.482	28548
593.553	27919
593.623	26301
593.694	26322
593.764	25610
593.835	26144
593.906	25539
593.976	25096
594.047	24700
594.117	25181
594.188	24456
594.258	22896
594.329	23092
594.399	23368
594.470	23278
594.540	22734
594.611	23058
594.681	22692
594.751	23618
594.822	26881
594.892	28264
594.963	25939
595.033	24025
595.103	23126
595.174	22795
595.244	23304
595.314	23166
595.384	21051
595.455	20548
595.525	22156
595.595	21181
595.665	20846
595.736	20751
595.806	20448
595.876	19918
595.946	19844
596.016	19909
596.087	20438
596.157	19213
596.227	19524
596.297	19819
596.367	20251
596.437	21027
596.507	21431
596.577	22569
596.647	20224
596.717	20761
596.787	20471
596.857	20887
596.927	20880
596.997	21193
597.067	21984
597.137	21919
597.207	21564
597.277	21272
597.347	20151
597.417	19647
597.487	19821
597.557	21090
597.626	20448
597.696	20480
597.766	20801
597.836	21186
597.906	20264
597.975	18982
598.045	18358
598.115	19231
598.185	19159
598.254	21511
598.324	22184
598.394	22574
598.464	23791
598.533	21217
598.603	20527
598.672	20268
598.742	20299
598.812	19427
598.881	21388
598.951	20194
599.020	19685
599.090	20310
599.159	21243
599.229	20594
599.299	19311
599.368	19257
599.437	20036
599.507	18676
599.576	18868
599.646	19212
599.715	20089
599.785	17480
599.854	18023
599.924	17588
599.993	16756
600.062	17372
600.132	17855
600.201	17152
600.270	20246
600.340	19961
600.409	20336
600.478	19590
600.547	19910
600.617	19237
600.686	16435
600.755	15704
600.824	16705
600.894	15245
600.963	15432
601.032	14512
601.101	15125
601.170	14513
601.239	13597
601.308	15103
601.378	15385
601.447	14326
601.516	13224
601.585	15360
601.654	16787
601.723	14991
601.792	13788
601.861	14863
601.930	17128
601.999	15553
602.068	15285
602.137	17612
602.206	18089
602.275	15899
602.343	16314
602.412	16477
602.481	14684
602.550	14384
602.619	14486
602.688	15800
602.756	15283
602.825	15525
602.894	15318
602.963	15014
603.032	15997
603.100	14982
603.169	15767
603.238	16290
603.307	16868
603.375	16111
603.444	16471
603.513	16686
603.581	16218
603.650	16383
603.719	15976
603.787	15683
603.856	16400
603.924	16769
603.993	17613
604.061	17791
604.130	18155
604.198	18287
604.267	18569
604.335	18734
604.404	18446
604.472	18690
604.541	20436
604.609	19395
604.678	18761
604.746	19222
604.815	19400
604.883	20753
604.951	20435
605.020	19829
605.088	20447
605.156	20893
605.225	21430
605.293	21376
605.361	21355
605.429	21200
605.498	22504
605.566	21568
605.634	22770
605.702	23011
605.771	23842
605.839	23896
605.907	22509
605.975	21594
606.043	22238
606.111	22558
606.180	23155
606.248	23397
606.316	23893
606.384	21211
606.452	23669
606.520	24660
606.588	24056
606.656	22841
606.724	22575
606.792	21390
606.860	19832
606.928	18439
606.996	18134
607.064	17520
607.132	18188
607.200	18620
607.267	18964
607.335	19165
607.403	20476
607.471	19303
607.539	19632
607.607	19528
607.674	17647
607.742	17888
607.810	18005
607.878	17359
607.946	16860
608.013	18416
608.081	18229
608.149	17701
608.216	18385
608.284	19507
608.352	18629
608.419	17959
608.487	20384
608.555	17921
608.622	18729
608.690	19791
608.757	20152
608.825	21198
608.893	20522
608.960	20324
609.028	19911
609.095	21693
609.163	19234
609.230	18377
609.298	17157
609.365	18209
609.432	18282
609.500	19182
609.567	22170
609.635	25374
609.702	26331
609.769	25501
609.837	21616
609.904	18593
609.971	20509
610.039	26409
610.106	40572
610.173	90518
610.241	239579
610.308	161466
610.375	53053
610.442	25193
610.509	20499
610.577	21048
610.644	19990
610.711	19969
610.778	20302
610.845	20002
610.912	22209
610.980	23886
611.047	24611
611.114	23279
611.181	21421
611.248	20732
611.315	22168
611.382	21341
611.449	23348
611.516	24186
611.583	23721
611.650	23014
611.717	23954
611.784	25495
611.851	27949
611.918	32023
611.984	44475
612.051	79970
612.118	203443
612.185	571247
612.252	382778
612.319	63331
612.386	38112
612.452	32639
612.519	30201
612.586	28877
612.653	30187
612.719	36910
612.786	29481
612.853	24819
612.919	23460
612.986	24903
613.053	22496
613.120	21213
613.186	19516
613.253	23281
613.319	21867
613.386	23888
613.453	27428
613.519	22902
613.586	23550
613.652	27079
613.719	25246
613.785	23913
613.852	21689
613.918	21730
613.985	25038
614.051	30956
614.118	43582
614.184	43718
614.250	27482
614.317	30105
614.383	23170
614.449	22639
614.516	23223
614.582	22944
614.648	21703
614.715	21878
614.781	22178
614.847	21515
614.914	21821
614.980	22208
615.046	23420
615.112	25234
615.179	29090
615.245	36626
615.311	58960
615.377	116519
615.443	149269
615.509	74754
615.575	45242
615.642	35007
615.708	37152
615.774	40026
615.840	49278
615.906	71502
615.972	137834
616.038	308425
616.104	507356
616.170	850498
616.236	744984
616.302	136943
616.368	73091
616.434	48335
616.500	39565
616.565	43036
616.631	55610
616.697	43199
616.763	43428
616.829	71732
616.895	139717
616.961	144263
617.026	57217
617.092	29081
617.158	26116
617.224	23343
617.289	22231
617.355	19647
617.421	17888
617.487	19136
617.552	18172
617.618	16635
617.684	15881
617.749	18898
617.815	17161
617.880	15850
617.946	15712
618.012	16580
618.077	16061
618.143	15629
618.208	16180
618.274	16693
618.339	18234
618.405	14338
618.470	14649
618.536	14205
618.601	14669
618.667	12881
618.732	13024
618.798	13054
618.863	12959
618.928	12746
618.994	12839
619.059	13942
619.124	16413
619.190	14033
619.255	13120
619.320	12590
619.386	12902
619.451	11472
619.516	11747
619.581	12488
619.647	12526
619.712	12469
619.777	13025
619.842	11035
619.907	11832
619.972	12072
620.038	12567
620.103	11227
620.168	11093
620.233	12136
620.298	11542
620.363	12209
620.428	13497
620.493	12060
620.558	11927
620.623	12663
620.688	12972
620.753	13284
620.818	12271
620.883	12121
620.948	12473
621.013	12419
621.078	12476
621.143	11515
621.207	15853
621.272	13964
621.337	14021
621.402	13762
621.467	13894
621.532	13914
621.596	12299
621.661	11818
621.726	11897
621.791	12101
621.855	12847
621.920	11807
621.985	11608
622.049	13811
622.114	13096
622.179	12390
622.243	12636
622.308	12510
622.373	14121
622.437	13267
622.502	12461
622.566	11815
622.631	11430
622.695	13633
622.760	12786
622.824	12344
622.889	13496
622.953	14020
623.018	18385
623.082	17583
623.147	14277
623.211	13025
623.276	13451
623.340	11565
623.404	11763
623.469	11929
623.533	13113
623.597	10999
623.662	12335
623.726	12233
623.790	11457
623.854	10556
623.919	11155
623.983	10761
624.047	10917
624.111	10831
624.176	12061
624.240	11193
624.304	13299
624.368	10959
624.432	10779
624.496	12244
624.560	14111
624.625	14373
624.689	13200
624.753	12715
624.817	12448
624.881	11637
624.945	10994
625.009	10269
625.073	11338
625.137	11007
625.201	13784
625.265	13844
625.329	11816
625.393	12991
625.456	12927
625.520	12085
625.584	13296
625.648	13815
625.712	15782
625.776	19835
625.839	20852
625.903	12886
625.967	10088
626.031	14025
626.095	17074
626.158	11751
626.222	8777
626.286	10146
626.349	7905
626.413	8004
626.477	9589
626.540	8134
626.604	8155
626.668	9393
626.731	8271
626.795	7654
626.858	8739
626.922	7128
626.986	8241
627.049	6241
627.113	8301
627.176	8112
627.240	7919
627.303	8027
627.366	7649
627.430	7802
627.493	8682
627.557	7406
627.620	8556
627.684	7791
627.747	8726
627.810	7156
627.874	7151
627.937	6046
628.000	8157
628.064	7019
628.127	5219
628.190	7236
628.253	6668
628.317	5846
628.380	6131
628.443	5433
628.506	6095
628.569	6146
628.632	5182
628.696	6159
628.759	5769
628.822	5610
628.885	4575
628.948	5906
629.011	5250
629.074	5628
629.137	5360
629.200	3671
629.263	6446
629.326	4201
629.389	4815
629.452	5521
629.515	5505
629.578	5622
629.641	5751
629.704	4404
629.767	6231
629.830	6374
629.892	6613
629.955	5466
630.018	6685
630.081	5793
630.144	8229
630.207	4783
630.269	7508
630.332	4448
630.395	5240
630.458	5344
630.520	4422
630.583	5334
630.646	5814
630.708	5050
630.771	4440
630.834	5562
630.896	5166
630.959	4558
631.021	4088
631.084	4980
631.146	5799
631.209	7812
631.272	9607
631.334	7256
631.397	4967
631.459	5673
631.522	6239
631.584	5937
631.646	7671
631.709	7674
631.771	8357
631.834	8327
631.896	6302
631.958	5941
632.021	6052
632.083	4207
632.145	5446
632.208	4571
632.270	6444
632.332	4647
632.395	4466
632.457	6407
632.519	4577
632.581	6167
632.643	4311
632.706	4710
632.768	3653
632.830	5289
632.892	4207
632.954	5313
633.016	5380
633.078	4668
633.141	4870
633.203	5159
633.265	4822
633.327	4501
633.389	4943
633.451	5298
633.513	5167
633.575	5170
633.637	5525
633.698	5098
633.760	4735
633.822	5932
633.884	6134
633.946	5738
634.008	5882
634.070	6960
634.132	8048
634.193	7669
634.255	8049
634.317	8553
634.379	9585
634.441	9226
634.502	9111
634.564	8454
634.626	8718
634.687	9252
634.749	6652
634.811	5387
634.873	5128
634.934	4870
634.996	6955
635.057	4300
635.119	5215
635.181	5768
635.242	6190
635.304	3216
635.365	7906
635.427	4505
635.488	5710
635.550	3874
635.611	5807
635.673	4474
635.734	7326
635.796	5666
635.857	8356
635.918	6984
635.980	10104
636.041	8486
636.102	9548
636.164	10036
636.225	11710
636.286	7509
636.348	8460
636.409	6745
636.470	5659
636.531	5516
636.593	5372
636.654	5010
636.715	4620
636.776	4752
636.838	4528
636.899	4601
636.960	4700
637.021	5015
637.082	5598
637.143	4938
637.204	3150
637.265	2921
637.326	4802
637.387	4143
637.448	4054
637.509	4529
637.570	4106
637.631	3724
637.692	3002
637.753	2770
637.814	3786
637.875	3723
637.936	4859
637.997	3368
638.058	4908
638.119	4295
638.179	3504
638.240	2738
638.301	3958
638.362	2646
638.423	3287
638.483	3585
638.544	2765
638.605	4614
638.666	3550
638.726	3650
638.787	4973
638.848	3710
638.908	3831
638.969	3555
639.030	3859
639.090	2513
639.151	2072
639.211	4506
639.272	4915
639.332	6611
639.393	5181
639.453	3921
639.514	3402
639.574	3149
639.635	3271
639.695	3733
639.756	2363
639.816	3174
639.877	4349
639.937	6306
639.997	8305
640.058	3272
640.118	2681
640.178	3987
640.239	3337
640.299	2541
640.359	3569
640.420	4639
640.480	5093
640.540	4400
640.600	5140
640.661	5624
640.721	5815
640.781	11097
640.841	12363
640.901	5579
640.961	4374
641.021	3884
641.082	3842
641.142	5872
641.202	5780
641.262	1766
641.322	3949
641.382	2248
641.442	3573
641.502	2523
641.562	3481
641.622	2621
641.682	3720
641.742	4267
641.802	4018
641.861	3518
641.921	3725
641.981	4428
642.041	3699
642.101	3490
642.161	2565
642.221	2279
642.280	3211
642.340	2814
642.400	2627
642.460	3309
642.519	2826
642.579	3701
642.639	3757
642.698	1287
642.758	5337
642.818	3403
642.877	2695
642.937	3387
642.997	3937
643.056	4693
643.116	2567
643.175	4759
643.235	3036
643.294	4011
643.354	4783
643.414	5420
643.473	7301
643.532	8443
643.592	13181
643.651	24136
643.711	47642
643.770	101785
643.830	261048
643.889	609119
643.948	136152
644.008	17414
644.067	9734
644.126	6499
644.186	5466
644.245	5267
644.304	2918
644.363	5885
644.423	3360
644.482	4211
644.541	5117
644.600	3245
644.659	5954
644.719	5819
644.778	10150
644.837	19411
644.896	41931
644.955	103518
645.014	34639
645.073	7133
645.132	4508
645.191	4210
645.250	2999
645.309	5205
645.368	4375
645.427	6196
645.486	8744
645.545	17688
645.604	4797
645.663	4234
645.722	4235
645.781	4230
645.840	5488
645.898	7924
645.957	12825
646.016	20329
646.075	42557
646.134	87942
646.192	246968
646.251	395777
646.310	51330
646.369	11845
646.427	9298
646.486	5244
646.545	4258
646.603	3974
646.662	4595
646.721	3668
646.779	3253
646.838	2660
646.896	5181
646.955	7013
647.014	11837
647.072	21582
647.131	61758
647.189	30648
647.248	3579
647.306	4396
647.365	4581
647.423	1010
647.481	4479
647.540	1505
647.598	2560
647.657	2524
647.715	3717
647.773	939
647.832	3045
647.890	1775
647.948	1851
648.007	3213
648.065	2071
648.123	1950
648.181	3897
648.240	3341
648.298	1933
648.356	1870
648.414	3391
648.472	2676
648.531	2969
648.589	1419
648.647	2075
648.705	2422
648.763	2709
648.821	2655
648.879	3254
648.937	5226
648.995	4578
649.053	5436
649.111	8677
649.169	15307
649.227	29026
649.285	64171
649.343	200962
649.401	96102
649.459	15504
649.516	10461
649.574	6127
649.632	12718
649.690	15484
649.748	8488
649.806	7903
649.863	17125
649.921	42897
649.979	28358
650.037	4578
650.094	1621
650.152	2816
650.210	2452
650.268	3641
650.325	4971
650.383	7173
650.440	1790
650.498	2212
650.556	1955
650.613	2325
650.671	3129
650.728	2057
650.786	2390
650.843	2751
650.901	699
650.958	2191
651.016	1396
651.073	1755
651.131	596
651.188	-5
651.246	1266
651.303	605
651.360	1937
651.418	1670
651.475	1467
651.532	662
651.590	2330
651.647	1217
651.704	1260
651.762	1059
651.819	1637
651.876	971
651.933	1572
651.990	2088
652.048	506
652.105	836
652.162	1219
652.219	1717
652.276	2122
652.333	1206
652.390	570
652.448	1243
652.505	1348
652.562	1311
652.619	1615
652.676	2380
652.733	3451
652.790	1909
652.847	141
652.904	1864
652.961	-239
653.017	1151
653.074	1039
653.131	877
653.188	468
653.245	1153
653.302	1038
653.359	1384
653.415	1530
653.472	203
653.529	1943
653.586	1001
653.642	644
653.699	1991
653.756	645
653.813	847
653.869	1209
653.926	-164
653.983	883
654.039	1494
654.096	430
654.152	2207
654.209	493
654.266	1824
654.322	126
654.379	1072
654.435	2006
654.492	1498
654.548	2156
654.605	1670
654.661	2866
654.717	1949
654.774	1224
654.830	1115
654.887	1018
654.943	2180
655.000	4137
655.056	2701
655.112	233
655.168	453
655.225	271
655.281	2029
655.337	2085
655.394	1240
655.450	1444
655.506	38
655.562	1194
655.618	2513
655.675	-21
655.731	1144
655.787	1029
655.843	1660
655.899	-37
655.955	1609
656.011	1991
656.067	481
656.123	2122
656.179	2092
656.235	2801
656.291	217
656.347	2490
656.403	1142
656.459	675
656.515	1306
656.571	295
656.627	1333
656.683	778
656.739	1103
656.795	619
656.850	949
656.906	1582
656.962	1766
657.018	453
657.074	1235
657.129	1230
657.185	2340
657.241	3230
657.297	1850
657.352	1676
657.408	847
657.464	1637
657.519	867
657.575	-163
657.630	753
657.686	955
657.742	-194
657.797	722
657.853	192
657.908	1087
657.964	-154
658.019	411
658.075	831
658.130	690
658.186	-411
658.241	979
658.297	421
658.352	151
658.407	1117
658.463	-82
658.518	406
658.573	433
658.629	-571
658.684	456
658.739	1451
658.795	-389
658.850	552
658.905	263
658.960	265
659.016	220
659.071	943
659.126	794
659.181	1338
659.236	2414
659.291	1944
659.346	525
659.401	1152
659.457	1285
659.512	627
659.567	1453
659.622	1086
659.677	1010
659.732	-1001
659.787	-199
659.842	1115
659.897	241
659.952	760
660.007	579
660.061	774
660.116	227
660.171	-78
660.226	357
660.281	1622
660.336	208
660.391	1318
660.445	12
660.500	136
660.555	992
660.610	-832
660.664	926
660.719	-4
660.774	-686
660.828	1251
660.883	378
660.938	962
660.992	-1352
661.047	481
661.101	-333
661.156	-93
661.211	-737
661.265	51
661.320	532
661.374	629
661.429	-312
661.483	713
661.538	167
661.592	319
661.647	1111
661.701	3876
661.755	1257
661.810	416
661.864	-41
661.919	-100
661.973	57
662.027	-135
662.081	-811
662.136	952
662.190	64
662.244	333
662.299	-88
662.353	647
662.407	-279
662.461	-210
662.515	48
662.569	-734
662.624	626
662.678	481
662.732	-427
662.786	231
662.840	-343
662.894	157
662.948	-663
663.002	-233
663.056	222
663.110	483
663.164	306
663.218	6
663.272	370
663.326	267
663.380	-272
663.434	466
663.488	-675
663.542	523
663.595	-15
663.649	-214
663.703	412
663.757	-431
663.811	-103
663.864	313
663.918	516
663.972	89
664.026	303
664.079	-364
664.133	479
664.187	-204
664.240	-1256
664.294	200
664.348	828
664.401	4
664.455	-158
664.508	-595
664.562	-209
664.615	434
664.669	-1339
664.722	-139
664.776	-1436
664.829	-511
664.883	-526
664.936	-448
664.990	34
665.043	-151
665.097	8
665.150	670
665.203	-339
665.257	-1318
665.310	-363
665.363	-475
665.417	-35
665.470	-167
665.523	255
665.576	-148
665.630	305
665.683	-867
665.736	-662
665.789	-264
665.842	-531
665.895	342
665.949	-315
666.002	-394
666.055	-284
666.108	686
666.161	342
666.214	419
666.267	-13
666.320	806
666.373	255
666.426	758
666.479	-266
666.532	134
666.585	176
666.638	812
666.691	-1437
666.744	829
666.796	-219
666.849	62
666.902	-199
666.955	-377
667.008	-77
667.060	-584
667.113	-912
667.166	-161
667.219	-847
667.271	-257
667.324	-773
667.377	25
667.430	212
667.482	300
667.535	63
667.587	-307
667.640	-811
667.693	-237
667.745	-223
667.798	1602
667.850	-542
667.903	-717
667.955	56
668.008	339
668.060	-313
668.113	-462
668.165	-408
668.218	211
668.270	-446
668.322	-194
668.375	-832
668.427	101
668.479	-263
668.532	-596
668.584	-312
668.636	-39
668.689	-1015
668.741	-429
668.793	630
668.845	260
668.898	557
668.950	-91
669.002	-576
669.054	-158
669.106	-421
669.158	-721
669.211	123
669.263	-270
669.315	1504
669.367	1556
669.419	1463
669.471	3636
669.523	4764
669.575	9043
669.627	5726
669.679	2202
669.731	2066
669.783	3504
669.835	4650
669.886	2809
669.938	1398
669.990	759
670.042	17
670.094	117
670.146	621
670.197	933
670.249	1793
670.301	585
670.353	2598
670.404	5005
670.456	7662
670.508	15239
670.560	25866
670.611	49988
670.663	90013
670.715	226708
670.766	365561
670.818	88938
670.869	12396
670.921	6244
670.972	3775
671.024	2155
671.075	1527
671.127	595
671.178	921
671.230	731
671.281	-327
671.333	608
671.384	-269
671.436	1196
671.487	1506
671.538	2590
671.590	2938
671.641	5995
671.692	11082
671.744	22840
671.795	16467
671.846	4750
671.897	1330
671.949	877
672.000	-555
672.051	443
672.102	846
672.153	415
672.204	180
672.256	368
672.307	471
672.358	-468
672.409	-669
672.460	-259
672.511	-969
672.562	-617
672.613	-301
672.664	-967
672.715	-841
672.766	-223
672.817	-805
672.868	-830
672.919	225
672.970	-424
673.021	-523
673.071	-754
673.122	-798
673.173	-125
673.224	-526
673.275	-736
673.326	-906
673.376	-642
673.427	-1517
673.478	-440
673.528	-574
673.579	96
673.630	-526
673.680	-474
673.731	-783
673.782	-926
673.832	-969
673.883	-1176
673.934	-845
673.984	-311
674.035	-885
674.085	-391
674.136	170
674.186	-823
674.237	-511
674.287	-294
674.338	-701
674.388	-1004
674.438	-1808
674.489	-838
674.539	-1692
674.589	-800
674.640	-777
674.690	-851
674.740	-665
674.791	-800
674.841	-810
674.891	-62
674.942	-804
674.992	-1055
675.042	-1264
675.092	-750
675.142	-1108
675.193	-710
675.243	-628
675.293	-790
675.343	-945
675.393	-408
675.443	-751
675.493	-11
675.543	-1223
675.593	-1057
675.643	203
675.693	-124
675.743	-1190
675.793	-899
675.843	-1406
675.893	-977
675.943	-540
675.993	-871
676.043	-1223
676.093	-671
676.142	-1283
676.192	444
676.242	-774
676.292	-1064
676.341	-563
676.391	-742
676.441	-1620
676.491	-860
676.540	-1402
676.590	-608
676.640	-1998
676.689	-938
676.739	-1555
676.789	-613
676.838	-982
676.888	-372
676.937	-1073
676.987	-783
677.037	-610
677.086	-627
677.136	-517
677.185	-921
677.235	-1405
677.284	-891
677.333	-1152
677.383	-1151
677.432	-972
677.482	-460
677.531	-973
677.580	-1275
677.630	-1195
677.679	-610
677.728	-993
677.778	-326
677.827	-1028
677.876	-525
677.925	-979
677.975	-605
678.024	-1007
678.073	-727
678.122	-1003
678.171	-624
678.220	-541
678.269	-573
678.319	-575
678.368	-306
678.417	-1286
678.466	-878
678.515	-930
678.564	-130
678.613	-1365
678.662	-1017
678.711	-1144
678.760	-1333
678.809	-1225
678.857	-1283
678.906	-583
678.955	-896
679.004	-734
679.053	75
679.102	-567
679.151	-758
679.199	-909
679.248	-919
679.297	-1417
679.346	-1528
679.394	-1238
679.443	-519
679.492	-942
679.540	-1863
679.589	-1035
679.638	-394
679.686	-1428
679.735	-1083
679.784	-763
679.832	-844
679.881	-1087
679.929	-867
679.978	-1409
680.026	-629
680.075	-208
680.123	-1472
680.172	-1348
680.220	-844
680.268	-1157
680.317	-1666
680.365	-1214
680.414	-769
680.462	-1304
680.510	-614
680.559	-937
680.607	-885
680.655	-1215
680.703	-960
680.752	-1474
680.800	-1222
680.848	-1492
680.896	-1126
680.945	-1753
680.993	-1498
681.041	-908
681.089	-268
681.137	-1120
681.185	-1035
681.233	-1198
681.258	-1014
681.281	-853
681.329	-1633
681.377	-1358
681.380	-1321
681.425	-858
681.473	-928
681.502	-723
681.521	-602
681.569	-1120
681.617	-1335
681.624	-1198
681.665	-406
681.713	-1326
681.745	-534
681.761	-178
681.809	-2070
681.857	-382
681.867	-510
681.904	-991
681.952	-583
681.989	-1400
682.000	-1662
682.048	-1192
682.096	-1002
682.111	-981
682.143	-969
682.191	-1310
682.233	-543
682.239	-440
682.286	-1144
682.334	-939
682.354	-720
682.382	-436
682.430	-505
682.476	-643
682.477	-657
682.525	-929
682.572	-1076
682.598	-956
682.620	-847
682.667	-756
682.715	-180
682.720	-212
682.763	-698
682.810	212
682.841	-136
682.857	-318
682.905	-809
682.952	-683
682.963	-688
683.000	-797
683.047	-641
683.085	299
683.095	547
683.142	-266
683.190	-770
683.206	-594
683.237	-248
683.284	47
683.328	444
683.332	464
683.379	-33
683.426	-674
683.449	-297
683.473	60
683.521	114
683.568	98
683.571	73
683.615	-329
683.662	712
683.693	123
683.709	-236
683.757	-58
683.804	329
683.814	273
683.851	65
683.898	-152
683.936	299
683.945	403
683.992	60
684.039	-510
684.057	-14
684.086	776
684.133	277
684.179	94
684.180	79
684.227	696
684.274	329
684.300	734
684.321	1025
684.368	601
684.415	1118
684.422	1022
684.462	478
684.509	313
684.543	393
684.556	408
684.603	792
684.649	821
684.665	999
684.696	1271
684.743	652
684.786	1508
684.790	1579
684.837	398
684.883	1123
684.908	1070
684.930	992
684.977	749
685.023	264
685.029	294
685.070	492
685.117	204
685.150	237
685.164	275
685.210	350
685.257	1299
685.272	1151
685.303	748
685.350	247
685.393	731
685.396	766
685.443	1147
685.490	1297
685.514	1128
685.536	923
685.583	1253
685.629	1460
685.636	1357
685.675	877
685.722	1448
685.757	1201
685.768	1089
685.815	1283
685.861	764
685.878	853
685.908	1027
685.954	1365
686.000	1248
686.000	1244
686.047	1062
686.093	1633
686.121	1672
686.139	1670
686.185	1793
686.232	1200
686.242	1360
686.278	1918
686.324	1162
686.363	1697
686.370	1784
686.416	1546
686.463	1692
686.484	1710
686.509	1769
686.555	1257
686.601	1213
686.606	1300
686.647	2012
686.693	1188
686.727	1590
686.739	1734
686.785	1804
686.831	1597
686.848	1638
686.877	1695
686.923	1336
686.969	1798
686.969	1801
687.015	1693
687.061	2275
687.090	2100
687.107	1890
687.153	1910
687.199	2197
687.211	1897
687.245	1285
687.291	1850
687.332	2277
687.336	2302
687.382	2269
687.428	2404
687.453	2067
687.474	1866
687.520	1919
687.565	2286
687.574	2313
687.611	2522
687.657	3138
687.695	3496
687.702	3669
687.748	4872
687.794	6534
687.816	6494
687.839	5594
687.885	4566
687.931	3435
687.937	3325
687.976	3099
688.022	2642
688.058	2430
688.067	2421
688.113	2055
688.158	2526
688.179	2246
688.204	2096
688.249	2133
688.295	2640
688.300	2649
688.340	2598
688.386	2721
688.421	2899
688.431	2948
688.477	2546
688.522	3013
688.542	2941
688.567	2829
688.613	2758
688.658	2816
688.663	2757
688.703	2642
688.749	3704
688.784	3785
688.794	3679
688.839	3390
688.884	2861
688.905	2878
688.930	2932
688.975	2419
689.020	2423
689.026	2385
689.065	2540
689.110	2515
689.146	2764
689.155	2864
689.201	3300
689.246	3611
689.267	3853
689.291	3829
689.336	3660
689.381	3385
689.388	3324
689.426	3099
689.471	3180
689.509	3075
689.516	3091
689.561	2939
689.606	3205
689.630	3080
689.651	2938
689.696	2834
689.741	3039
689.750	2996
689.785	2863
689.830	3208
689.871	2927
689.875	2911
689.920	3120
689.965	3275
689.992	3100
690.010	3021
690.054	3267
690.099	3322
690.112	3417
690.144	3596
690.189	3237
690.233	3050
690.233	3057
690.278	3676
690.323	3559
690.354	3487
690.367	3437
690.412	3530
690.457	3242
690.474	3285
690.501	3398
690.546	3400
690.590	4154
690.595	4087
690.635	3877
690.680	4490
690.716	4671
690.724	4710
690.769	4841
690.813	5724
690.836	5437
690.857	5729
690.902	7312
690.946	8830
690.957	9223
690.991	11794
691.035	15322
691.077	18357
691.080	18408
691.124	18496
691.168	18949
691.198	18357
691.213	17034
691.257	14251
691.301	11148
691.318	9954
691.346	9209
691.390	7869
691.434	6307
691.439	6140
691.478	5722
691.522	5910
691.559	5141
691.567	5062
691.611	5104
691.655	5211
691.680	5033
691.699	4838
691.743	4901
691.787	4835
691.800	4687
691.831	4525
691.875	4623
691.919	4230
691.921	4224
691.964	4308
692.008	4503
692.041	4023
692.052	4006
692.096	4529
692.139	4921
692.162	5046
692.183	4719
692.227	4253
692.271	3454
692.282	3400
692.315	4014
692.359	4164
692.402	4513
692.403	4525
692.447	4490
692.490	4744
692.523	4812
692.534	4840
692.578	4748
692.622	4526
692.643	4583
692.666	4522
692.709	4287
692.753	4386
692.763	4194
692.797	3979
692.840	4368
692.884	4370
692.884	4382
692.928	4659
692.971	4750
693.004	4778
693.015	4795
693.059	4947
693.102	5563
693.124	5519
693.146	5452
693.189	5556
693.233	5375
693.245	5446
693.276	5734
693.320	5598
693.363	5563
693.365	5558
693.407	6200
693.450	6772
693.485	6903
693.493	7125
693.537	8370
693.580	9752
693.605	10706
693.624	11909
693.667	14184
693.710	16763
693.725	17678
693.753	23064
693.797	31436
693.840	40139
693.845	41025
693.883	41046
693.926	40695
693.966	40455
693.970	39793
694.013	32203
694.056	24679
694.086	19448
694.099	18488
694.142	15593
694.185	12209
694.206	10690
694.229	10318
694.272	9647
694.315	8710
694.326	8464
694.358	8129
694.401	7835
694.444	7543
694.446	7485
694.487	6945
694.530	6990
694.566	6798
694.573	6776
694.616	6311
694.659	6101
694.686	5881
694.702	5967
694.745	6257
694.787	6452
694.806	6595
694.830	6542
694.873	6091
694.916	5813
694.926	5714
694.959	5622
695.002	5553
695.044	5536
695.046	5528
695.087	5726
695.130	5271
695.166	5284
695.172	5400
695.215	6059
695.258	6560
695.286	6844
695.301	6861
695.343	7105
695.386	6886
695.406	6978
695.428	6930
695.471	6547
695.514	6238
695.526	6109
695.556	6144
695.599	6318
695.641	6357
695.646	6345
695.684	6305
695.726	6402
695.766	6214
695.769	6207
695.811	5913
695.854	5814
695.886	5677
695.896	5784
695.938	5910
695.981	6090
696.005	6265
696.023	6197
696.065	5994
696.108	5648
696.125	5478
696.150	5474
696.192	5655
696.235	5611
696.245	5637
696.277	5691
696.319	5615
696.361	5395
696.365	5372
696.404	5848
696.446	6373
696.485	6747
696.488	6801
696.530	7288
696.572	7750
696.604	8088
696.614	7996
696.656	7495
696.698	6951
696.724	6614
696.740	6570
696.783	6456
696.825	6436
696.844	6276
696.867	6272
696.909	6354
696.951	6450
696.964	6492
696.992	6583
697.034	6559
697.076	6468
697.083	6459
697.118	6723
697.160	6905
697.202	7181
697.203	7164
697.244	6898
697.286	6745
697.323	6470
697.327	6490
697.369	6562
697.411	6511
697.442	6600
697.453	6686
697.494	6765
697.536	6982
697.562	7025
697.578	7121
697.620	7425
697.661	7631
697.682	7756
697.703	7682
697.744	7395
697.786	7195
697.801	7091
697.828	7311
697.869	7559
697.911	7887
697.921	7918
697.952	7591
697.994	7211
698.035	6795
698.040	6726
698.077	6994
698.118	7202
698.160	7508
698.160	7486
698.201	7396
698.243	7240
698.279	7195
698.284	7233
698.325	7273
698.367	7340
698.399	7358
698.408	7349
698.449	7240
698.491	7086
698.518	6981
698.532	7079
698.573	7282
698.614	7496
698.638	7597
698.656	7520
698.697	7271
698.738	7043
698.757	6910
698.779	6919
698.820	6884
698.862	6863
698.877	6836
698.903	7282
698.944	7953
698.985	8620
698.996	8783
699.026	8736
699.067	8634
699.116	8489
699.235	7065
699.354	8176
699.474	7146
699.593	7702
699.713	8070
699.832	8497
699.951	7998
700.070	7741
700.190	7395
700.309	8253
700.428	7671
700.547	8079
700.667	7503
700.786	7638
700.905	7286
701.024	7271
701.143	7411
701.262	6858
701.381	6832
701.500	7653
701.619	8048
701.738	7810
701.857	7117
701.976	6836
702.095	6912
702.214	7075
702.333	6165
702.452	7489
702.571	6935
702.690	7833
702.809	6179
702.928	8061
703.047	7211
703.165	7296
703.284	7037
703.403	7005
703.522	6754
703.640	6916
703.759	7854
703.878	8280
703.997	6736
704.115	7244
704.234	7337
704.353	7132
704.471	7169
704.590	6696
704.708	6275
704.827	6828
704.946	5890
705.064	6885
705.183	5229
705.301	6490
705.420	6403
705.538	6864
705.656	5871
705.775	7087
705.893	9523
706.012	11536
706.130	5605
706.249	6627
706.367	6210
706.485	6504
706.604	6753
706.722	7028
706.840	8798
706.958	16792
707.077	10838
707.195	5915
707.313	5788
707.431	6165
707.549	5129
707.668	5776
707.786	6006
707.904	6226
708.022	5763
708.140	5775
708.258	5524
708.376	5998
708.494	5372
708.612	7047
708.730	6829
708.848	6466
708.966	6257
709.084	6867
709.202	5315
709.320	6858
709.438	5435
709.556	6085
709.674	8777
709.791	8833
709.909	5841
710.027	5849
710.145	6719
710.263	9958
710.380	8392
710.498	5465
710.616	5198
710.733	5709
710.851	4753
710.969	6119
711.086	6402
711.204	6477
711.322	6330
711.439	5674
711.557	5709
711.674	5644
711.792	5528
711.909	5959
712.027	5661
712.144	4748
712.262	5158
712.379	5858
712.497	4855
712.614	5068
712.732	5841
712.849	5457
712.966	6036
713.084	5664
713.201	5249
713.318	5471
713.436	5767
713.553	5223
713.670	6356
713.787	5870
713.905	4846
714.022	6400
714.139	5081
714.256	7808
714.373	9411
714.490	16630
714.608	42668
714.725	187310
714.842	187970
714.959	13519
715.076	8398
715.193	6188
715.310	6190
715.427	5688
715.544	4341
715.661	4653
715.778	6067
715.895	4769
716.011	5156
716.128	4990
716.245	5298
716.362	6515
716.479	6172
716.596	6432
716.713	7766
716.829	10512
716.946	8824
717.063	5553
717.180	4271
717.296	4935
717.413	4829
717.530	5085
717.646	4329
717.763	4908
717.880	4660
717.996	4694
718.113	5116
718.229	5417
718.346	4430
718.462	5044
718.579	6110
718.695	7277
718.812	5480
718.928	4785
719.045	4105
719.161	4978
719.277	5304
719.394	4888
719.510	4683
719.626	4627
719.743	5434
719.859	6811
719.975	12017
720.092	45280
720.208	101343
720.324	12981
720.440	5344
720.557	4901
720.673	6655
720.789	6577
720.905	8221
721.021	5396
721.137	4542
721.253	4383
721.369	4347
721.486	3869
721.602	4791
721.718	3716
721.834	3288
721.950	4063
722.066	4000
722.181	3671
722.297	4761
722.413	4596
722.529	3929
722.645	4768
722.761	4095
722.877	4026
722.993	3691
723.108	4578
723.224	4841
723.340	4575
723.456	4527
723.571	4001
723.687	4608
723.803	4302
723.918	4040
724.034	4025
724.150	3073
724.265	4295
724.381	5196
724.497	4822
724.612	3605
724.728	3811
724.843	3897
724.959	4688
725.074	6299
725.190	6039
725.305	3832
725.421	3475
725.536	3472
725.651	3963
725.767	4176
725.882	4010
725.997	3430
726.113	4140
726.228	2952
726.343	4583
726.459	3148
726.574	2989
726.689	2434
726.804	3051
726.920	3508
727.035	3551
727.150	4107
727.265	4025
727.380	4866
727.495	4603
727.610	4191
727.725	3230
727.841	4551
727.956	5976
728.071	5258
728.186	3691
728.301	3238
728.416	4376
728.531	3584
728.645	4350
728.760	4875
728.875	6847
728.990	6539
729.105	5659
729.220	4610
729.335	5755
729.449	3752
729.564	2757
729.679	3185
729.794	2593
729.908	3194
730.023	3538
730.138	3581
730.253	3876
730.367	3163
730.482	2485
730.596	3577
730.711	3762
730.826	5051
730.940	6754
731.055	3488
731.169	3218
731.284	3402
731.398	4343
731.513	3100
731.627	3240
731.742	3906
731.856	3990
731.970	3748
732.085	3913
732.199	5455
732.313	8913
732.428	17850
732.542	48245
732.656	27161
732.771	7108
732.885	4080
732.999	4268
733.113	3764
733.227	3591
733.342	3453
733.456	3171
733.570	3443
733.684	3179
733.798	2441
733.912	3381
734.026	2795
734.140	2666
734.254	3376
734.368	3998
734.482	3945
734.596	2955
734.710	3280
734.824	3383
734.938	3110
735.052	3200
735.166	3175
735.280	3148
735.393	2868
735.507	3669
735.621	3349
735.735	3539
735.849	2790
735.962	2877
736.076	2919
736.190	3578
736.303	2783
736.417	4718
736.531	3867
736.644	3225
736.758	2758
736.872	3431
736.985	2668
737.099	2925
737.212	2151
737.326	2548
737.439	3468
737.553	3842
737.666	3429
737.780	2824
737.893	3423
738.007	3302
738.120	3056
738.233	2945
738.347	3282
738.460	2718
738.573	3017
738.687	3550
738.800	3735
738.913	3951
739.026	3166
739.140	3542
739.253	2897
739.366	2526
739.479	2876
739.592	2127
739.705	3279
739.818	4024
739.932	2766
740.045	3745
740.158	2776
740.271	3778
740.384	3906
740.497	4625
740.610	5487
740.723	5400
740.836	5173
740.949	5092
741.062	4351
741.174	4690
741.287	4078
741.400	4462
741.513	5627
741.626	6813
741.739	5263
741.851	4490
741.964	3891
742.077	3812
742.189	4592
742.302	5894
742.415	6914
742.527	5972
742.640	3877
742.753	3380
742.865	3448
742.978	2559
743.090	2852
743.203	3070
743.316	3163
743.428	2903
743.541	2450
743.653	2213
743.766	2835
743.878	2725
743.990	3034
744.103	3767
744.215	4808
744.327	2769
744.440	2999
744.552	3995
744.664	2853
744.777	2585
744.889	1673
745.001	3192
745.113	2170
745.226	1968
745.338	2793
745.450	2806
745.562	1967
745.674	2196
745.786	1993
745.898	2381
746.010	2175
746.122	2092
746.234	2547
746.347	1851
746.459	1992
746.570	2482
746.682	3382
746.794	5343
746.906	3157
747.018	2355
747.130	2639
747.242	2378
747.354	2113
747.466	3349
747.577	1730
747.689	2057
747.801	2042
747.913	2638
748.024	1884
748.136	2083
748.248	1866
748.359	2346
748.471	2350
748.583	1829
748.694	2447
748.806	2826
748.918	1905
749.029	1789
749.141	2106
749.252	2635
749.364	2502
749.475	4013
749.587	1879
749.698	2101
749.809	2111
749.921	2932
750.032	1797
750.144	2128
750.255	1838
750.366	1436
750.478	1382
750.589	2161
750.700	2183
750.811	3072
750.923	3742
751.034	3323
751.145	4730
751.256	2346
751.367	2249
751.479	2302
751.590	1441
751.701	2818
751.812	2046
751.923	2615
752.034	2605
752.145	2317
752.256	2273
752.367	1975
752.478	2329
752.589	2479
752.700	1825
752.811	1981
752.922	1931
753.032	1197
753.143	1810
753.254	1734
753.365	2016
753.476	1828
753.586	1001
753.697	1650
753.808	1785
753.919	2620
754.029	1602
754.140	2435
754.251	2499
754.361	2248
754.472	1906
754.582	2271
754.693	1487
754.804	2260
754.914	1305
755.025	2258
755.135	1371
755.246	2142
755.356	1411
755.466	2468
755.577	1956
755.687	1885
755.798	1898
755.908	1560
756.018	1044
756.129	1898
756.239	1592
756.349	2023
756.460	1833
756.570	2462
756.680	2234
756.790	2068
756.900	1494
757.011	2370
757.121	1404
757.231	1882
757.341	1843
757.451	1345
757.561	1274
757.671	2441
757.781	1252
757.891	2647
758.001	1751
758.111	3468
758.221	2053
758.331	2344
758.441	2154
758.551	2382
758.661	2865
758.771	3081
758.880	1290
758.990	1640
759.100	1996
759.210	1873
759.320	2293
759.429	2140
759.539	1679
759.649	1966
759.758	2576
759.868	2483
759.978	2253
760.087	1936
760.197	2006
760.307	2573
760.416	1701
760.526	1804
760.635	2783
760.745	3269
760.854	2757
760.964	3107
761.073	3204
761.182	2881
761.292	2959
761.401	2871
761.511	2162
761.620	2605
761.729	2512
761.839	2090
761.948	2799
762.057	2957
762.166	3097
762.276	1704
762.385	3406
762.494	2972
762.603	2622
762.712	3280
762.822	3004
762.931	3388
763.040	2503
763.149	3826
763.258	2554
763.367	3934
763.476	2832
763.585	4312
763.694	3803
763.803	3817
763.912	4724
764.021	5014
764.130	4372
764.238	5098
764.347	4785
764.456	4837
764.565	6032
764.674	6155
764.783	5886
764.891	5949
765.000	8209
765.109	8838
765.217	10027
765.326	12670
765.435	14832
765.543	18704
765.652	21977
765.761	28705
765.869	43597
765.978	68150
766.086	119206
766.195	237465
766.303	559541
766.412	1104537
766.520	956376
766.629	423374
766.737	164602
766.846	90331
766.954	57557
767.062	41858
767.171	29950
767.279	23271
767.387	18639
767.496	15312
767.604	13223
767.712	12685
767.820	9501
767.928	11009
768.037	9920
768.145	9977
768.253	8938
768.361	7159
768.469	8246
768.577	8440
768.685	8678
768.793	9543
768.901	9310
769.009	12305
769.117	13324
769.225	18359
769.333	27578
769.441	45484
769.549	85878
769.657	199190
769.765	564576
769.873	911990
769.981	454561
770.088	129044
770.196	58772
770.304	35988
770.412	25190
770.519	18358
770.627	13862
770.735	11239
770.842	10308
770.950	9312
771.058	7642
771.165	7605
771.273	6261
771.380	6385
771.488	5090
771.595	4373
771.703	3920
771.810	4398
771.918	3706
772.025	4250
772.133	4259
772.240	3664
772.348	4146
772.455	3430
772.562	3135
772.670	3557
772.777	3209
772.884	2862
772.991	3061
773.099	3169
773.206	3103
773.313	3070
773.420	1634
773.528	2277
773.635	2146
773.742	2665
773.849	1864
773.956	2348
774.063	2064
774.170	2582
774.277	3056
774.384	2252
774.491	1572
774.598	2912
774.705	1885
774.812	2159
774.919	1608
775.026	3051
775.133	2458
775.239	1909
775.346	2041
775.453	1710
775.560	2508
775.667	2621
775.773	1618
775.880	2694
775.987	1391
776.093	1949
776.200	1394
776.307	1832
776.413	1604
776.520	1588
776.627	1635
776.733	2038
776.840	823
776.946	3264
777.053	4332
777.159	8667
777.266	4781
777.372	8104
777.478	5986
777.585	3365
777.691	1643
777.798	1546
777.904	1636
778.010	2526
778.117	2015
778.223	1794
778.329	1695
778.435	1681
778.542	1403
778.648	1011
778.754	1370
778.860	1834
778.966	2364
779.072	1090
779.178	1828
779.284	1811
779.391	857
779.497	1932
779.603	4362
779.708	4106
779.815	12256
779.920	44730
780.026	82056
780.132	11328
780.238	3126
780.344	2535
780.450	2314
780.556	2076
780.661	1448
780.767	2246
780.873	1688
780.979	1346
781.085	860
781.190	1609
781.296	1198
781.402	1754
781.507	1765
781.613	1441
781.719	1968
781.824	2642
781.930	2212
782.035	1445
782.141	1337
782.246	2436
782.352	1499
782.457	1396
782.563	1563
782.668	1411
782.773	1301
782.879	1018
782.984	1644
783.090	2492
783.195	2201
783.300	1906
783.405	1653
783.511	1273
783.616	1777
783.721	1680
783.826	1815
783.932	2651
784.037	1671
784.142	1679
784.247	1626
784.352	1707
784.457	1366
784.562	1868
784.667	1217
784.772	2291
784.877	1742
784.982	1874
785.087	1208
785.192	2507
785.297	786
785.402	1179
785.507	1304
785.611	974
785.716	1172
785.821	714
785.926	1110
786.031	1585
786.135	339
786.240	1662
786.345	-178
786.450	1932
786.554	592
786.659	838
786.763	-346
786.868	1660
786.973	1447
787.077	545
787.182	999
787.286	953
787.391	1076
787.495	759
787.600	1183
787.704	1425
787.809	1388
787.913	922
788.017	1288
788.122	1852
788.226	1101
788.330	21
788.435	368
788.539	1586
788.643	640
788.747	1135
788.852	277
788.956	544
789.060	1005
789.164	412
789.268	-248
789.372	681
789.476	802
789.580	772
789.684	60
789.788	944
789.892	631
789.996	1773
790.100	432
790.204	273
790.308	914
790.412	852
790.516	1224
790.620	855
790.724	725
790.828	1387
790.931	764
791.035	1315
791.139	750
791.242	406
791.346	1071
791.450	1119
791.554	101
791.657	380
791.761	1657
791.864	1564
791.968	734
792.072	2444
792.175	1028
792.279	833
792.382	875
792.486	1420
792.589	850
792.693	1636
792.796	680
792.899	1975
793.003	1098
793.106	321
793.209	1174
793.313	2600
793.416	-296
793.519	1732
793.623	2103
793.726	1643
793.829	838
793.932	1547
794.035	239
794.138	2021
794.242	2375
794.345	1987
794.448	2883
794.551	5533
794.654	21398
794.757	39532
794.860	5850
794.963	981
795.066	587
795.169	2225
795.272	-299
795.375	955
795.477	-134
795.580	1188
795.683	528
795.786	926
795.889	-64
795.991	1745
796.094	1569
796.197	-152
796.300	1413
796.402	-337
796.505	-25
796.608	186
796.710	999
796.813	364
796.915	316
797.018	1325
797.120	720
797.223	-1159
797.326	1948
797.428	-101
797.530	-23
797.633	566
797.735	1088
797.838	47
797.940	1462
798.042	838
798.145	471
798.247	1185
798.349	-1384
798.452	1070
798.554	367
798.656	80
798.758	910
798.860	899
798.962	729
799.065	511
799.167	-509
799.269	562
799.371	511
799.473	1541
799.575	-526
799.677	433
799.779	1715
799.881	-270
799.983	1452
800.085	1152
800.187	829
800.289	-220
800.390	279
800.492	829
800.594	1337
800.696	49
800.798	497
800.899	68
801.001	-107
801.103	642
801.205	366
801.306	617
801.408	-77
801.509	865
801.611	627
801.713	632
801.814	-367
801.916	264
802.017	-121
802.119	482
802.220	990
802.322	-959
802.423	1354
802.525	-426
802.626	310
802.727	314
802.829	550
802.930	-552
803.031	1619
803.133	169
803.234	-169
803.335	879
803.436	-199
803.538	1250
803.639	84
803.740	1101
803.841	-313
803.942	283
804.043	891
804.144	-49
804.245	102
804.346	-107
804.447	-55
804.548	1010
804.649	1773
804.750	78
804.851	144
804.952	460
805.053	-469
805.154	-72
805.255	1618
805.355	99
805.456	134
805.557	374
805.658	-685
805.758	897
805.859	-392
805.960	462
806.061	282
806.161	519
806.262	669
806.362	688
806.463	286
806.564	780
806.664	519
806.765	780
806.865	1045
806.966	2685
807.066	851
807.166	1195
807.267	328
807.367	592
807.468	947
807.568	270
807.668	853
807.769	1078
807.869	241
807.969	63
808.069	233
808.170	171
808.270	76
808.370	531
808.470	58
808.570	96
808.670	540
808.770	-177
808.870	-364
808.970	1092
809.070	-228
809.170	-388
809.271	856
809.370	1162
809.470	612
809.570	779
809.670	9
809.770	1000
809.870	676
809.970	-433
810.070	-154
810.169	450
810.269	-840
810.369	1308
810.469	-4
810.568	472
810.668	-130
810.768	154
810.867	610
810.967	1245
811.066	223
811.166	640
811.265	760
811.365	-38
811.464	49
811.564	974
811.663	863
811.763	-45
811.862	630
811.962	1862
812.061	338
812.160	182
812.260	647
812.359	908
812.458	1512
812.557	2646
812.657	2643
812.756	2018
812.855	1215
812.954	1650
813.053	877
813.153	1781
813.252	1342
813.351	2026
813.450	1448
813.549	1153
813.648	1032
813.747	1424
813.846	2130
813.945	922
814.044	1575
814.143	1593
814.242	2044
814.341	1116
814.439	1642
814.538	2310
814.637	1087
814.736	1783
814.835	3212
814.933	1816
815.032	3088
815.131	2803
815.229	2896
815.328	3860
815.427	2773
815.525	3753
815.624	3180
815.722	3343
815.821	3651
815.919	3454
816.018	3416
816.116	4908
816.215	4482
816.313	4527
816.412	5655
816.510	5241
816.609	7156
816.707	6832
816.805	6984
816.904	7351
817.002	9123
817.100	10939
817.198	12196
817.296	14837
817.395	16501
817.493	21362
817.591	24317
817.689	32867
817.787	46659
817.885	71384
817.983	121017
818.081	233600
818.179	490968
818.277	989025
818.375	926665
818.473	426641
818.571	199432
818.669	125225
818.767	102002
818.865	96031
818.963	111468
819.061	150697
819.158	230646
819.256	420315
819.354	817076
819.452	1307810
819.549	1044985
819.647	541906
819.745	274607
819.842	164678
819.940	109058
820.038	79603
820.135	60193
820.233	47945
820.330	37207
820.428	30720
820.525	26708
820.623	23369
820.720	19632
820.818	17948
820.915	15896
821.012	14237
821.110	10936
821.207	11935
821.304	9794
821.402	9407
821.499	9314
821.596	10896
821.693	8441
821.791	6852
821.888	5412
821.985	6253
822.082	5977
822.179	5358
822.276	4512
822.373	4381
822.470	3735
822.567	3883
822.664	3790
822.761	3892
822.858	2445
822.955	2916
823.052	2966
823.149	2601
823.246	3361
823.343	2513
823.440	3086
823.536	1985
823.633	1716
823.730	2342
823.827	2653
823.923	2104
824.020	2725
824.117	1816
824.213	1428
824.310	2546
824.407	2194
824.503	1934
824.600	1828
824.696	1821
824.793	2374
824.889	1579
824.986	1623
825.082	1538
825.179	1851
825.275	882
825.371	-138
825.468	1257
825.564	454
825.660	1678
825.757	1582
825.853	1484
825.949	-287
826.045	526
826.142	444
826.238	769
826.334	631
826.430	-477
826.526	625
826.622	1114
826.718	671
826.814	1229
826.910	1225
827.006	741
827.102	153
827.198	1222
827.294	-597
827.390	1377
827.486	563
827.582	-372
827.678	-575
827.774	864
827.869	-812
827.965	984
828.061	-542
828.157	-234
828.252	687
828.348	-288
828.444	714
828.539	-555
828.635	147
828.731	1163
828.826	-773
828.922	64
829.017	-120
829.113	876
829.208	-377
829.304	-463
829.399	351
829.495	-426
829.590	514
829.685	-733
829.781	-179
829.876	-657
829.971	-75
830.066	-315
830.162	-25
830.257	-196
830.352	-574
830.447	1256
830.543	597
830.638	-256
830.733	618
830.828	-1
830.923	-119
831.018	-349
831.113	-480
831.208	-821
831.303	-262
831.398	-339
831.493	-754
831.588	347
831.683	-1386
831.778	-106
831.873	-778
831.967	1115
832.062	-401
832.157	-484
832.252	553
832.346	-215
832.441	874
832.536	749
832.631	1102
832.725	650
832.820	-739
832.914	-1172
833.009	-182
833.104	553
833.198	36
833.293	-254
833.387	-546
833.482	-169
833.576	126
833.670	193
833.765	-704
833.859	-598
833.954	190
834.048	35
834.142	214
834.237	-700
834.331	-965
834.425	-22
834.519	-697
834.613	142
834.708	-610
834.802	70
834.896	-379
834.990	-850
835.084	-181
835.178	-566
835.272	-495
835.366	-556
835.460	-302
835.554	-29
835.648	-415
835.742	-127
835.836	-976
835.930	-1290
836.024	224
836.117	433
836.211	-291
836.305	-470
836.399	-401
836.493	-1258
836.586	432
836.680	-815
836.774	-1337
836.867	705
836.961	-856
837.055	-984
837.148	-856
837.242	-369
837.335	-750
837.429	7
837.522	-1005
837.616	-258
837.709	328
837.803	-587
837.896	-634
837.989	-511
838.083	-644
838.176	-175
838.269	-28
838.363	554
838.456	-1105
838.549	243
838.642	239
838.735	1252
838.829	458
838.922	-325
839.015	-44
839.108	-537
839.201	-486
839.294	-415
839.387	-1033
839.480	-301
839.573	-453
839.666	-828
839.759	-482
839.852	-1024
839.945	-237
840.038	-143
840.131	-416
840.223	-545
840.316	174
840.409	150
840.502	-1133
840.594	491
840.687	-1190
840.780	-3
840.873	-1302
840.965	-1150
841.058	-729
841.150	-15
841.243	-1196
841.336	205
841.428	-659
841.521	-703
841.613	-1399
841.706	259
841.798	-794
841.890	-181
841.983	-1228
842.075	-261
842.167	-763
842.260	-454
842.352	-58
842.444	-968
842.537	-357
842.629	-81
842.721	-775
842.813	310
842.905	-1480
842.997	316
843.090	-991
843.182	-765
843.274	-1357
843.366	528
843.458	729
843.550	1017
843.642	-1131
843.734	-188
843.826	-614
843.918	378
844.009	-302
844.101	-633
844.193	-585
844.285	-898
844.377	-126
844.469	1935
844.560	1600
844.652	1659
844.744	-8
844.835	257
844.927	-1268
845.019	-221
845.110	-522
845.202	167
845.293	-772
845.385	-719
845.476	-99
845.568	-350
845.659	-496
845.751	-81
845.842	-1602
845.934	-359
846.025	-679
846.116	-407
846.208	302
846.299	-612
846.390	-116
846.482	-166
846.573	-393
846.664	-271
846.755	-472
846.846	-741
846.937	-1236
847.029	-759
847.120	-370
847.211	-819
847.302	-214
847.393	-1115
847.484	-237
847.575	-1338
847.666	-368
847.757	-770
847.847	-413
847.938	121
848.029	-665
848.120	-273
848.211	-946
848.302	-243
848.392	-380
848.483	-580
848.574	-864
848.664	-77
848.755	-1003
848.846	-1060
848.936	-1256
849.027	-63
849.118	-246
849.208	-471
849.299	-300
849.389	-161
849.480	1547
849.570	3214
849.661	6568
849.751	13183
849.841	4786
849.932	39
850.022	-520
850.112	-332
850.203	-836
850.293	128
850.383	-452
850.474	-584
850.564	-974
850.654	-405
850.744	-1456
850.834	34
850.924	-1400
851.014	-164
851.104	-833
851.194	-417
851.284	-1034
851.374	-707
851.464	-29
851.554	-586
851.644	-874
851.734	-250
851.824	-1209
851.914	-627
852.004	382
852.094	-174
852.183	-1206
852.273	-662
852.363	-823
852.452	-590
852.542	-439
852.632	-887
852.721	-351
852.811	-664
852.901	-514
852.990	-470
853.080	-1218
853.169	-1329
853.259	-505
853.348	-504
853.438	275
853.527	692
853.617	206
853.706	3145
853.795	6450
853.885	15909
853.974	31707
854.063	60399
854.152	97420
854.242	36548
854.331	4858
854.420	1518
854.509	480
854.598	542
854.687	194
854.777	317
854.866	-376
854.955	421
855.044	-391
855.133	261
855.222	-564
855.311	-508
855.400	-669
855.488	47
855.577	-375
855.666	302
855.755	591
855.844	-391
855.933	-987
856.021	-13
856.110	-640
856.199	-865
856.288	-214
856.376	-1124
856.465	-775
856.554	-156
856.642	-789
856.731	-755
856.819	-577
856.908	-911
856.996	-709
857.085	-535
857.173	-1046
857.262	-471
857.350	-85
857.438	-1379
857.527	-1178
857.615	-591
857.703	-1053
857.792	-1454
857.880	-1846
857.968	-1102
858.056	-972
858.145	-630
858.233	-828
858.321	-1478
858.409	-963
858.497	-900
858.585	-2376
858.673	-810
858.761	-1362
858.849	-880
858.937	-671
859.025	-178
859.113	-1174
859.201	-1176
859.289	-15
859.377	287
859.465	-300
859.552	-606
859.640	-1195
859.728	-910
859.816	-1358
859.903	-447
859.991	-1533
860.079	-444
860.166	-1253
860.254	-710
860.342	-1056
860.429	-726
860.517	-1193
860.604	-551
860.692	-1065
860.779	-764
860.867	-842
860.954	-356
861.042	-907
861.129	-309
861.216	-184
861.304	-539
861.391	-453
861.478	-943
861.565	-683
861.653	-646
861.740	-1661
861.827	-1364
861.914	-354
862.001	-1078
862.089	-737
862.176	-659
862.263	-1577
862.350	-735
862.437	-910
862.524	-1129
862.611	-658
862.698	309
862.785	-640
862.871	-371
862.958	-426
863.045	-663
863.132	-687
863.219	-408
863.306	-1417
863.392	-463
863.479	-1089
863.566	-881
863.652	-1339
863.739	-591
863.826	-495
863.912	-961
863.999	-882
864.086	-1223
864.172	-1490
864.259	-550
864.345	-834
864.432	-540
864.518	-614
864.604	-811
864.691	-1232
864.777	677
864.863	-418
864.950	-43
865.036	-1153
865.122	258
865.209	-299
865.295	414
865.381	-482
865.467	326
865.553	487
865.639	1366
865.726	2155
865.812	5788
865.898	12994
865.984	19974
866.070	39010
866.156	45116
866.242	10604
866.328	1224
866.414	47
866.499	-307
866.585	-405
866.671	-565
866.757	-880
866.843	197
866.928	-677
867.014	-6
867.100	-907
867.186	-1035
867.271	-287
867.357	-499
867.442	-526
867.528	-670
867.614	348
867.699	-187
867.785	-75
867.870	511
867.956	1093
868.041	1452
868.127	581
868.212	750
868.297	486
868.383	345
868.468	368
868.553	-34
868.639	158
868.724	598
868.809	395
868.894	-312
868.979	-441
869.065	-346
869.150	-1102
869.235	-376
869.320	-1074
869.405	-275
869.490	-1470
869.575	-1205
869.660	-856
869.745	-629
869.830	-1535
869.915	-981
870.000	-1707
870.085	147
870.169	-255
870.254	-16
870.339	-1529
870.424	-1124
870.509	-730
870.593	-940
870.678	-722
870.763	-838
870.847	-986
870.932	-1159
871.016	-247
871.101	-47
871.186	-867
871.270	-919
871.355	-589
871.439	-577
871.523	-1622
871.608	-1255
871.692	-733
871.777	-125
871.861	-471
871.945	-908
872.030	-267
872.114	-825
872.198	-81
872.282	-865
872.367	-817
872.451	-709
872.535	-801
872.619	-1100
872.703	-573
872.787	135
872.871	-1412
872.955	-775
873.039	-1459
873.123	-534
873.207	-1103
873.291	-194
873.375	-1594
873.459	-1156
873.543	-543
873.627	-439
873.711	-1611
873.794	-137
873.878	-681
873.962	-1184
874.045	-152
874.129	532
874.137	482
874.213	-17
874.245	-221
874.296	-551
874.352	-727
874.380	-814
874.460	-637
874.464	-631
874.547	-1554
874.568	-1272
874.631	-434
874.676	-351
874.714	-281
874.784	-432
874.798	-466
874.881	352
874.892	191
874.965	-879
874.999	-461
875.048	88
875.107	-43
875.131	-81
875.215	628
875.215	627
875.298	-272
875.323	-406
875.381	-692
875.430	-692
875.465	-719
875.538	-569
875.548	-546
875.631	-642
875.646	-699
875.714	-975
875.753	-556
875.798	-42
875.861	-428
875.881	-554
875.964	-191
875.968	-224
876.047	-896
876.076	-674
876.130	-213
876.183	-268
876.213	-277
876.291	-437
876.296	-456
876.379	-1002
876.398	-946
876.462	-730
876.506	-807
876.545	-862
876.613	-489
876.628	-398
876.711	-1127
876.721	-887
876.794	845
876.828	319
876.877	-406
876.935	-169
876.960	-74
877.043	-22
877.043	-20
877.125	358
877.150	399
877.208	455
877.258	517
877.291	556
877.365	959
877.374	1017
877.456	560
877.472	603
877.539	618
877.579	486
877.622	394
877.687	255
877.704	232
877.787	529
877.794	441
877.869	-535
877.901	-273
877.952	136
878.008	-153
878.034	-318
878.115	-559
878.117	-561
878.199	7
878.222	-85
878.282	-262
878.329	-58
878.364	5
878.437	-209
878.447	-237
878.529	-940
878.544	-857
878.611	-287
878.651	-381
878.694	-525
878.758	-164
878.776	-103
878.858	-761
878.865	-733
878.941	-240
878.972	-465
879.023	-840
879.078	-610
879.105	-447
879.185	-318
879.187	-321
879.269	-137
879.292	-344
879.351	-714
879.399	-433
879.433	-136
879.506	156
879.516	141
879.598	-460
879.613	-409
879.680	177
879.720	168
879.762	-112
879.827	-298
879.844	-219
879.926	-234
879.933	-179
880.007	-239
880.040	-446
880.089	-576
880.147	-625
880.171	-575
880.253	254
880.254	255
880.335	399
880.360	669
880.417	1139
880.467	1381
880.499	1612
880.574	2414
880.580	2452
880.662	799
880.680	413
880.744	-694
880.787	-588
880.825	-594
880.893	-736
880.907	-742
880.989	-356
881.000	-388
881.070	-627
881.106	-763
881.152	-813
881.213	-279
881.233	-120
881.315	-836
881.319	-791
881.396	-288
881.426	-558
881.478	-875
881.532	-680
881.559	-540
881.639	-784
881.641	-789
881.722	-332
881.745	-348
881.803	-361
881.852	-511
881.885	-717
881.958	-546
881.966	-506
882.047	-308
882.064	-373
882.129	-619
882.171	-539
882.210	-359
882.277	-10
882.291	1
882.372	-110
882.383	-142
882.454	-403
882.489	-650
882.535	-794
882.596	-1038
882.616	-1113
882.697	-823
882.702	-804
882.778	-607
882.808	-484
882.859	-273
882.914	-591
882.940	-741
883.020	-745
883.021	-742
883.102	-594
883.127	-589
883.183	-698
883.233	-695
883.264	-557
883.339	-383
883.345	-423
883.426	-1066
883.445	-1112
883.507	-251
883.551	-42
883.587	-512
883.657	-744
883.668	-589
883.749	-156
883.763	8
883.830	-134
883.869	-289
883.910	-348
883.975	-310
883.991	-247
884.072	-826
884.081	-777
884.152	-592
884.187	-840
884.233	-926
884.292	-723
884.314	-699
884.394	-846
884.398	-854
884.475	-867
884.504	-703
884.555	-357
884.610	-178
884.636	-153
884.716	-386
884.716	-385
884.797	-232
884.821	-385
884.877	-690
884.927	-680
884.958	-446
885.033	-326
885.038	-341
885.118	-21
885.139	-85
885.199	-402
885.244	-539
885.279	-553
885.350	-491
885.359	-456
885.439	-184
885.456	-184
885.520	-155
885.561	35
885.600	-110
885.667	-383
885.680	-376
885.760	-578
885.773	-592
885.840	-501
885.878	-413
885.920	-305
885.984	-402
886.000	-491
886.080	-558
886.089	-601
886.160	-535
886.195	-326
886.240	-335
886.300	-698
886.320	-695
886.400	-289
886.406	-284
886.480	-474
886.511	-462
886.560	-498
886.616	-727
886.640	-618
886.720	-130
886.722	-122
886.800	-568
886.827	-640
886.879	-379
886.932	-392
886.959	-424
887.038	-330
887.039	-328
887.119	-365
887.143	-380
887.198	-304
887.248	-310
887.278	-216
887.354	94
887.358	87
887.437	-296
887.459	-285
887.517	99
887.564	107
887.596	-8
887.669	-82
887.676	-87
887.755	-149
887.774	-200
887.835	-412
887.880	-437
887.914	-289
887.985	-215
887.994	-229
888.073	-269
888.090	-281
888.153	-402
888.195	-549
888.232	-745
888.300	-950
888.311	-886
888.391	-551
888.405	-495
888.470	-414
888.510	-348
888.549	-99
888.615	392
888.628	333
888.708	-160
888.720	-225
888.787	59
888.825	169
888.866	-156
888.930	-609
888.945	-533
889.024	-171
889.035	-112
889.103	-479
889.140	-723
889.182	-784
889.245	-821
889.261	-756
889.340	-448
889.349	-412
889.419	-294
889.454	-231
889.498	-186
889.559	-128
889.577	-122
889.656	-88
889.664	-84
889.735	-52
889.768	-39
889.814	-68
889.873	-103
889.978	-121
890.083	816
890.187	354
890.292	90
890.397	-792
890.501	-297
890.606	486
890.710	105
890.815	-228
890.919	-316
891.024	-158
891.128	242
891.233	-516
891.337	-138
891.442	-380
891.546	-383
891.650	-45
891.755	31
891.859	1460
891.963	-267
892.068	104
892.172	135
892.276	118
892.380	-8
892.484	-645
892.589	671
892.693	560
892.797	-343
892.901	-306
893.005	285
893.109	-187
893.213	66
893.317	-23
893.421	-158
893.525	-550
893.629	-584
893.733	-120
893.837	261
893.941	255
894.045	5
894.148	-403
894.252	16
894.356	-529
894.460	-187
894.564	-285
894.667	-516
894.771	36
894.875	245
894.978	36
895.082	-812
895.186	-37
895.289	-311
895.393	410
895.496	-934
895.600	-1310
895.703	-671
895.807	-902
895.910	-7
896.014	-92
896.117	-553
896.221	33
896.324	183
896.427	-104
896.531	-395
896.634	90
896.737	412
896.840	-705
896.944	37
897.047	-503
897.150	-298
897.253	-276
897.356	624
897.460	474
897.563	-369
897.666	-774
897.769	-497
897.872	-723
897.975	673
898.078	-104
898.181	63
898.284	-745
898.387	243
898.490	-310
898.593	209
898.695	-181
898.798	-358
898.901	61
899.004	76
899.107	-342
899.209	-323
899.312	481
899.415	-419
899.518	105
899.620	527
899.723	-148
899.826	-429
899.928	-376
900.031	-229
900.133	-720
900.236	11
900.338	-369
900.441	-130
900.543	-106
900.646	157
900.748	-1015
900.851	338
900.953	-590
901.055	-764
901.158	-336
901.260	669
901.362	-528
901.465	-86
901.567	-851
901.669	57
901.771	-188
901.873	-92
901.976	-709
902.078	-872
902.180	-663
902.282	-127
902.384	-761
902.486	-547
902.588	-250
902.690	-198
902.792	131
902.894	246
902.996	-415
903.098	264
903.200	-927
903.302	-289
903.404	-132
903.505	-703
903.607	-628
903.709	902
903.811	-250
903.913	511
904.014	-54
904.116	-499
904.218	-548
904.319	868
904.421	-297
904.523	194
904.624	-99
904.726	274
904.827	-393
904.929	-415
905.030	-504
905.132	-244
905.233	-759
905.335	-225
905.436	233
905.537	-400
905.639	28
905.740	100
905.841	-771
905.943	906
906.044	-619
906.145	483
906.247	-800
906.348	41
906.449	-953
906.550	-236
906.651	-300
906.752	98
906.854	125
906.955	191
907.056	-203
907.157	-290
907.258	-234
907.359	-449
907.460	320
907.561	-733
907.662	-519
907.762	-289
907.863	-1149
907.964	-915
908.065	-411
908.166	-52
908.267	-1095
908.367	-80
908.468	-1208
908.569	-50
908.670	-506
908.770	118
908.871	-467
908.971	-233
909.072	-713
909.173	-207
909.273	-1013
909.374	-377
909.474	-1121
909.575	-258
909.675	-1070
909.776	61
909.876	-152
909.977	-121
910.077	-232
910.177	-300
910.278	-954
910.378	-1109
910.478	182
910.579	203
910.679	-238
910.779	-209
910.879	-492
910.980	-172
911.080	-617
911.180	431
911.280	-243
911.380	-358
911.480	-560
911.580	-120
911.680	-252
911.780	-859
911.880	-547
911.980	520
912.080	-324
912.180	81
912.280	-609
912.380	-208
912.480	-509
912.580	-379
912.679	-422
912.779	153
912.879	-267
912.979	-307
913.078	-679
913.178	-344
913.278	-114
913.377	337
913.477	-919
913.577	-69
913.676	-865
913.776	-367
913.875	-192
913.975	-519
914.074	-109
914.174	-132
914.273	-1235
914.373	568
914.472	-507
914.572	-712
914.671	-976
914.770	-648
914.870	-476
914.969	-260
915.068	-858
915.167	151
915.267	-762
915.366	-703
915.465	-771
915.564	-936
915.663	-281
915.763	-335
915.862	-454
915.961	-642
916.060	-1373
916.159	-10
916.258	-394
916.357	-1422
916.456	-318
916.555	-1023
916.654	-635
916.752	-1155
916.851	-564
916.950	-85
917.049	62
917.148	-294
917.247	-626
917.345	-1075
917.444	-830
917.543	-771
917.642	-1020
917.740	-992
917.839	84
917.937	114
918.036	-182
918.135	-113
918.233	-536
918.332	-270
918.430	-22
918.529	-511
918.627	-774
918.726	-745
918.824	-289
918.923	-529
919.021	-1257
919.119	-458
919.218	-1113
919.316	-236
919.414	-1157
919.512	-263
919.611	-276
919.709	-317
919.807	-599
919.905	-314
920.003	-157
920.102	-374
920.200	-314
920.298	-73
920.396	-768
920.494	448
920.592	-369
920.690	-227
920.788	-888
920.886	-283
920.984	142
921.082	-501
921.180	-846
921.277	375
921.375	-534
921.473	-685
921.571	-727
921.669	-140
921.766	-618
921.864	-572
921.962	-692
922.060	398
922.157	-666
922.255	-161
922.352	-268
922.450	-386
922.548	-2
922.645	-368
922.743	-266
922.840	-461
922.938	-826
923.035	-8
923.133	-823
923.230	-41
923.327	-861
923.425	219
923.522	-513
923.619	197
923.717	-742
923.814	-20
923.911	-943
924.008	401
924.106	-850
924.203	-64
924.300	-832
924.397	-203
924.494	-314
924.591	-452
924.688	-289
924.786	78
924.883	-126
924.979	-263
925.077	490
925.173	-104
925.270	-182
925.367	75
925.464	-597
925.561	-312
925.658	-984
925.755	-642
925.852	-195
925.948	247
926.045	-892
926.142	-619
926.239	-232
926.335	-127
926.432	293
926.529	435
926.625	-98
926.722	110
926.818	-12
926.915	-632
927.011	-726
927.108	-178
927.204	-474
927.301	-180
927.397	-79
927.494	-817
927.590	-355
927.687	-648
927.783	223
927.879	-791
927.976	-733
928.072	-341
928.168	-836
928.264	-338
928.361	-1183
928.457	-243
928.553	-482
928.649	-295
928.745	-1041
928.841	-129
928.937	-795
929.033	-204
929.129	134
929.225	-210
929.321	-636
929.417	-1356
929.513	-1043
929.609	-537
929.705	-783
929.801	107
929.897	-1248
929.993	-770
930.089	-775
930.184	248
930.280	357
930.376	-293
930.471	-1596
930.567	-311
930.663	-18
930.758	-1702
930.854	-500
930.950	-1335
931.045	-476
931.141	-35
931.236	-233
931.332	-363
931.427	-1082
931.523	-460
931.618	-379
931.714	-327
931.809	-51
931.905	-792
932.000	-881
932.095	-757
932.191	-918
932.286	-500
932.381	-1049
932.476	-380
932.572	-546
932.667	-424
932.762	-351
932.857	-228
932.952	-1061
933.047	-415
933.142	-446
933.237	-935
933.332	-1322
933.427	345
933.522	-343
933.617	53
933.712	-192
933.807	-681
933.902	-871
933.997	121
934.092	-784
934.187	-258
934.282	-174
934.376	33
934.471	-272
934.566	-612
934.661	-518
934.755	-715
934.850	-239
934.945	-134
935.039	-1015
935.134	62
935.228	-1178
935.323	-840
935.417	-757
935.512	-1091
935.606	-676
935.701	-97
935.795	-1363
935.890	-168
935.984	-700
936.079	-447
936.173	-1035
936.267	-813
936.362	-1527
936.456	239
936.550	-858
936.644	34
936.738	-531
936.833	-361
936.927	-601
937.021	-344
937.115	-674
937.209	-935
937.303	-218
937.397	-1067
937.491	-1225
937.585	101
937.679	-1330
937.773	-1036
937.867	-940
937.961	-1084
938.055	-569
938.149	-172
938.243	-1259
938.337	335
938.430	-910
938.524	-188
938.618	-37
938.712	-173
938.805	-26
938.899	-557
938.993	-315
939.086	-215
939.180	-115
939.274	100
939.367	-48
939.461	-571
939.554	-1026
939.648	-867
939.741	-939
939.835	-869
939.928	-23
940.022	-640
940.115	-1125
940.208	-602
940.302	-261
940.395	-74
940.488	-1342
940.582	231
940.675	-1312
940.768	-747
940.861	-834
940.954	86
941.048	-746
941.141	-1167
941.234	-1230
941.327	399
941.420	473
941.513	-688
941.606	-1154
941.699	-265
941.792	-1032
941.885	-1401
941.978	-616
942.071	-307
942.164	-1502
942.257	-375
942.349	-781
942.442	-571
942.535	-1130
942.628	-940
942.721	-794
942.813	-1389
942.906	-485
942.999	-852
943.091	-1071
943.184	-479
943.277	-1182
943.369	-555
943.462	-1312
943.554	-518
943.647	-1319
943.739	-574
943.832	-1230
943.924	-1419
944.017	-463
944.109	-1803
944.201	-331
944.294	-1291
944.386	-922
944.478	-947
944.571	-1079
944.663	-1019
944.755	-821
944.847	-391
944.940	-725
945.032	-1100
945.124	-1150
945.216	-626
945.308	-922
945.400	-632
945.492	-545
945.584	-870
945.676	-742
945.768	-990
945.860	-466
945.952	-722
946.044	-855
946.136	-837
946.228	-718
946.320	64
946.412	-289
946.503	-28
946.595	-710
946.687	-87
946.779	-668
946.870	-648
946.962	-1414
947.054	-1021
947.145	-1107
947.237	-499
947.329	-506
947.420	-886
947.512	-197
947.603	-490
947.695	-84
947.786	-1407
947.878	-108
947.969	-772
948.061	-747
948.152	-1657
948.243	-812
948.335	-923
948.426	-728
948.517	-252
948.609	-158
948.700	-634
948.791	-268
948.882	-814
948.973	-463
949.065	-551
949.156	-895
949.247	-711
949.338	-647
949.429	-901
949.520	-706
949.611	-1886
949.702	-574
949.793	-524
949.884	-682
949.975	-852
950.066	-1432
950.157	-247
950.247	-698
950.338	-532
950.429	-215
950.520	26
950.611	-1323
950.701	-682
950.792	-1172
950.883	-190
950.973	-1221
951.064	-1455
951.155	-1917
951.245	-116
951.336	-946
951.427	-1834
951.517	-645
951.608	-1139
951.698	-1363
951.788	-1520
951.879	-764
951.969	-1474
952.060	-1236
952.150	-905
952.240	-646
952.331	-1372
952.421	-166
952.511	-986
952.602	-525
952.692	-1123
952.782	-1098
952.872	-855
952.962	-1189
953.052	-1501
953.143	-1157
953.233	-667
953.323	-795
953.413	-777
953.503	-867
953.593	-1305
953.683	-1281
953.773	-1611
953.863	-1527
953.953	-849
954.042	-1348
954.132	-557
954.222	-806
954.312	-1242
954.402	-593
954.492	-1032
954.581	-763
954.671	-351
954.761	-1684
954.850	-650
954.940	-1124
955.030	-911
955.119	-1098
955.209	-560
955.298	-1842
955.388	-882
955.477	-416
955.567	-1490
955.656	-200
955.746	-722
955.835	-1354
955.925	-972
956.014	-747
956.103	-854
956.193	-793
956.282	-84
956.371	-476
956.461	-594
956.550	-1139
956.639	-736
956.728	-1532
956.817	-1079
956.906	-1885
956.995	-237
957.085	-1150
957.174	-444
957.263	-1185
957.352	-908
957.441	-1084
957.530	-516
957.619	-996
957.708	-898
957.796	-998
957.885	-780
957.974	-1677
958.063	-606
958.152	-1747
958.241	-907
958.329	-1168
958.418	-451
958.507	-1057
958.596	-268
958.684	-1224
958.773	-588
958.861	-1295
958.950	-723
959.039	-753
959.127	-1279
959.216	-764
959.304	-488
959.393	-1628
959.481	-571
959.570	-436
959.658	-1234
959.746	-766
959.835	-546
959.923	-1955
960.011	-1352
960.100	-377
960.188	-1214
960.276	-902
960.365	-742
960.453	-306
960.541	-1180
960.629	-881
960.717	-1185
960.805	-1837
960.893	-783
960.981	-1941
961.069	-118
961.158	-1321
961.245	-387
961.333	-171
961.421	-1317
961.509	-1210
961.597	-354
961.685	-673
961.773	-156
961.861	-783
961.949	-20
962.036	-1285
962.124	-375
962.212	-572
962.299	-985
962.387	-1376
962.475	-402
962.562	-1437
962.650	-553
962.738	-561
962.825	-618
962.913	-920
963.000	-57
963.088	-1700
963.175	-502
963.263	-1445
963.350	-994
963.438	-781
963.525	-1437
963.612	-806
963.700	-1034
963.787	31
963.874	-1055
963.962	-807
964.049	-624
964.136	-1484
964.223	-1658
964.310	-599
964.398	-1366
964.485	-1480
964.572	-1037
964.659	-1131
964.746	-717
964.833	-929
964.920	-1058
965.007	-790
965.094	-554
965.181	-1498
965.268	-622
965.355	-685
965.441	-1114
965.528	-1742
965.615	-1301
965.702	-592
965.789	-1549
965.875	-371
965.962	-965
966.049	-1469
966.136	33
966.222	-893
966.309	-134
966.395	-1838
966.482	-980
966.569	-1651
966.655	-1197
966.742	-1312
966.828	-249
966.915	-1437
967.001	-1045
967.087	-1638
967.174	-922
967.260	-597
967.347	-1668
967.433	-1044
967.519	-916
967.605	-1874
967.692	-1671
967.778	-1330
967.864	-907
967.950	-1974
968.036	-1252
968.123	-462
968.209	-255
968.295	-1145
968.381	-83
968.467	-1315
968.553	-1047
968.639	-1434
968.725	-1560
968.811	-1326
968.897	-905
968.983	-861
969.069	-1643
969.154	-968
969.240	252
969.326	-1524
969.412	-1157
969.497	-1856
969.583	-1539
969.669	-510
969.755	-593
969.840	-2105
969.926	-108
970.012	-1785
970.097	-715
970.183	-1733
970.268	-1719
970.354	-1072
970.439	-1190
970.525	-383
970.610	-1663
970.696	-465
970.781	-1519
970.866	-2093
970.952	99
971.037	-2125
971.122	-561
971.208	-1281
971.293	-1125
971.378	-2592
971.463	-1855
971.549	-529
971.634	-575
971.719	-1058
971.804	-1000
971.889	-592
971.974	-1776
972.059	-1329
972.144	-472
972.229	-1953
972.314	-641
972.399	-576
972.484	-1669
972.569	-1133
972.654	-2230
972.739	-424
972.824	-1410
972.908	-1580
972.993	-838
973.078	-1384
973.163	-448
973.247	-1179
973.332	-2474
973.417	-140
973.501	-1345
973.586	-1379
973.671	-1625
973.755	-1185
973.840	-574
973.924	-997
974.009	-1414
974.093	-1457
974.178	-516
974.262	-618
974.346	-1688
974.431	-272
974.515	-1124
974.600	-1629
974.684	-657
974.768	-2066
974.852	458
974.937	-2036
975.021	-246
975.105	-2109
975.189	-1076
975.273	-868
975.358	-1508
975.442	-1667
975.526	-1095
975.610	-2080
975.694	-1763
975.778	-620
975.862	-727
975.946	-2991
976.030	-141
976.114	-1542
976.198	-1315
976.281	-1416
976.365	-774
976.449	-1607
976.533	-815
976.617	-2146
976.700	-981
976.784	-1285
976.868	-1660
976.951	-1251
977.035	-438
977.119	-838
977.202	-1253
977.286	-989
977.369	-1335
977.453	-1394
977.536	-1448
977.620	-2069
977.703	-611
977.787	-1964
977.870	-393
977.953	-811
978.037	-1612
978.120	-423
978.203	-1900
978.287	-1824
978.370	-1613
978.453	-1806
978.536	-2070
978.620	-1082
978.703	-1198
978.786	-1370
978.869	-1295
978.952	-1310
979.035	-202
979.118	-793
979.201	-1431
979.284	-753
979.367	-1753
979.450	-1024
979.533	-2171
979.616	-1532
979.699	-1514
979.782	-1382
979.865	-1320
979.948	-1046
980.030	-775
980.113	-1622
980.196	-2498
980.279	-1370
980.361	-2516
980.444	-1801
980.526	-708
980.609	-2034
980.692	-789
980.774	-982
980.857	-2332
980.939	-1654
981.022	-917
981.104	-1693
981.187	-1298
981.269	-1061
981.352	-1508
981.434	-1539
981.516	-1660
981.599	-1039
981.681	-1404
981.763	-1008
981.846	-791
981.928	-2026
982.010	-1260
982.092	-1251
982.174	-578
982.256	-1801
982.339	-2122
982.421	-2012
982.503	-1404
982.585	-2320
982.667	-1656
982.749	-1425
982.831	-1093
982.913	-2315
982.995	-306
983.077	-1196
983.158	-705
983.240	-1915
983.322	-1299
983.404	-579
983.486	-2041
983.568	-1894
983.649	-1498
983.731	-1682
983.813	-1536
983.894	-1138
983.976	-1654
984.058	-1605
984.139	-989
984.221	-2558
984.302	-377
984.384	-1608
984.465	-1970
984.547	-1051
984.628	-1091
984.710	-931
984.791	-1669
984.872	-1271
984.954	-1172
985.035	-1687
985.116	-2175
985.198	-1260
985.279	-1038
985.360	-1783
985.441	-2175
985.522	-621
985.604	-1712
985.685	-2566
985.766	-4
985.847	-1073
985.928	-1969
986.009	-1786
986.090	-1510
986.171	-639
986.252	-1488
986.333	-550
986.414	-1213
986.495	-751
986.576	-1246
986.656	-1112
986.737	-1005
986.818	-1486
986.899	-2054
986.980	-1592
987.060	-1101
987.141	-852
987.222	-973
987.302	-949
987.383	-455
987.464	-2035
987.544	-913
987.625	-2497
987.705	-1063
987.786	-940
987.866	-1399
987.947	-1930
988.027	-2594
988.108	-2442
988.188	-608
988.268	-2235
988.349	-1522
988.429	-1543
988.509	-848
988.589	-2406
988.670	-2786
988.750	-69
988.830	-1563
988.910	-1568
988.990	-1395
989.070	-1746
989.151	-1283
989.231	-2162
989.311	-1038
989.391	-1816
989.471	-1514
989.551	-2383
989.631	-1050
989.711	-649
989.791	-1836
989.870	-2561
989.950	-680
990.030	-1673
990.110	-1506
990.190	-2201
990.269	-1011
990.349	-1986
990.429	-1987
990.509	-871
990.588	-1905
990.668	-1450
990.747	-1124
990.827	-1881
990.907	-2127
990.986	-1989
991.066	-1284
991.145	-1581
991.225	-866
991.304	-1851
991.383	-1034
991.463	-1265
991.542	-1229
991.622	-2447
991.701	-1063
991.780	-1329
991.859	-585
991.939	-1621
992.018	-1542
992.097	-1692
992.176	-782
992.256	-1980
992.335	-1751
992.414	-1179
992.493	-2001
992.572	-1786
992.651	-469
992.730	-2097
992.809	-1291
992.888	-2024
992.967	-2319
993.046	-1275
993.125	-1263
993.203	-1227
993.282	-716
993.361	-1955
993.440	-728
993.519	-1626
993.597	-918
993.676	-2216
993.755	-323
993.834	-1647
993.912	-2333
993.991	-1058
994.069	-2285
994.148	-1387
994.226	-1375
994.305	-1361
994.384	-1132
994.462	-1130
994.540	-2221
994.619	-2205
994.697	-1350
994.776	-2414
994.854	-999
994.932	-1662
995.011	-1743
995.089	-2062
995.167	-1673
995.245	-720
995.324	-1137
995.402	-1390
995.480	-1139
995.558	-1001
995.636	-2271
995.714	-843
995.792	-728
995.870	-1242
995.948	-1807
996.026	-1926
996.104	-1525
996.182	-467
996.260	-1736
996.338	-1101
996.416	-2124
996.494	-1921
996.572	-1554
996.649	-1646
996.727	-2431
996.805	-1261
996.883	-863
996.960	-1887
997.038	-1619
997.116	-1469
997.193	-2001
997.271	-982
997.348	-1315
997.426	-1846
997.504	-1979
997.581	-793
997.658	-1138
997.736	-3064
997.813	-2453
997.891	-498
997.968	-2196
998.046	-1632
998.123	-1535
998.200	-1383
998.277	-2297
998.355	-1050
998.432	-2106
998.509	-2449
998.586	-1265
998.663	-1514
998.741	-1576
998.818	-2140
998.895	-1876
998.972	-867
999.049	-1546
999.126	-2609
999.203	-1497
999.280	-2066
999.357	-1764
999.434	-1853
999.511	-912
999.587	-1426
999.664	-2478
999.741	-991
999.818	-1717
999.895	-1443
999.971	-1883
1000.048	-1717
1000.125	-161
1000.202	-2802
1000.278	-1641
1000.355	-2052
1000.431	-1841
1000.508	-1827
1000.584	-638
1000.661	-2007
1000.738	-1032
1000.814	-1615
1000.890	-994
1000.967	-2574
1001.043	-481
1001.120	-2384
1001.196	-1032
1001.272	-2190
1001.349	-1235
1001.425	-1589
1001.501	-1409
1001.577	-1977
1001.654	-860
1001.730	-1828
1001.806	-1322
1001.882	-2165
1001.958	-1272
1002.034	-997
1002.110	-1605
1002.186	-2376
1002.262	-2264
1002.338	-2488
1002.414	-1167
1002.490	-1277
1002.566	-1919
1002.642	-2174
1002.718	-920
1002.794	-2390
1002.870	-2052
1002.945	-1783
1003.021	-1323
1003.097	-1457
1003.173	-799
1003.248	-1970
1003.324	-1339
1003.400	-1591
1003.475	-2449
1003.551	-431
1003.626	-1432
1003.702	-2015
1003.777	-1348
1003.853	-2298
1003.928	-2383
1004.004	-1651
1004.079	-1259
1004.155	-2345
1004.230	-2833
1004.305	-1317
1004.381	-2373
1004.456	-2211
1004.531	-1856
1004.607	-1749
1004.682	-1403
1004.757	-1489
1004.832	-2452
1004.907	-1751
1004.982	-550
1005.057	-1726
1005.133	-1203
1005.208	-1842
1005.283	-2453
1005.358	-1404
1005.433	-1581
1005.508	-1564
1005.583	-2116
1005.657	-2451
1005.732	-1123
1005.807	-1558
1005.882	-1558
1005.957	-1632
1006.032	-1294
1006.106	-2696
1006.181	-1267
1006.256	-1740
1006.331	-1774
1006.405	-2615
1006.480	-1829
1006.554	-1936
1006.629	-1467
1006.704	-2102
1006.778	-1700
1006.853	-1500
1006.927	-1887
1007.002	-2119
1007.076	-1431
1007.150	-2181
1007.225	-1290
1007.299	-1274
1007.373	-1905
1007.448	-1804
1007.522	-947
1007.596	-1713
1007.671	-2382
1007.745	-1846
1007.819	-2077
1007.893	-1312
1007.967	-1564
1008.041	-2438
1008.115	-1297
1008.190	-3146
1008.264	-1378
1008.338	-2829
1008.412	-1562
1008.486	-2071
1008.560	-1359
1008.633	-1745
1008.707	-1741
1008.781	-1778
1008.855	-2145
1008.929	-2059
1009.003	-2464
1009.076	-1672
1009.150	-1285
1009.224	-1990
1009.298	-1298
1009.371	-2539
1009.445	-1318
1009.519	-1878
1009.592	-2806
1009.666	-2047
1009.739	-1319
1009.813	-3154
1009.886	-1244
1009.960	-2984
1010.033	-994
1010.107	-533
1010.180	-1462
1010.253	-2209
1010.327	-2274
1010.400	-2039
1010.473	-1890
1010.547	-518
1010.620	-2204
1010.693	-1945
1010.766	-1818
1010.840	-1454
1010.913	-1696
1010.986	-2722
1011.059	-2348
1011.132	-1486
1011.205	-581
1011.278	-2737
1011.351	-1363
1011.424	-2096
1011.497	-2623
1011.570	-1965
1011.643	-1966
1011.716	-3351
1011.789	-1646
1011.862	-1835
1011.934	-575
1012.007	-2249
1012.080	-1051
1012.153	-1686
1012.225	-1337
1012.298	-3053
1012.371	-1836
1012.443	-2086
1012.516	-1611
1012.588	-1164
1012.661	-1826
1012.733	-2632
1012.806	-1337
1012.879	-1735
1012.951	-1479
1013.023	-2097
1013.096	-1382
1013.168	-1724
1013.241	-824
1013.313	-1888
1013.385	-2063
1013.458	-2067
1013.530	-1146
1013.602	-2173
1013.674	-1272
1013.746	-2241
1013.819	-1922
1013.891	-1368
1013.963	-3002
1014.035	-2101
1014.107	-1684
1014.179	-1228
1014.251	-2266
1014.323	-1749
1014.395	-2139
1014.467	-2041
1014.539	-1577
1014.611	-2388
1014.683	-1849
1014.754	-2357
1014.826	-2313
1014.898	-2346
1014.970	-3029
1015.042	-1331
1015.113	-1732
1015.185	-1844
1015.257	-3117
1015.328	-1391
1015.400	-2227
1015.471	-2300
1015.543	-2585
1015.615	-2153
1015.686	-1776
1015.757	-1658
1015.829	-1949
1015.901	-1959
1015.972	-1225
1016.043	-2369
1016.115	-1896
1016.186	-2429
1016.257	-1512
1016.328	-1748
1016.400	-1923
1016.471	-2589
1016.542	-2378
1016.613	-1400
1016.685	-1844
1016.756	-1883
1016.827	-1842
1016.898	-2349
1016.969	-1539
1017.040	-2733
1017.111	-2396
1017.182	-1826
1017.253	-1016
1017.324	-1523
1017.395	-2286
1017.466	-1599
1017.537	-1487
1017.608	-1392
1017.678	-2435
1017.749	-2088
1017.820	-1707
1017.891	-1974
1017.961	-2274
1018.032	-2099
1018.103	-1104
1018.173	-2419
1018.244	-2235
1018.315	-2225
1018.385	-2096
1018.456	-2159
1018.526	-2282
1018.597	-2165
1018.667	-2035
1018.738	-3009
1018.808	-1397
1018.878	-2695
1018.949	-2096
1019.019	-1207
1019.089	-1384
1019.160	-2356
1019.230	-1570
1019.300	-1499
1019.371	-2243
1019.441	-799
1019.511	-1384
1019.581	-2296
1019.651	-2392
1019.721	-2209
1019.791	-1800
1019.861	-2075
1019.931	-2017
1020.001	-2384
1020.071	-2173
1020.141	-2807
1020.211	-2274
1020.281	-2499
1020.351	-1922
1020.421	-1870
1020.491	-1317
1020.560	-2122
1020.630	-1599
1020.700	-2150
1020.770	-1865
1020.839	-2399
1020.909	-1403
1020.979	-1745
1021.048	-1827
1021.118	-2089
1021.187	-1973
1021.257	-1875
1021.326	-2062
1021.396	-2359
1021.465	-2094
1021.535	-1808
1021.604	-2194
1021.674	-1738
1021.743	-2048
1021.812	-1958
1021.882	-1513
1021.951	-2148
1022.020	-1946
1022.089	-2504
1022.159	-2321
1022.228	-1683
1022.297	-1175
1022.366	-1976
1022.435	-1899
1022.504	-1840
1022.573	-2306
1022.642	-2470
1022.711	-1856
1022.781	-2140
1022.849	-2001
1022.918	-2838
1022.987	-1675
1023.056	-1708
1023.125	-2133
1023.194	-2206
1023.263	-1136
1023.331	-1706
1023.400	-2039
1023.469	-1960
1023.538	-1202
1023.606	-2419
1023.675	-1701
1023.744	-2747
1023.812	-2279
1023.881	-2299
1023.949	-1224
1024.018	-2159
1024.086	-2032
1024.155	-2235
1024.223	-2130
1024.292	-1548
1024.360	-1711
1024.429	-1996
1024.497	-2119
1024.565	-2433
1024.634	-2213
1024.702	-1063
1024.770	-1038
1024.838	-3133
1024.907	-1239
1024.975	-2282
1025.043	-2008
1025.111	-1932
1025.179	-1759
1025.247	-1531
1025.315	-2298
1025.383	-1910
1025.451	-1309
1025.519	-1864
1025.587	-2259
1025.655	-1953
1025.723	-2325
1025.791	-2018
1025.859	-1656
1025.927	-1840
1025.995	-2003
1026.062	-2614
1026.130	-1717
1026.198	-2290
1026.266	-1865
1026.333	-1464
1026.401	-1622
1026.469	-1160
1026.536	-2109
1026.604	-2079
1026.671	-1709
1026.739	-2537
1026.806	-1862
1026.874	-2343
1026.941	-2398
1027.009	-2600
1027.076	-2661
1027.144	-520
1027.211	-1995
1027.278	-2767
1027.345	-1529
1027.413	-2173
1027.480	-2169
1027.547	-1420
1027.614	-2833
1027.682	-2015
1027.749	-1619
1027.816	-1823
1027.883	-2294
1027.950	-1501
1028.017	-1699
1028.084	-1705
1028.151	-2599
1028.218	-2350
1028.285	-1339
1028.352	-2330
1028.419	-2915
1028.486	-1686
1028.553	-1440
1028.619	-2826
1028.686	-2157
1028.753	-2050
1028.820	-2131
1028.886	-2472
1028.953	-2688
1029.020	-1821
1029.086	-1348
1029.153	-1650
1029.220	-2007
1029.286	-2846
1029.353	-1629
1029.419	-2350
1029.486	-2398
1029.552	-2103
1029.619	-2872
1029.685	-1929
1029.751	-1492
1029.818	-1493
1029.884	-2623
1029.951	-1455
1030.017	-2132
1030.083	-2575
1030.149	-2489
1030.216	-2448
1030.282	-2241
1030.348	-2713
1030.414	-1984
1030.480	-2660
1030.546	-1830
1030.612	-2396
1030.678	-2354
1030.744	-2982
1030.810	-2047
1030.876	-2253
1030.942	-2274
1031.008	-1948
1031.074	-2228
1031.140	-2005
1031.206	-1939
1031.272	-2909
1031.337	-2152
1031.403	-2509
1031.469	-2241
1031.534	-2686
1031.600	-2492
1031.666	-2552
1031.731	-2350
1031.797	-2806
1031.863	-2842
1031.928	-2511
1031.994	-1849
1032.059	-2314
1032.125	-1762
1032.190	-2538
1032.256	-1869
1032.321	-2899
1032.386	-2098
1032.452	-1741
1032.517	-2701
1032.582	-2317
1032.647	-1759
1032.713	-2537
1032.778	-2177
1032.843	-1940
1032.908	-2328
1032.974	-2566
1033.039	-2329
1033.104	-1755
1033.169	-2998
1033.234	-2118
1033.299	-2152
1033.364	-2671
1033.429	-2339
1033.494	-1398
1033.559	-3443
1033.624	-2719
1033.688	-2185
1033.753	-2677
1033.818	-2474
1033.883	-2092
1033.948	-2622
1034.013	-2537
1034.077	-2638
1034.142	-2354
1034.207	-2612
1034.271	-1931
1034.336	-1943
1034.400	-3125
1034.465	-2305
1034.530	-2201
1034.594	-2820
1034.658	-2019
1034.723	-2885
1034.787	-2481
1034.852	-2159
1034.916	-3430
1034.981	-2436
1035.045	-2208
1035.109	-2463
1035.173	-2418
1035.238	-2323
1035.302	-2181
1035.366	-1783
1035.430	-2863
1035.495	-2870
1035.559	-1934
1035.623	-2965
1035.687	-3519
1035.751	-2583
1035.815	-2541
1035.879	-2518
1035.943	-2292
1036.007	-2819
1036.071	-3098
1036.135	-2416
1036.198	-1847
1036.262	-3264
1036.326	-2287
1036.390	-2081
1036.454	-2735
1036.517	-1999
1036.581	-2748
1036.645	-3011
1036.709	-1718
1036.772	-1781
1036.836	-3066
1036.900	-3047
1036.963	-2371
1037.026	-2670
1037.090	-2287
1037.154	-2149
1037.217	-2708
1037.280	-2423
1037.344	-2503
1037.407	-2684
1037.471	-2572
1037.534	-3050
1037.597	-2026
1037.661	-2714
1037.724	-2085
1037.787	-1628
1037.850	-2959
1037.913	-2862
1037.977	-2353
1038.040	-2326
1038.103	-2913
1038.166	-3133
1038.229	-2119
1038.292	-2273
1038.355	-3010
1038.418	-2852
1038.481	-1890
1038.544	-2332
1038.607	-2578
1038.670	-3708
1038.732	-3264
1038.795	-2626
1038.858	-3565
1038.921	-2117
1038.984	-2524
1039.046	-2632
1039.109	-2137
1039.172	-1972
1039.234	-2829
1039.297	-1999
1039.360	-2447
1039.422	-2697
1039.485	-3025
1039.547	-2568
1039.610	-3173
1039.672	-2324
1039.734	-3027
1039.797	-2361
1039.859	-2653
1039.922	-2828
1039.984	-2764
1040.046	-3104
1040.109	-2944
1040.171	-2300
1040.233	-3099
1040.295	-2971
1040.358	-4028
1040.420	-2879
1040.482	-2708
1040.544	-2046
1040.606	-3051
1040.668	-2646
1040.730	-2767
1040.792	-2536
1040.854	-3172
1040.916	-3275
1040.978	-2936
1041.040	-2585
1041.102	-2389
1041.164	-2138
1041.225	-3101
1041.287	-2607
1041.349	-2787
1041.411	-2341
1041.472	-3374
1041.534	-2728
1041.596	-2821
1041.657	-2203
1041.719	-3522
1041.781	-2468
1041.842	-2203
1041.904	-3234
1041.965	-3510
1042.027	-2206
1042.088	-2989
1042.150	-2489
1042.211	-2726
1042.272	-3016
1042.334	-3046
1042.395	-2837
1042.456	-2878
1042.518	-2422
1042.579	-2382
1042.640	-2396
1042.701	-2903
1042.763	-2806
1042.824	-3181
1042.885	-2839
1042.946	-2688
1043.007	-2747
1043.068	-2144
1043.129	-2283
1043.190	-3252
1043.251	-2590
1043.312	-2244
1043.373	-2767
1043.434	-2635
1043.495	-2587
1043.556	-2376
1043.616	-1833
1043.677	-2865
1043.738	-2361
1043.799	-2076
1043.859	-2200
1043.920	-2193
1043.981	-2652
1044.041	-2305
1044.102	-2556
1044.162	-2563
1044.223	-2802
1044.284	-2766
1044.344	-2062
1044.405	-3243
1044.465	-2655
1044.525	-2797
1044.586	-1490
1044.646	-2081
1044.707	-2787
1044.767	-2403
1044.827	-2403
1044.887	-2937
1044.948	-2170
1045.008	-2230
1045.068	-2475
1045.128	-2021
1045.188	-1721
1045.249	-1738
1045.309	-2836
1045.369	-2315
1045.429	-2097
1045.489	-2665
1045.549	-1983
1045.609	-2308
1045.669	-2217
1045.729	-2343
1045.789	-2435
1045.848	-2509
1045.908	-2729
1045.968	-2672
1046.028	-1770
1046.088	-1963
1046.147	-1350
1046.207	-2636
1046.267	-2083
1046.326	-3039
1046.386	-1694
1046.446	-1881
1046.505	-2127
1046.565	-549
1046.624	-1279
1046.684	-1024
1046.743	-879
1046.803	-1413
1046.862	-890
1046.922	0
