'Start Wavelength	183.907
'End Wavelength	1046.922
'Gate Delay	5.000
'Gate Width (ms)	1.050
'Laser Output Level	0.000
'X Position	0.000
'Y Position	0.000
'Z Position	0.000
'Grid Point Number	1.000
'Shot Number	100.000
183.907	563.000
183.977	-526.000
184.047	327
184.116	-74
184.186	42
184.256	11
184.325	780
184.395	-1491
184.465	1008
184.534	-445
184.604	-326
184.674	-29
184.743	-580
184.813	620
184.883	89
184.952	-239
185.022	-603
185.092	571
185.161	384
185.231	-154
185.301	-793
185.370	647
185.440	237
185.509	-181
185.579	-119
185.649	375
185.718	629
185.788	-18
185.857	-683
185.927	-149
185.996	-4
186.066	-53
186.136	212
186.205	331
186.275	-6
186.344	272
186.414	-133
186.483	-1121
186.553	748
186.622	228
186.692	122
186.761	-591
186.831	283
186.900	-545
186.970	144
187.039	-76
187.109	701
187.178	-344
187.248	-211
187.317	-209
187.387	-205
187.456	458
187.526	-543
187.595	-64
187.664	-156
187.734	249
187.803	-142
187.873	-22
187.942	-553
188.012	-401
188.081	-1179
188.150	-359
188.220	-322
188.289	633
188.358	-174
188.428	417
188.497	-312
188.567	-327
188.636	-565
188.705	-336
188.775	-344
188.844	-1454
188.913	276
188.983	-491
189.052	205
189.121	-209
189.191	-307
189.260	432
189.329	-681
189.399	-654
189.468	197
189.537	-113
189.606	-20
189.676	-342
189.745	252
189.814	-158
189.883	-1294
189.953	-645
190.022	724
190.091	-381
190.161	-99
190.230	-48
190.299	262
190.368	-695
190.437	-841
190.507	-43
190.576	-58
190.645	-249
190.714	547
190.783	-837
190.853	-5
190.922	-155
190.991	-376
191.060	-574
191.129	-605
191.198	-385
191.268	-452
191.337	118
191.406	41
191.475	53
191.544	-1281
191.613	-593
191.682	-1003
191.752	-142
191.821	40
191.890	-842
191.959	386
192.028	199
192.097	-722
192.166	-224
192.235	-487
192.304	-141
192.373	-713
192.442	-456
192.511	92
192.580	-465
192.650	-859
192.719	-487
192.788	89
192.857	-651
192.926	-965
192.995	-1067
193.064	-78
193.133	174
193.202	-83
193.271	-171
193.340	-558
193.409	-535
193.478	-123
193.547	-587
193.615	-707
193.684	-736
193.753	905
193.822	-123
193.891	-206
193.960	-617
194.029	80
194.098	476
194.167	-720
194.236	395
194.305	-77
194.374	-448
194.443	-377
194.512	-610
194.580	182
194.649	-469
194.718	317
194.787	813
194.856	-653
194.925	66
194.994	-149
195.062	255
195.131	-395
195.200	-1001
195.269	-325
195.338	-534
195.407	333
195.475	-220
195.544	-602
195.613	-304
195.682	622
195.751	-509
195.819	-270
195.888	382
195.957	545
196.026	-409
196.094	431
196.163	-616
196.232	72
196.301	-35
196.369	-959
196.438	-97
196.507	-53
196.576	-876
196.644	-464
196.713	-332
196.782	-333
196.850	657
196.919	-253
196.988	-211
197.056	-933
197.125	-165
197.194	-41
197.262	-211
197.331	57
197.400	-346
197.468	-979
197.537	-385
197.606	-386
197.674	-735
197.743	400
197.812	-1042
197.880	-60
197.949	-1123
198.017	-427
198.086	-149
198.155	-312
198.223	-193
198.292	-374
198.360	-325
198.429	-170
198.497	-266
198.566	-589
198.635	190
198.703	-319
198.772	-46
198.840	-719
198.909	-467
198.977	-469
199.046	-216
199.114	-333
199.183	-388
199.251	104
199.320	-448
199.388	28
199.457	-309
199.525	-44
199.594	-711
199.662	-342
199.731	-558
199.799	-358
199.867	-265
199.936	-834
200.004	190
200.073	707
200.141	-628
200.210	-142
200.278	-619
200.346	410
200.415	-154
200.483	-380
200.552	-345
200.620	-175
200.688	-13
200.757	89
200.825	-1321
200.893	-811
200.962	-267
201.030	-533
201.098	-635
201.167	48
201.235	-324
201.303	-278
201.372	7
201.440	-23
201.508	-530
201.577	-313
201.645	-672
201.713	-81
201.781	-1026
201.850	79
201.918	-558
201.986	-148
202.055	47
202.123	-552
202.191	-609
202.259	43
202.327	-222
202.396	-285
202.464	-480
202.532	-5
202.600	-16
202.669	88
202.737	-451
202.805	160
202.873	45
202.941	-314
203.009	-240
203.078	-181
203.146	-223
203.214	-910
203.282	-601
203.350	-320
203.418	-987
203.487	-257
203.555	-284
203.623	227
203.691	-333
203.759	-863
203.827	-1544
203.895	-473
203.963	-63
204.031	-816
204.099	-15
204.168	-887
204.236	-616
204.304	49
204.372	-593
204.440	-20
204.508	-572
204.576	-725
204.644	-167
204.712	-899
204.780	-942
204.848	-442
204.916	-243
204.984	-595
205.052	-204
205.120	-83
205.188	-98
205.256	-332
205.324	-1181
205.392	-827
205.460	-234
205.528	-973
205.596	-936
205.664	-239
205.732	-788
205.799	-865
205.867	-688
205.935	-595
206.003	3
206.071	-1561
206.139	-831
206.207	-532
206.275	-331
206.343	-766
206.411	-250
206.478	-254
206.546	-98
206.614	-315
206.682	-659
206.750	-527
206.818	-356
206.885	-112
206.953	-2096
207.021	-87
207.089	149
207.157	-1018
207.225	-633
207.292	-348
207.360	-1051
207.428	-1210
207.496	-732
207.563	-138
207.631	-820
207.699	-776
207.767	-1176
207.834	-600
207.902	-696
207.970	-350
208.038	-322
208.105	-974
208.173	-589
208.241	-168
208.309	-1127
208.376	-542
208.444	-17
208.512	-1268
208.579	-983
208.647	-365
208.715	408
208.782	-1342
208.850	-81
208.918	-998
208.985	-506
209.053	-318
209.120	-390
209.188	-1385
209.256	-670
209.323	-915
209.391	-1282
209.459	619
209.526	-980
209.594	-129
209.661	-723
209.729	-221
209.796	-477
209.864	-570
209.932	-1787
209.999	920
210.067	-755
210.134	-67
210.202	-766
210.269	236
210.337	-486
210.404	-1055
210.472	-238
210.539	-202
210.607	-1410
210.674	-360
210.742	-118
210.809	-990
210.877	-781
210.944	6
211.012	-2339
211.079	716
211.146	-1560
211.214	-824
211.281	0
211.349	-490
211.416	-482
211.484	-220
211.551	-1225
211.618	-879
211.686	-830
211.753	-1218
211.821	-1051
211.888	-850
211.955	-1078
212.023	-525
212.090	-113
212.157	-505
212.225	-968
212.292	-427
212.359	-993
212.427	265
212.494	-845
212.561	-746
212.629	-482
212.696	-1322
212.763	-4
212.831	-1281
212.898	-52
212.965	-897
213.032	-447
213.100	-312
213.167	-1576
213.234	452
213.301	-732
213.369	-965
213.436	-1564
213.503	-1359
213.570	-973
213.638	-864
213.705	-997
213.772	-1141
213.839	-804
213.906	-640
213.973	-288
214.041	-1182
214.108	-909
214.175	-176
214.242	-968
214.309	-672
214.376	-898
214.444	-28
214.511	-926
214.578	-1219
214.645	-1077
214.712	-326
214.779	-774
214.846	-1004
214.913	-340
214.980	-384
215.048	-974
215.115	-337
215.182	-1520
215.249	-1147
215.316	-1344
215.383	-162
215.450	-1291
215.517	-695
215.584	-253
215.651	-797
215.718	-880
215.785	-916
215.852	-1318
215.919	-663
215.986	-1438
216.053	-1130
216.120	-1649
216.187	-1117
216.254	-767
216.321	-886
216.388	-1008
216.455	-939
216.522	-414
216.589	278
216.656	-488
216.722	-726
216.789	-101
216.856	-1245
216.923	-598
216.990	-50
217.057	-973
217.124	-931
217.191	-1657
217.258	132
217.324	-897
217.391	-384
217.458	-1048
217.525	-1069
217.592	-704
217.659	-1704
217.725	-423
217.792	-660
217.859	-579
217.926	-863
217.993	-832
218.059	-609
218.126	-675
218.193	-581
218.260	-633
218.327	-1158
218.393	-1752
218.460	-660
218.527	-1296
218.594	-1322
218.660	-1081
218.727	-394
218.794	-1274
218.860	-440
218.927	-672
218.994	-837
219.061	-1418
219.127	-685
219.194	-540
219.261	-379
219.327	-315
219.394	41
219.461	-1712
219.527	-335
219.594	-988
219.661	-1058
219.727	-1504
219.794	94
219.860	-811
219.927	-794
219.994	-224
220.060	305
220.127	-73
220.193	-183
220.260	-758
220.326	-278
220.393	-1292
220.460	-206
220.526	-1008
220.593	-1276
220.659	881
220.726	-84
220.792	-1586
220.859	-738
220.925	-879
220.992	-657
221.058	427
221.125	-967
221.191	-1399
221.258	-615
221.324	15
221.391	-993
221.457	-1488
221.524	-221
221.590	-415
221.657	-238
221.723	-1311
221.789	-1092
221.856	37
221.922	-871
221.989	-874
222.055	-1081
222.121	-1673
222.188	1885
222.254	-668
222.321	-556
222.387	-1105
222.453	-860
222.520	-511
222.586	-847
222.652	-684
222.719	-933
222.785	-146
222.851	-655
222.918	-781
222.984	-667
223.050	-686
223.116	-2091
223.183	124
223.249	-924
223.315	-619
223.382	-127
223.448	-734
223.514	-1031
223.580	-652
223.647	-826
223.713	-1185
223.779	-1352
223.845	-204
223.911	-289
223.978	-1129
224.044	-729
224.110	-480
224.176	-981
224.242	-729
224.309	-1132
224.375	-108
224.441	-388
224.507	-491
224.573	-1103
224.639	203
224.705	-923
224.772	-398
224.838	-1864
224.904	-380
224.970	-19
225.036	-841
225.102	-1997
225.168	-346
225.234	-111
225.300	-670
225.366	-719
225.432	-537
225.499	-1230
225.565	-913
225.631	-827
225.697	-546
225.763	-467
225.829	-459
225.895	-698
225.961	-1297
226.027	-1036
226.093	-2047
226.159	-265
226.225	-649
226.291	-438
226.357	-1275
226.423	-804
226.489	-1177
226.554	-276
226.620	-259
226.686	-581
226.752	-1471
226.818	-774
226.884	-1556
226.950	-305
227.016	-1254
227.082	413
227.148	-692
227.214	-643
227.279	-676
227.345	-1385
227.411	-678
227.477	-640
227.543	689
227.609	289
227.674	575
227.740	-682
227.806	-1092
227.872	-1000
227.938	-169
228.003	-524
228.069	-1125
228.135	-871
228.201	-223
228.267	-1122
228.332	-957
228.398	-1803
228.464	-744
228.530	-996
228.595	-763
228.661	-1496
228.727	-1989
228.792	180
228.858	-601
228.924	-2687
228.990	726
229.055	-1620
229.121	-1137
229.187	-530
229.252	-1125
229.318	-232
229.384	-1113
229.449	-675
229.515	-2387
229.581	-1501
229.646	393
229.712	-1156
229.777	-2066
229.843	-775
229.909	-664
229.974	-276
230.040	-894
230.105	-779
230.171	-1669
230.236	-450
230.302	-537
230.368	-1225
230.433	-2072
230.499	-852
230.564	-574
230.630	-1563
230.695	-1269
230.761	412
230.826	-2257
230.892	397
230.957	-1689
231.023	-769
231.088	-1360
231.154	-788
231.219	-595
231.284	-1411
231.350	-508
231.415	-1921
231.481	-9
231.546	-1600
231.612	-719
231.677	-791
231.742	-2252
231.808	-155
231.873	-1492
231.939	-2040
232.004	-627
232.069	146
232.135	-909
232.200	-1193
232.265	-338
232.331	-431
232.396	-1373
232.461	-1697
232.527	-1443
232.592	-580
232.657	-1036
232.723	-956
232.788	-1142
232.853	-57
232.918	-50
232.984	-887
233.049	-1122
233.114	-1285
233.179	-508
233.245	-193
233.310	111
233.375	-1853
233.440	-868
233.506	-1305
233.571	-1243
233.636	-617
233.701	-1580
233.766	-1267
233.832	-1050
233.897	-1152
233.962	-2006
234.027	1010
234.092	-683
234.157	-908
234.222	-1790
234.288	-934
234.353	-1050
234.418	-202
234.483	-575
234.548	-560
234.613	-1383
234.678	-296
234.743	-1656
234.808	-170
234.873	-2157
234.938	307
235.004	-1464
235.069	-958
235.134	-1277
235.199	-265
235.264	-421
235.329	-1617
235.394	-1019
235.459	-857
235.524	-2229
235.589	-199
235.654	-1486
235.719	-1472
235.784	-506
235.849	-1473
235.913	-991
235.978	-841
236.043	-1063
236.108	-728
236.173	-1698
236.238	-752
236.303	-1347
236.368	-1404
236.433	-582
236.498	-1924
236.563	-1196
236.627	-1022
236.692	-687
236.757	-449
236.822	-890
236.887	-1959
236.952	-122
237.017	-2395
237.081	-197
237.146	-1532
237.211	-883
237.276	-1216
237.341	-401
237.405	-1130
237.470	-1258
237.535	-1220
237.600	-861
237.664	-596
237.729	-1975
237.794	-1977
237.859	-750
237.923	-1260
237.988	-1428
238.053	-661
238.118	-1589
238.182	-1380
238.247	76
238.312	-1453
238.376	-1183
238.441	-2556
238.506	-288
238.570	-1583
238.635	520
238.700	-1038
238.764	-1923
238.829	-1246
238.893	-1784
238.958	-428
239.023	-963
239.087	-187
239.152	-603
239.216	-1533
239.281	-472
239.346	-702
239.410	-1383
239.475	-1130
239.539	-945
239.604	-1143
239.668	-291
239.733	-897
239.797	347
239.862	1699
239.926	427
239.991	-433
240.055	-642
240.120	-1733
240.184	-1158
240.249	-1023
240.313	-1486
240.378	-856
240.442	-733
240.507	-270
240.571	-1437
240.635	-1357
240.700	-1409
240.764	-694
240.829	-622
240.893	-1255
240.957	-433
241.022	-493
241.086	-369
241.151	-1877
241.215	-1642
241.279	-561
241.344	-1476
241.408	-261
241.472	-1419
241.537	133
241.601	-1183
241.665	-1492
241.730	-1777
241.794	401
241.858	-1530
241.922	-873
241.987	-681
242.051	-1187
242.115	-1855
242.179	-394
242.244	-917
242.308	5
242.372	-899
242.436	-1734
242.501	-736
242.565	-1063
242.629	-1221
242.693	-213
242.757	-1031
242.822	-894
242.886	-1050
242.950	-296
243.014	-1766
243.078	-1204
243.142	-680
243.206	-1325
243.271	-1154
243.335	-1325
243.399	-1034
243.463	-1154
243.527	-556
243.591	-1726
243.655	-688
243.719	-787
243.783	233
243.847	-318
243.911	-1311
243.975	-1459
244.040	-2425
244.104	784
244.168	-1252
244.232	-1378
244.296	-851
244.360	-890
244.424	-2124
244.488	-541
244.552	-822
244.615	-1586
244.679	-292
244.743	-814
244.807	-2113
244.871	5
244.935	-427
244.999	-1669
245.063	-566
245.127	212
245.191	-583
245.255	-739
245.319	-1684
245.383	-2241
245.446	-469
245.510	-1348
245.574	-1135
245.638	-140
245.702	-2017
245.766	-691
245.829	1060
245.893	-1689
245.957	-1524
246.021	115
246.085	-949
246.149	-569
246.212	-459
246.276	-2166
246.340	-1627
246.404	-869
246.467	163
246.531	-2940
246.595	486
246.659	34
246.722	-1822
246.786	-937
246.850	-974
246.913	-917
246.977	-2550
247.041	-952
247.104	-1307
247.168	-935
247.232	-516
247.295	-853
247.359	-501
247.423	-1762
247.486	-524
247.550	-290
247.614	-1552
247.677	-826
247.741	-1224
247.804	-1601
247.868	-725
247.932	-2130
247.995	-71
248.059	-1360
248.122	-2356
248.186	886
248.249	-328
248.313	-1130
248.376	257
248.440	-1135
248.503	-2944
248.567	86
248.630	-2002
248.694	-919
248.757	-456
248.821	-365
248.884	-177
248.948	-2808
249.011	-612
249.075	-681
249.138	594
249.202	-922
249.265	-1663
249.328	-673
249.392	-2444
249.455	-852
249.519	-1912
249.582	-856
249.645	-1236
249.709	-1545
249.772	-539
249.835	-1552
249.899	-1244
249.962	-596
250.025	-1657
250.089	-1322
250.152	-1060
250.215	-760
250.279	-1886
250.342	-411
250.405	-517
250.468	-1631
250.532	-1600
250.595	-641
250.658	-2128
250.721	748
250.785	-1622
250.848	-30
250.911	-1353
250.974	-309
251.038	-1860
251.101	-706
251.164	-1671
251.227	-907
251.290	-681
251.354	-172
251.417	-1009
251.480	-241
251.543	-474
251.606	1258
251.669	704
251.732	-1110
251.795	-925
251.859	-632
251.922	-403
251.985	-565
252.048	-257
252.111	-849
252.174	-1369
252.237	-193
252.300	13
252.363	-1104
252.426	764
252.489	-1206
252.552	-558
252.615	-1456
252.678	173
252.741	-296
252.804	-1668
252.867	335
252.930	170
252.993	-1032
253.056	-785
253.119	-2129
253.182	-1431
253.245	-1349
253.308	-691
253.371	-2423
253.434	-303
253.497	-545
253.559	-900
253.622	-777
253.685	-1180
253.748	-822
253.811	-1683
253.874	-920
253.937	-1916
254.000	-1317
254.062	-1213
254.125	-1187
254.188	-734
254.251	-1309
254.314	-1754
254.376	-2345
254.439	-798
254.502	-1010
254.565	-1537
254.628	-773
254.690	-1140
254.753	-999
254.816	-956
254.878	-575
254.941	-1151
255.004	-915
255.067	-531
255.129	-1977
255.192	-980
255.255	-2205
255.317	-1066
255.380	-563
255.443	-1445
255.505	-1252
255.568	-2109
255.631	-1813
255.693	-1413
255.756	-1930
255.819	-471
255.881	-1383
255.944	-1378
256.006	-1242
256.069	-802
256.132	-1445
256.194	-1769
256.257	-1188
256.319	-714
256.382	-1968
256.444	-82
256.507	-851
256.569	-1159
256.632	-1057
256.694	-1809
256.757	-628
256.819	66
256.882	-1875
256.944	-888
257.007	-467
257.069	-1143
257.132	-944
257.194	304
257.257	-935
257.319	-2224
257.381	-1180
257.444	-229
257.506	-1416
257.569	-845
257.631	-559
257.693	-65
257.756	-382
257.818	-1096
257.880	-1740
257.943	-571
258.005	-1982
258.067	-2004
258.130	-734
258.192	-1319
258.254	-1557
258.317	-1198
258.379	-408
258.441	-1282
258.503	-649
258.566	-499
258.628	-457
258.690	-1924
258.753	-799
258.815	-802
258.877	-1841
258.939	-1047
259.001	-377
259.064	-1189
259.126	-1198
259.188	-1363
259.250	-932
259.312	-695
259.375	-1401
259.437	-1124
259.499	-1284
259.561	-1433
259.623	-1146
259.685	-1630
259.747	-1712
259.809	-1169
259.872	-1282
259.934	-155
259.996	-324
260.058	-1107
260.120	-1331
260.182	-929
260.244	-606
260.306	-1548
260.368	-738
260.430	-1756
260.492	-796
260.554	-950
260.616	-1688
260.678	-1337
260.740	-1083
260.802	-1514
260.864	-986
260.926	-2482
260.988	-101
261.050	-1538
261.112	-1464
261.174	-1315
261.236	-1069
261.298	-959
261.359	-852
261.421	-319
261.483	-1869
261.545	-717
261.607	-2306
261.669	-1375
261.731	-896
261.793	-420
261.854	-2057
261.916	-484
261.978	-1021
262.040	-1185
262.102	-1068
262.164	-1650
262.225	-940
262.287	-271
262.349	-1028
262.411	-1566
262.472	-155
262.534	-1580
262.596	-1366
262.658	-529
262.719	-834
262.781	-334
262.843	-1431
262.904	-765
262.966	-362
263.028	-1322
263.090	-586
263.151	-610
263.213	-611
263.275	-1424
263.336	-1140
263.398	-890
263.459	-1179
263.521	-345
263.583	-496
263.644	-613
263.706	167
263.767	-1856
263.829	-499
263.891	-908
263.952	-1129
264.014	-1116
264.075	-1065
264.137	-874
264.198	-683
264.260	-1771
264.321	-1539
264.383	-1689
264.444	-444
264.506	-1550
264.567	-1428
264.629	-1242
264.690	-2581
264.752	-1427
264.813	-1394
264.875	-1383
264.936	-477
264.998	-2036
265.059	-1263
265.120	-734
265.182	-1053
265.243	-1409
265.305	-664
265.366	-1663
265.427	-90
265.489	-165
265.550	-1914
265.611	-1572
265.673	-1490
265.734	-800
265.795	-880
265.857	-1037
265.918	-1096
265.979	-430
266.040	-1084
266.102	-1057
266.163	-1627
266.224	-940
266.286	-443
266.347	-1478
266.408	-1069
266.469	-1143
266.530	-716
266.592	-1636
266.653	-917
266.714	-922
266.775	-1574
266.836	-997
266.898	-688
266.959	-1456
267.020	-912
267.081	-788
267.142	-1383
267.203	-1319
267.264	-1257
267.326	-58
267.387	-946
267.448	-1469
267.509	-1334
267.570	-1284
267.631	-1373
267.692	-1685
267.753	-690
267.814	-1364
267.875	-1307
267.936	-1553
267.997	-1841
268.058	-1368
268.119	-1135
268.180	-1660
268.241	-997
268.302	-1106
268.363	-1724
268.424	-1280
268.485	-1070
268.546	-2043
268.607	-1552
268.668	-1385
268.729	-952
268.790	-1220
268.851	-1275
268.912	-1464
268.972	-985
269.033	-1371
269.094	-1473
269.155	-1751
269.216	-1549
269.277	-1669
269.338	-1502
269.398	-1113
269.459	-1547
269.520	-1407
269.581	-1142
269.642	-1943
269.702	-1863
269.763	-653
269.824	-415
269.885	-1729
269.945	-1343
270.006	-1085
270.067	-2004
270.128	-906
270.188	-1415
270.249	-1370
270.310	-1762
270.370	-952
270.431	-1288
270.492	-2056
270.553	-987
270.613	-1356
270.674	-664
270.734	-1580
270.795	-1203
270.856	-1833
270.916	-1320
270.977	-1480
271.038	-929
271.098	-859
271.159	-611
271.219	-1380
271.280	-647
271.340	-1894
271.401	-1820
271.462	-1313
271.522	-1107
271.583	-1494
271.643	-1299
271.704	-1419
271.764	-929
271.825	-1752
271.885	14
271.946	-274
272.006	-945
272.066	-905
272.127	642
272.187	389
272.248	-73
272.308	-1545
272.369	-293
272.429	-845
272.489	-698
272.550	-1915
272.610	-1097
272.671	-979
272.731	-915
272.791	-1018
272.852	-1520
272.912	-1230
272.972	-451
273.033	-1436
273.093	-1566
273.153	-479
273.214	-1352
273.274	-1111
273.334	-816
273.394	-853
273.455	-1095
273.515	-296
273.575	-1
273.635	-437
273.696	-285
273.756	-68
273.816	90
273.876	-548
273.936	-713
273.997	-919
274.057	-1127
274.117	-1731
274.177	-826
274.237	-827
274.297	-284
274.358	-248
274.418	-347
274.478	-614
274.538	-1173
274.598	-1525
274.658	-862
274.718	-863
274.778	-971
274.838	-1542
274.898	-1997
274.958	-714
275.018	-810
275.078	-861
275.138	-650
275.198	-1769
275.258	-466
275.318	-1107
275.378	-1308
275.438	-822
275.498	-1048
275.558	-1452
275.618	-360
275.678	-1166
275.738	-1243
275.798	-1234
275.858	-802
275.918	-1774
275.978	-1155
276.038	-970
276.098	-485
276.157	-2238
276.217	-1165
276.277	-1507
276.337	-1037
276.397	-1366
276.457	-1097
276.517	-557
276.576	-1154
276.636	-1427
276.696	-890
276.756	-882
276.815	-1484
276.875	-1090
276.935	-1031
276.995	-794
277.055	-848
277.114	-348
277.174	-921
277.234	-617
277.293	-840
277.353	-910
277.413	-168
277.472	-877
277.532	-1016
277.592	-308
277.651	2230
277.711	7503
277.771	841
277.830	5712
277.890	6615
277.950	2696
278.009	14386
278.069	5812
278.128	4956
278.188	7730
278.248	2066
278.307	7680
278.367	6621
278.426	431
278.486	-16
278.545	-869
278.605	315
278.664	-83
278.724	-534
278.783	107
278.843	549
278.902	-486
278.962	206
279.021	121
279.081	1668
279.140	1224
279.199	877
279.259	-87
279.318	543
279.378	2135
279.437	4899
279.496	12040
279.556	70109
279.615	56634
279.675	12890
279.734	5197
279.793	5363
279.853	5870
279.912	3217
279.971	1837
280.031	1492
280.090	1926
280.149	4303
280.208	7188
280.268	43974
280.327	48794
280.386	10033
280.445	3980
280.505	1945
280.564	1969
280.623	624
280.682	744
280.742	683
280.801	317
280.860	341
280.919	-253
280.978	321
281.037	-766
281.097	-458
281.156	1222
281.215	-747
281.274	-526
281.333	-423
281.392	-915
281.451	-91
281.510	-270
281.569	-1093
281.628	-541
281.688	138
281.747	-528
281.806	-668
281.865	-926
281.924	-909
281.983	-763
282.042	-839
282.101	-725
282.160	-80
282.219	-1238
282.278	-951
282.337	-653
282.396	-808
282.454	269
282.513	-832
282.572	-262
282.631	-662
282.690	-668
282.749	2
282.808	-583
282.867	-1117
282.926	-720
282.985	-125
283.043	-763
283.102	-492
283.161	-1124
283.220	174
283.279	357
283.338	-392
283.396	-362
283.455	236
283.514	-177
283.573	541
283.631	91
283.690	107
283.749	66
283.808	-172
283.866	330
283.925	-56
283.984	-28
284.043	29
284.101	-49
284.160	-198
284.219	1152
284.277	1049
284.336	-252
284.395	1769
284.453	1191
284.512	1652
284.570	1663
284.629	1899
284.688	2958
284.746	4294
284.805	4457
284.863	5908
284.922	8741
284.981	10571
285.039	14733
285.098	20362
285.156	28495
285.215	36585
285.273	30540
285.332	28048
285.390	23697
285.449	18089
285.507	13235
285.566	10535
285.624	6660
285.683	6304
285.741	3354
285.799	3481
285.858	2862
285.916	1817
285.975	2074
286.033	906
286.091	1146
286.150	433
286.208	933
286.267	1001
286.325	777
286.383	-618
286.442	198
286.500	887
286.558	-38
286.616	-986
286.675	302
286.733	250
286.791	81
286.850	345
286.908	-275
286.966	-258
287.024	-773
287.083	546
287.141	-732
287.199	-140
287.257	-609
287.315	345
287.374	-941
287.432	-548
287.490	-243
287.548	-1010
287.606	-850
287.664	-1076
287.723	-81
287.781	-545
287.839	-534
287.897	-385
287.955	-359
288.013	-443
288.071	-859
288.129	-356
288.187	5005
288.245	1302
288.303	486
288.361	-410
288.419	-936
288.477	-1158
288.535	-1109
288.593	-884
288.651	-291
288.709	-694
288.767	-502
288.825	-846
288.883	-604
288.941	-1258
288.999	-907
289.057	-556
289.115	-506
289.173	-1379
289.231	-1474
289.289	-1016
289.346	-902
289.404	-500
289.462	-1622
289.520	-1276
289.578	-1376
289.636	22
289.694	-674
289.751	-743
289.809	-707
289.867	-737
289.925	-995
289.983	-616
290.040	-370
290.098	-600
290.156	-728
290.214	-1101
290.271	-635
290.329	-567
290.387	-910
290.444	-769
290.502	-738
290.560	-519
290.617	-767
290.675	-1001
290.733	-728
290.790	-907
290.848	-294
290.906	-1765
290.963	-1050
291.021	-762
291.078	-1463
291.136	-360
291.194	-1230
291.251	-1202
291.309	-1831
291.366	-1094
291.424	-1132
291.481	-1486
291.539	-503
291.596	-402
291.654	-1221
291.711	-679
291.769	-283
291.826	-966
291.884	-856
291.941	-486
291.999	-877
292.056	-173
292.114	-881
292.171	-938
292.228	-969
292.286	-1337
292.343	-1334
292.401	-1071
292.458	-1138
292.515	-940
292.573	-439
292.630	-473
292.687	-1208
292.745	-694
292.802	-1117
292.859	-529
292.917	485
292.974	-645
293.031	-107
293.089	-408
293.146	-427
293.203	-1264
293.260	-681
293.318	-1104
293.375	-527
293.432	-1184
293.489	-174
293.546	-329
293.604	-492
293.661	201
293.718	1533
293.775	1013
293.832	-458
293.889	456
293.947	-174
294.004	-896
294.061	-1086
294.118	-492
294.175	859
294.232	1205
294.289	62
294.346	-342
294.403	-320
294.460	-448
294.517	-973
294.574	-110
294.631	-919
294.688	-1144
294.745	-1244
294.802	451
294.859	-48
294.916	-12
294.973	-1032
295.030	-1524
295.087	-897
295.144	-692
295.201	-475
295.258	-891
295.315	-1474
295.372	-527
295.429	-705
295.486	-630
295.542	-1124
295.599	-380
295.656	-559
295.713	-227
295.770	265
295.827	-977
295.883	-1029
295.940	-888
295.997	-1414
296.054	-1091
296.111	-924
296.167	-593
296.224	-1381
296.281	-1325
296.338	-1097
296.394	-767
296.451	-1425
296.508	-1293
296.564	-788
296.621	-213
296.678	266
296.734	1151
296.791	-295
296.848	-72
296.904	-787
296.961	-764
297.018	-659
297.074	105
297.131	-402
297.187	-632
297.244	-289
297.301	-579
297.357	552
297.414	-1104
297.470	-1264
297.527	-562
297.583	-552
297.640	-525
297.696	-816
297.753	-841
297.809	-1163
297.866	-225
297.922	-967
297.979	-1882
298.035	-1322
298.092	-227
298.148	-900
298.204	-34
298.261	-925
298.317	-789
298.374	208
298.430	-356
298.486	-534
298.543	-582
298.599	-774
298.656	-1184
298.712	-673
298.768	-395
298.824	-772
298.881	-1246
298.937	-410
298.993	-230
299.050	-1566
299.106	-606
299.162	-1178
299.218	-210
299.275	-1325
299.331	-1221
299.387	-478
299.443	1577
299.500	4262
299.556	3732
299.612	1190
299.668	-202
299.724	3163
299.780	6209
299.837	850
299.893	561
299.949	2571
300.005	5118
300.061	2904
300.117	7438
300.173	2603
300.229	889
300.285	-490
300.341	151
300.397	-594
300.453	-189
300.510	-457
300.566	-14
300.622	556
300.678	5539
300.734	10613
300.790	3835
300.845	2123
300.901	2907
300.957	5671
301.013	3196
301.069	340
301.125	213
301.181	-834
301.237	61
301.293	-1171
301.349	234
301.405	-1157
301.461	-1222
301.516	-1058
301.572	-953
301.628	-775
301.684	-1154
301.740	-1354
301.796	111
301.851	-1005
301.907	-937
301.963	-317
302.019	-686
302.074	2984
302.130	3429
302.186	880
302.242	-108
302.297	-225
302.353	-779
302.409	-1334
302.464	-1386
302.520	-1476
302.576	-251
302.631	34
302.687	-334
302.743	-1550
302.798	-1045
302.854	-1005
302.910	-1033
302.965	-1463
303.021	-1027
303.076	-805
303.132	-714
303.187	-708
303.243	-828
303.299	-1083
303.354	-743
303.410	-2012
303.465	-1493
303.521	-1592
303.576	-1100
303.632	-1176
303.687	-882
303.743	-597
303.798	618
303.853	-588
303.909	-1135
303.964	-1417
304.020	-1312
304.075	-1279
304.130	-910
304.186	-1780
304.241	315
304.297	-1284
304.352	-1186
304.358	-1177
304.407	-1104
304.449	-1210
304.463	-1248
304.518	-733
304.539	-613
304.573	-421
304.629	-1208
304.630	-1196
304.684	-719
304.720	-828
304.739	-885
304.794	194
304.811	9
304.850	-444
304.902	-815
304.905	-837
304.960	-1018
304.992	-697
305.015	-478
305.071	-777
305.083	-750
305.126	-628
305.173	-80
305.181	8
305.236	-68
305.264	-648
305.292	-1267
305.347	-746
305.354	-790
305.402	-928
305.445	-557
305.457	-486
305.512	-946
305.535	-787
305.567	-528
305.622	-888
305.626	-899
305.678	-1031
305.716	-754
305.733	-621
305.788	-27
305.807	-223
305.843	-647
305.897	-281
305.898	-275
305.953	149
305.988	-369
306.008	-668
306.063	-832
306.078	-839
306.118	-785
306.168	-550
306.173	-531
306.228	-1037
306.259	-816
306.283	-654
306.338	-883
306.349	-907
306.393	-1045
306.440	-802
306.448	-711
306.503	6
306.530	-52
306.558	-152
306.613	-260
306.620	-304
306.668	-857
306.711	-263
306.723	-53
306.778	-317
306.801	-475
306.833	-689
306.888	-464
306.892	-462
306.943	-306
306.982	-354
306.997	-409
307.052	-646
307.072	-655
307.107	-664
307.162	-1086
307.163	-1079
307.217	-161
307.253	-263
307.272	-303
307.327	-179
307.343	-175
307.381	-248
307.434	-298
307.436	-287
307.491	-773
307.524	-219
307.546	87
307.600	561
307.614	337
307.655	-566
307.704	-421
307.710	-378
307.765	-781
307.795	-530
307.819	-270
307.874	236
307.885	93
307.929	-422
307.975	368
307.984	510
308.038	231
308.065	380
308.093	863
308.148	1828
308.156	2294
308.202	4801
308.246	6823
308.257	6891
308.312	3138
308.336	1825
308.366	1042
308.421	80
308.426	79
308.475	407
308.517	376
308.530	240
308.585	410
308.607	220
308.639	179
308.694	386
308.697	384
308.748	639
308.787	909
308.803	781
308.857	293
308.877	142
308.912	393
308.967	1169
308.967	1181
309.021	2747
309.058	3914
309.076	4501
309.130	7303
309.148	7887
309.185	10904
309.238	16199
309.239	16260
309.293	21456
309.328	22310
309.348	20483
309.402	11980
309.418	9463
309.457	6898
309.508	5331
309.511	5316
309.566	6123
309.598	7410
309.620	10397
309.674	19559
309.688	22153
309.729	21102
309.778	15629
309.783	15229
309.837	9467
309.868	6715
309.892	5321
309.946	2901
309.959	2535
310.001	2236
310.049	2118
310.055	2071
310.109	1705
310.139	1484
310.163	1069
310.218	381
310.229	203
310.272	447
310.319	776
310.326	744
310.381	486
310.409	454
310.435	548
310.489	780
310.499	788
310.543	684
310.589	680
310.598	678
310.652	534
310.679	577
310.706	609
310.760	393
310.769	381
310.814	543
310.859	591
310.868	582
310.923	632
310.948	588
310.977	557
311.031	658
311.038	649
311.085	577
311.128	508
311.139	549
311.193	880
311.218	954
311.247	1033
311.301	1177
311.308	1196
311.356	857
311.398	436
311.410	440
311.464	541
311.488	612
311.518	684
311.572	707
311.578	709
311.626	774
311.668	799
311.680	827
311.734	975
311.758	1027
311.788	917
311.842	669
311.847	647
311.896	1127
311.937	1491
311.950	1312
312.004	517
312.027	171
312.058	223
312.112	303
312.117	310
312.165	272
312.207	238
312.297	-214
312.386	230
312.476	-27
312.566	137
312.656	263
312.745	917
312.835	984
312.925	848
313.015	504
313.104	732
313.194	553
313.284	669
313.374	1427
313.463	-63
313.553	756
313.643	434
313.732	696
313.822	-151
313.912	420
314.001	988
314.091	1188
314.180	1045
314.270	1343
314.360	714
314.449	638
314.539	694
314.628	1092
314.718	1107
314.808	1016
314.897	1238
314.987	1034
315.076	1247
315.166	742
315.255	1512
315.345	936
315.434	891
315.524	1506
315.613	1176
315.703	1776
315.792	4498
315.881	14387
315.971	3681
316.060	1804
316.150	1286
316.239	1278
316.328	1311
316.418	846
316.507	464
316.597	1021
316.686	1764
316.775	909
316.865	1473
316.954	1540
317.043	942
317.133	1157
317.222	961
317.311	58
317.400	-410
317.490	1723
317.579	1195
317.668	1228
317.757	2811
317.847	8002
317.936	24254
318.025	5403
318.114	4376
318.203	1688
318.293	1442
318.382	1133
318.471	1993
318.560	2123
318.649	1367
318.738	670
318.828	473
318.917	1029
319.006	0
319.095	745
319.184	1288
319.273	533
319.362	1184
319.451	319
319.540	802
319.629	677
319.718	225
319.807	1358
319.896	549
319.985	1245
320.074	1041
320.163	415
320.252	372
320.341	702
320.430	366
320.519	530
320.608	803
320.697	574
320.786	1093
320.875	1743
320.964	2373
321.053	743
321.142	1672
321.230	1270
321.319	2128
321.408	3096
321.497	2582
321.586	2014
321.675	2195
321.764	1801
321.852	2237
321.941	1847
322.030	1122
322.119	833
322.207	2086
322.296	2612
322.385	2634
322.474	3885
322.562	3284
322.651	2855
322.740	1956
322.829	1323
322.917	1988
323.006	1067
323.095	1098
323.183	578
323.272	794
323.361	411
323.449	1629
323.538	735
323.626	750
323.715	528
323.804	524
323.892	1083
323.981	698
324.069	337
324.158	766
324.246	409
324.335	872
324.424	358
324.512	611
324.601	-24
324.689	406
324.778	718
324.866	972
324.954	530
325.043	470
325.131	139
325.220	1650
325.308	910
325.397	890
325.485	748
325.574	688
325.662	50
325.750	460
325.839	930
325.927	379
326.015	350
326.104	780
326.192	260
326.280	-18
326.369	-105
326.457	85
326.545	139
326.634	629
326.722	1058
326.810	809
326.898	803
326.987	581
327.075	498
327.163	1769
327.251	711
327.340	-210
327.428	1403
327.516	1321
327.604	625
327.692	1473
327.781	1045
327.869	804
327.957	751
328.045	151
328.133	1088
328.221	589
328.309	928
328.397	986
328.485	908
328.574	1711
328.662	1346
328.750	1317
328.838	339
328.926	402
329.014	56
329.102	845
329.190	1357
329.278	1113
329.366	719
329.454	401
329.542	558
329.630	311
329.718	1415
329.806	1026
329.893	957
329.981	-163
330.069	417
330.157	1187
330.245	846
330.333	1355
330.421	790
330.509	776
330.597	925
330.684	458
330.772	37
330.860	273
330.948	402
331.036	39
331.123	-360
331.211	112
331.299	509
331.387	281
331.475	112
331.562	321
331.650	579
331.738	677
331.825	865
331.913	213
332.001	-258
332.089	499
332.176	1094
332.264	701
332.352	502
332.439	-57
332.527	379
332.614	423
332.702	260
332.790	-87
332.877	729
332.965	1727
333.052	922
333.140	2339
333.228	5531
333.315	1220
333.403	527
333.490	415
333.578	1855
333.665	8914
333.753	2797
333.840	993
333.928	822
334.015	839
334.103	1678
334.190	1730
334.278	1672
334.365	3360
334.452	4749
334.540	2070
334.627	1330
334.715	2591
334.802	3385
334.889	6372
334.977	10810
335.064	8127
335.151	2455
335.239	1913
335.326	993
335.413	2519
335.501	1724
335.588	1518
335.675	1631
335.762	1527
335.850	2385
335.937	3659
336.024	7032
336.111	15185
336.199	15316
336.286	6371
336.373	2720
336.460	1455
336.547	1701
336.635	1323
336.722	1356
336.809	977
336.896	894
336.983	741
337.070	1176
337.157	744
337.245	703
337.332	-159
337.419	480
337.506	1626
337.593	493
337.680	990
337.767	1106
337.854	1065
337.941	414
338.028	531
338.115	-226
338.202	1296
338.289	-144
338.376	422
338.463	917
338.550	134
338.637	1442
338.724	17
338.811	1352
338.898	1162
338.984	180
339.071	113
339.158	941
339.245	584
339.332	451
339.419	1022
339.506	221
339.593	257
339.679	939
339.766	543
339.853	339
339.940	972
340.027	770
340.113	419
340.200	1010
340.287	501
340.374	-200
340.460	1043
340.547	-1209
340.634	825
340.720	727
340.807	243
340.894	890
340.980	68
341.067	-14
341.154	1237
341.240	697
341.327	1236
341.414	802
341.500	-607
341.587	1356
341.674	1053
341.760	1067
341.847	314
341.933	876
342.020	461
342.106	881
342.193	204
342.279	214
342.366	192
342.452	737
342.539	604
342.625	289
342.712	793
342.798	-82
342.885	578
342.971	-30
343.058	186
343.144	-182
343.230	449
343.317	270
343.403	619
343.490	565
343.576	94
343.662	449
343.749	651
343.835	220
343.921	21
344.008	2258
344.094	3321
344.180	1302
344.267	388
344.353	190
344.439	-245
344.525	646
344.612	725
344.698	401
344.784	-210
344.870	778
344.957	119
345.043	555
345.129	-414
345.215	1199
345.301	376
345.387	1029
345.474	-399
345.560	-99
345.646	225
345.732	335
345.818	-215
345.904	794
345.990	626
346.076	344
346.162	-371
346.249	1994
346.335	420
346.421	723
346.507	250
346.593	549
346.679	-997
346.765	1122
346.851	401
346.937	86
347.023	1685
347.108	581
347.194	-44
347.280	638
347.366	877
347.452	2710
347.538	1327
347.624	2941
347.710	813
347.796	198
347.882	1108
347.967	1018
348.053	206
348.139	-231
348.225	281
348.311	-533
348.397	899
348.482	1232
348.568	395
348.654	933
348.740	3703
348.825	1914
348.911	2234
348.997	1367
349.083	1547
349.168	290
349.254	553
349.340	-225
349.425	994
349.511	79
349.597	-282
349.682	670
349.768	1562
349.854	404
349.939	713
350.025	1038
350.110	184
350.196	396
350.282	-337
350.367	1322
350.453	123
350.538	491
350.624	42
350.709	392
350.795	152
350.880	197
350.966	1310
351.051	289
351.137	867
351.222	383
351.308	-175
351.393	523
351.479	-410
351.564	-33
351.649	894
351.735	819
351.820	154
351.906	691
351.991	-719
352.076	840
352.162	682
352.247	449
352.332	424
352.418	-785
352.503	-171
352.588	2046
352.673	408
352.759	-456
352.844	-173
352.929	518
353.014	-73
353.100	716
353.185	669
353.270	-689
353.355	1052
353.441	633
353.526	24
353.611	24
353.696	-902
353.781	676
353.866	-443
353.952	801
354.037	-996
354.122	1365
354.207	437
354.292	452
354.377	479
354.462	-21
354.547	-82
354.632	380
354.717	630
354.802	-673
354.887	356
354.972	754
355.057	578
355.142	245
355.227	891
355.312	433
355.397	-1310
355.482	449
355.567	-418
355.652	1637
355.737	1142
355.822	902
355.907	-275
355.991	1413
356.076	49
356.161	391
356.246	-125
356.331	697
356.416	-393
356.501	2532
356.585	730
356.670	-946
356.755	1873
356.840	341
356.924	1636
357.009	2434
357.094	1620
357.179	-334
357.263	66
357.348	1281
357.433	630
357.517	206
357.602	-238
357.687	179
357.771	477
357.856	640
357.941	766
358.025	669
358.110	5583
358.195	2493
358.279	171
358.364	50
358.448	544
358.533	1274
358.617	198
358.702	674
358.787	677
358.871	56
358.956	-208
359.040	167
359.125	375
359.209	228
359.294	333
359.378	1061
359.462	1252
359.547	312
359.631	-564
359.716	-209
359.800	544
359.885	1425
359.969	-522
360.053	1062
360.138	-519
360.222	-2
360.306	274
360.391	764
360.475	583
360.559	353
360.644	366
360.728	-821
360.812	2013
360.896	1355
360.981	518
361.065	181
361.149	1167
361.233	109
361.318	-823
361.402	16
361.486	1780
361.570	266
361.654	-97
361.739	100
361.823	1438
361.907	3113
361.991	615
362.075	483
362.159	901
362.243	2926
362.327	8006
362.411	18116
362.495	5857
362.580	1725
362.664	2285
362.748	1236
362.832	2336
362.916	5799
363.000	25495
363.084	40972
363.168	13541
363.252	3246
363.336	1954
363.420	1964
363.503	1292
363.587	151
363.671	851
363.755	71
363.839	2496
363.923	296
364.007	2223
364.091	1856
364.175	2296
364.258	9370
364.342	24846
364.426	62552
364.510	30322
364.594	8090
364.677	3526
364.761	1131
364.845	2692
364.929	857
365.013	585
365.096	1530
365.180	-287
365.264	708
365.347	2277
365.431	444
365.515	-454
365.598	-142
365.682	1442
365.766	-536
365.849	-393
365.933	301
366.017	1631
366.100	-528
366.184	467
366.267	1411
366.351	67
366.435	-635
366.518	119
366.602	756
366.685	751
366.769	780
366.852	941
366.936	921
367.019	-37
367.103	-788
367.186	1984
367.270	254
367.353	-447
367.436	1208
367.520	569
367.603	1209
367.687	-426
367.770	146
367.853	1316
367.937	1506
368.020	629
368.104	-273
368.187	626
368.270	-9
368.353	467
368.437	-32
368.520	1067
368.603	272
368.687	-642
368.770	103
368.853	-622
368.936	1026
369.020	1300
369.103	192
369.186	58
369.269	-905
369.352	676
369.436	-527
369.519	-87
369.602	-1222
369.685	1824
369.768	-439
369.851	754
369.934	120
370.018	401
370.101	-1053
370.184	3057
370.267	1067
370.350	997
370.433	554
370.516	2313
370.599	7019
370.682	789
370.765	2049
370.848	1990
370.931	679
371.014	1773
371.097	-292
371.180	1061
371.263	1436
371.346	-525
371.429	2019
371.511	242
371.594	519
371.677	1117
371.760	1547
371.843	1241
371.926	3728
372.009	5420
372.091	5767
372.174	1457
372.257	2646
372.340	2037
372.423	2161
372.505	2636
372.588	1635
372.671	1686
372.754	153
372.836	891
372.919	1587
373.002	2275
373.085	524
373.167	2390
373.250	1039
373.332	1263
373.415	3929
373.498	4603
373.580	4008
373.663	11865
373.746	9496
373.828	1516
373.911	2289
373.993	406
374.076	1211
374.159	-63
374.241	813
374.324	1525
374.406	1437
374.489	1840
374.571	3354
374.654	71
374.736	704
374.819	1521
374.901	4918
374.983	3570
375.066	1893
375.148	654
375.231	176
375.313	1955
375.395	890
375.478	961
375.560	980
375.643	1501
375.725	1489
375.807	1553
375.890	2676
375.972	-817
376.054	940
376.136	595
376.219	259
376.301	1462
376.383	460
376.465	675
376.548	-137
376.630	906
376.712	1536
376.794	465
376.877	791
376.959	-601
377.041	1203
377.123	287
377.205	-71
377.287	-92
377.369	1020
377.452	-410
377.534	487
377.616	70
377.698	-202
377.780	-289
377.862	546
377.944	876
378.026	-1587
378.108	833
378.190	-160
378.272	1117
378.354	520
378.436	-159
378.518	-346
378.600	559
378.682	618
378.764	468
378.846	985
378.928	693
379.010	-485
379.091	1460
379.173	-46
379.255	-330
379.337	34
379.419	361
379.501	1235
379.583	-389
379.664	-167
379.746	-873
379.828	2253
379.910	-872
379.991	1053
380.073	-167
380.155	1040
380.237	1460
380.318	-208
380.400	264
380.482	950
380.564	941
380.645	-487
380.727	350
380.809	1564
380.890	284
380.972	-270
381.053	250
381.135	1503
381.217	302
381.298	1498
381.380	610
381.461	255
381.543	1275
381.624	1791
381.706	380
381.787	905
381.869	1323
381.951	1835
382.032	2160
382.113	4544
382.195	433
382.276	2117
382.358	830
382.439	1584
382.521	3595
382.602	4842
382.684	4174
382.765	6737
382.846	23963
382.928	65426
383.009	32481
383.090	21827
383.172	84706
383.253	120584
383.334	30498
383.416	9718
383.497	7944
383.578	7409
383.659	16417
383.741	67106
383.822	170114
383.903	78230
383.984	14167
384.066	8034
384.147	4535
384.228	3656
384.309	3463
384.390	3201
384.471	2113
384.553	1933
384.634	2034
384.715	2845
384.796	1407
384.877	1501
384.958	1771
385.039	826
385.120	1220
385.201	2639
385.282	1363
385.363	2070
385.444	1538
385.525	1985
385.606	3120
385.687	1534
385.768	902
385.849	711
385.930	3676
386.011	4028
386.092	984
386.173	1245
386.254	1422
386.335	2489
386.416	738
386.496	1565
386.577	1719
386.658	1330
386.739	21
386.820	1514
386.901	662
386.981	1575
387.062	2070
387.143	1551
387.224	2316
387.304	2745
387.385	3209
387.466	941
387.547	3626
387.627	2226
387.708	3277
387.789	3613
387.869	1752
387.950	2594
388.031	801
388.111	-270
388.192	2008
388.273	2782
388.353	629
388.434	1195
388.514	943
388.595	1516
388.676	1753
388.756	1389
388.837	1695
388.917	480
388.998	-1054
389.078	1250
389.159	1127
389.239	-1352
389.320	2078
389.400	-584
389.480	1851
389.561	752
389.641	1567
389.722	954
389.802	-9
389.883	675
389.963	1847
390.043	1072
390.124	-32
390.204	1100
390.284	1288
390.365	164
390.445	1001
390.525	43
390.605	1166
390.686	-550
390.766	1358
390.846	2134
390.927	-102
391.007	19
391.087	1209
391.167	188
391.247	354
391.328	1847
391.408	1076
391.488	2174
391.568	-1146
391.648	393
391.728	1752
391.808	1616
391.888	1404
391.969	672
392.049	853
392.129	2711
392.209	1122
392.289	2444
392.369	1127
392.449	1826
392.529	1932
392.609	3363
392.689	2883
392.769	4170
392.849	3928
392.929	7157
393.009	8974
393.089	12973
393.169	29115
393.248	85715
393.328	243158
393.408	234478
393.488	79157
393.568	25531
393.648	12664
393.728	7605
393.807	4156
393.887	5238
393.967	3885
394.047	2866
394.127	1419
394.206	2315
394.286	3631
394.366	10899
394.446	12046
394.525	2049
394.605	1068
394.685	1473
394.764	3353
394.844	2770
394.924	3699
395.003	1896
395.083	1266
395.163	1446
395.242	813
395.322	744
395.402	-763
395.481	2177
395.561	1072
395.640	6363
395.720	12687
395.799	4667
395.879	1766
395.958	1107
396.038	4538
396.117	17091
396.197	17600
396.276	4709
396.356	2398
396.435	3358
396.515	5697
396.594	8709
396.673	21957
396.753	84540
396.832	212139
396.912	136682
396.991	32052
397.070	12887
397.150	5774
397.229	7207
397.308	10985
397.388	19225
397.467	8523
397.546	3080
397.625	394
397.705	2863
397.784	1714
397.863	1532
397.942	940
398.022	838
398.101	144
398.180	1773
398.259	-119
398.338	718
398.417	722
398.497	212
398.576	1441
398.655	-278
398.734	1257
398.813	333
398.892	267
398.971	886
399.050	223
399.129	-340
399.208	5
399.287	1356
399.366	-242
399.445	499
399.524	417
399.603	-901
399.682	818
399.761	-83
399.840	1283
399.919	1500
399.998	-80
400.077	-679
400.156	-1118
400.235	1960
400.313	222
400.392	-869
400.471	362
400.550	687
400.629	-434
400.708	288
400.786	-1095
400.865	142
400.944	-580
401.023	1776
401.102	-419
401.180	405
401.259	-806
401.338	250
401.416	436
401.495	-549
401.574	795
401.652	-435
401.731	304
401.810	-1753
401.888	-3
401.967	-493
402.046	138
402.124	746
402.203	-797
402.281	418
402.360	-796
402.438	617
402.517	-1715
402.596	-237
402.674	-399
402.753	-566
402.831	366
402.910	442
402.988	-1179
403.066	82
403.145	1264
403.223	1156
403.302	104
403.380	588
403.459	490
403.537	-21
403.615	-93
403.694	-1296
403.772	482
403.850	366
403.929	-157
404.007	-825
404.085	353
404.164	-505
404.242	-248
404.320	878
404.398	617
404.477	-642
404.555	1544
404.633	1378
404.711	-178
404.789	295
404.868	65
404.946	-264
405.024	-303
405.102	-1087
405.180	-1113
405.258	-1716
405.336	506
405.415	-235
405.493	-230
405.571	294
405.649	-362
405.727	-1180
405.805	660
405.883	-205
405.961	96
406.039	-1666
406.117	-1677
406.195	381
406.273	-1367
406.351	276
406.429	825
406.507	-676
406.585	-460
406.663	-295
406.740	-133
406.818	-1667
406.896	-572
406.974	572
407.052	-2104
407.130	-233
407.208	289
407.285	437
407.363	-876
407.441	-1099
407.519	-503
407.596	-354
407.674	3
407.752	1087
407.830	2029
407.907	174
407.985	-1482
408.063	-380
408.141	-571
408.218	-260
408.296	-1741
408.373	-331
408.451	-758
408.529	-696
408.606	-288
408.684	-74
408.762	760
408.839	-576
408.917	-264
408.994	-636
409.072	-706
409.149	237
409.227	2463
409.304	3005
409.382	3063
409.459	3475
409.537	6324
409.614	3826
409.692	2410
409.769	2762
409.846	5708
409.924	7481
410.001	1286
410.079	1675
410.156	1983
410.233	668
410.311	-136
410.388	99
410.465	965
410.543	-583
410.620	1065
410.697	587
410.775	483
410.852	-278
410.929	1108
411.006	1634
411.083	-605
411.161	-897
411.238	186
411.315	-314
411.392	-188
411.469	727
411.547	-439
411.624	-1554
411.701	-747
411.778	-230
411.855	-935
411.932	-991
412.009	-790
412.086	129
412.163	-458
412.240	-922
412.317	-415
412.394	-779
412.471	277
412.548	-802
412.625	-40
412.702	-434
412.779	-968
412.856	-452
412.933	-1159
413.010	-502
413.087	-366
413.164	-736
413.241	-228
413.318	-1055
413.395	215
413.471	-196
413.548	88
413.625	195
413.702	-1477
413.779	-85
413.855	-566
413.932	-883
414.009	-1177
414.086	-420
414.162	-572
414.239	-488
414.316	260
414.393	816
414.469	-1827
414.546	-175
414.623	-532
414.699	-433
414.776	-675
414.853	-984
414.929	-133
415.006	-912
415.082	-380
415.159	-589
415.236	-2
415.312	285
415.389	-544
415.465	-472
415.542	-322
415.618	-1515
415.695	-89
415.771	-1091
415.848	-1108
415.924	-526
416.000	-471
416.077	-139
416.153	-1534
416.230	-1308
416.306	-999
416.383	-1141
416.459	609
416.535	-539
416.612	-731
416.688	-876
416.764	287
416.841	-499
416.917	-989
416.993	-52
417.069	-670
417.146	-1721
417.222	-872
417.298	-602
417.374	-978
417.451	-680
417.527	-630
417.603	-748
417.679	-465
417.755	-858
417.831	-1051
417.908	-1394
417.984	47
418.060	-1898
418.136	-390
418.212	-1699
418.288	-209
418.364	-532
418.440	-1767
418.516	-31
418.592	-392
418.668	-796
418.744	-1198
418.820	-747
418.896	-823
418.972	-1147
419.048	-820
419.124	107
419.200	-1359
419.276	-341
419.352	-922
419.428	-433
419.504	-712
419.579	-630
419.655	-616
419.731	610
419.807	-9
419.883	-861
419.959	-562
420.034	287
420.110	-391
420.186	-821
420.262	-67
420.337	76
420.413	6
420.489	222
420.565	622
420.640	-706
420.716	418
420.792	-1377
420.867	1391
420.943	-306
421.019	-380
421.094	-259
421.170	700
421.245	-149
421.321	1364
421.397	405
421.472	1344
421.548	2056
421.623	2083
421.699	2493
421.774	2529
421.850	2768
421.925	3603
422.001	3640
422.076	5086
422.152	6184
422.227	8751
422.302	13905
422.378	20221
422.453	33836
422.529	62602
422.604	106743
422.679	117140
422.755	100081
422.830	61639
422.905	35334
422.981	21744
423.056	14684
423.131	11534
423.207	8057
423.282	6309
423.357	5190
423.432	4580
423.508	3476
423.583	1931
423.658	2026
423.733	2689
423.808	2092
423.883	2402
423.959	1662
424.034	2842
424.109	3234
424.184	786
424.259	285
424.334	307
424.409	262
424.484	549
424.559	245
424.634	-440
424.709	-610
424.784	555
424.859	-18
424.934	-232
425.009	661
425.084	714
425.159	-480
425.234	-102
425.309	-941
425.384	78
425.459	-1672
425.534	749
425.609	-586
425.683	-157
425.758	-515
425.833	-397
425.908	62
425.983	-980
426.058	365
426.132	-197
426.207	89
426.282	491
426.357	-784
426.431	-299
426.506	303
426.581	-519
426.655	251
426.730	-817
426.805	-819
426.879	402
426.954	-1302
427.029	-637
427.103	175
427.178	375
427.253	-291
427.327	182
427.402	-607
427.476	-712
427.551	-434
427.625	-208
427.700	-403
427.774	-1076
427.849	-208
427.923	-1041
427.998	-482
428.072	-543
428.147	1297
428.221	9686
428.296	35111
428.370	16699
428.444	1399
428.519	56
428.593	-930
428.667	-459
428.742	324
428.816	3170
428.890	21167
428.965	30904
429.039	6807
429.113	264
429.188	-537
429.262	162
429.336	-58
429.410	-169
429.485	407
429.559	-231
429.633	-479
429.707	0
429.781	2869
429.855	19039
429.930	27489
430.004	5445
430.078	1878
430.152	10904
430.226	47762
430.300	43127
430.374	6723
430.448	1849
430.522	523
430.596	57
430.670	4720
430.744	26540
430.818	27036
430.892	3910
430.966	-59
431.040	341
431.114	-448
431.188	570
431.262	-605
431.336	-1126
431.410	-583
431.484	-1139
431.557	90
431.631	-773
431.705	134
431.779	8640
431.853	34228
431.927	21050
432.000	2280
432.074	392
432.148	-367
432.222	-439
432.295	-894
432.369	-438
432.443	-932
432.516	99
432.590	-404
432.664	-894
432.737	-1279
432.811	-442
432.885	-1161
432.958	-411
433.032	-1230
433.106	-1125
433.179	-265
433.253	-1109
433.326	-510
433.400	-817
433.473	-346
433.547	-1665
433.620	-369
433.694	-1397
433.767	-134
433.841	-844
433.914	-391
433.988	-1028
434.061	-628
434.134	-1208
434.208	-985
434.281	-903
434.355	-1037
434.428	-975
434.501	-746
434.575	-811
434.648	-1549
434.721	-1063
434.795	-975
434.868	-1298
434.941	-1396
435.014	-617
435.088	-1004
435.161	-360
435.234	357
435.307	-164
435.381	68
435.454	1022
435.527	2625
435.600	3533
435.673	1969
435.746	1072
435.819	-644
435.892	-176
435.966	74
436.039	83
436.112	-410
436.185	-553
436.258	-753
436.331	-1296
436.404	-1039
436.477	-502
436.550	-940
436.623	-1077
436.696	-1203
436.769	-559
436.842	-943
436.915	-1263
436.987	-1307
437.060	-1254
437.133	-810
437.206	-1104
437.279	48
437.352	-304
437.425	-1334
437.498	-390
437.570	-989
437.643	-1058
437.716	-845
437.789	-1166
437.861	-737
437.934	-1493
438.007	-1329
438.080	-690
438.152	-929
438.225	-469
438.298	24
438.370	872
438.443	275
438.516	-699
438.588	-1111
438.661	-480
438.734	-618
438.806	-988
438.879	-783
438.951	-1169
439.024	-1367
439.096	-1123
439.169	-912
439.241	-793
439.314	-1346
439.386	-1266
439.459	-1082
439.531	-895
439.604	-1600
439.676	-800
439.749	-1033
439.821	-725
439.893	-903
439.966	-716
440.038	-803
440.110	-556
440.183	-1080
440.255	-1516
440.327	-420
440.400	-560
440.472	478
440.544	-502
440.617	-1034
440.689	139
440.761	-272
440.833	-559
440.905	-158
440.978	-485
441.050	-600
441.122	298
441.194	-1253
441.266	-641
441.338	-791
441.411	-458
441.483	-60
441.555	112
441.627	-657
441.699	-838
441.771	-741
441.843	-890
441.915	-399
441.987	-717
442.059	-1235
442.131	-981
442.203	129
442.275	-78
442.347	833
442.419	4158
442.491	24796
442.563	53422
442.635	18726
442.706	2287
442.778	671
442.850	306
442.922	360
442.994	-250
443.066	-282
443.137	808
443.209	424
443.281	2957
443.353	6188
443.425	28800
443.496	87848
443.568	85865
443.640	31066
443.711	5379
443.783	2195
443.855	1202
443.926	315
443.998	-52
444.070	-207
444.141	-394
444.213	-317
444.285	-264
444.356	-358
444.428	-81
444.499	-492
444.571	-382
444.642	-77
444.714	55
444.785	-827
444.857	74
444.928	-523
445.000	201
445.071	1176
445.143	1058
445.214	2173
445.285	4310
445.357	14379
445.428	57593
445.500	109017
445.571	76658
445.642	48366
445.714	15006
445.785	5066
445.856	952
445.928	799
445.999	235
446.070	-473
446.141	-83
446.213	-619
446.284	154
446.355	-324
446.426	-320
446.497	-1269
446.569	-637
446.640	-739
446.711	-204
446.782	-299
446.853	-1093
446.924	-410
446.995	-387
447.066	-612
447.138	-1028
447.209	656
447.280	-1452
447.351	-1007
447.422	-755
447.493	-1014
447.564	-1054
447.635	-1334
447.706	-1009
447.777	-1219
447.847	-874
447.918	-1100
447.989	-1018
448.060	-288
448.131	-266
448.202	-1388
448.273	-1506
448.344	-895
448.414	-1025
448.485	-1183
448.556	-731
448.627	-664
448.698	919
448.768	-1482
448.839	-797
448.910	-1494
448.981	-454
449.051	-859
449.122	-336
449.193	-720
449.263	-572
449.334	-1282
449.405	-1415
449.475	-890
449.546	-860
449.616	-755
449.687	-733
449.758	-1197
449.828	-1629
449.899	-1312
449.969	-566
450.040	-1028
450.110	-743
450.181	-602
450.251	-515
450.322	-938
450.392	-886
450.463	-1428
450.533	-505
450.604	-919
450.674	-1495
450.744	141
450.815	-1904
450.885	-667
450.955	-316
451.026	5
451.096	-1321
451.166	-663
451.237	-350
451.307	-64
451.377	-639
451.447	-1068
451.518	-1356
451.588	-626
451.658	-282
451.728	-1605
451.799	-1018
451.869	-60
451.939	-943
452.009	-934
452.079	-642
452.149	-616
452.219	-722
452.289	-483
452.360	-610
452.430	-171
452.500	-334
452.570	244
452.640	3853
452.710	8794
452.780	8630
452.850	3910
452.920	535
452.990	641
453.060	443
453.129	-1250
453.199	-1291
453.269	-176
453.339	-125
453.409	-75
453.479	471
453.549	-363
453.619	-205
453.688	-1806
453.758	-207
453.828	-556
453.898	-479
453.968	-1416
454.037	-810
454.087	-1364
454.107	-1602
454.168	-1070
454.177	-1010
454.247	-755
454.249	-754
454.316	-1159
454.330	-1085
454.386	-858
454.411	-1051
454.456	-1465
454.492	-812
454.525	-235
454.574	-307
454.595	-357
454.655	-850
454.665	-945
454.734	-223
454.736	-226
454.804	-951
454.817	-742
454.873	54
454.898	-98
454.943	-387
454.979	-384
455.013	-419
455.060	-231
455.082	-188
455.141	-525
455.152	-591
455.221	-299
455.222	-289
455.291	-484
455.303	-429
455.360	-375
455.384	-151
455.430	216
455.465	323
455.499	378
455.546	-383
455.569	-769
455.627	-470
455.638	-433
455.707	-243
455.708	-235
455.777	-407
455.789	-310
455.846	-51
455.869	-135
455.916	-227
455.950	-172
455.985	-206
456.031	-78
456.054	9
456.112	366
456.124	419
456.193	-135
456.193	-152
456.262	93
456.274	135
456.332	314
456.355	328
456.401	427
456.436	313
456.470	29
456.516	184
456.540	344
456.597	342
456.609	302
456.678	437
456.678	421
456.747	202
456.759	216
456.817	318
456.840	432
456.886	683
456.920	644
456.955	648
457.001	852
457.024	869
457.082	804
457.093	744
457.162	554
457.163	570
457.232	550
457.243	567
457.301	633
457.324	884
457.370	1447
457.405	1463
457.439	1363
457.485	1311
457.508	1424
457.566	2105
457.577	2388
457.646	4013
457.647	4062
457.715	12495
457.727	14484
457.784	27459
457.808	34567
457.853	38826
457.889	41803
457.922	37577
457.969	23972
457.991	27174
458.050	40585
458.060	42990
458.129	70782
458.130	71641
458.198	53087
458.211	46064
458.267	23272
458.292	14424
458.336	11105
458.372	11742
458.405	19933
458.453	33213
458.474	43422
458.533	77702
458.543	79027
458.611	101567
458.614	102013
458.680	47130
458.694	33631
458.749	15640
458.775	10485
458.818	6767
458.855	5627
458.887	4819
458.936	3118
458.955	2746
459.016	2703
459.024	2698
459.093	2791
459.097	2776
459.162	2441
459.177	2459
459.230	2115
459.257	2007
459.299	2233
459.338	2486
459.368	2383
459.418	1970
459.437	1894
459.499	1495
459.505	1464
459.574	2008
459.579	2049
459.643	2187
459.659	2154
459.711	2329
459.740	2250
459.780	1774
459.820	1787
459.849	1946
459.900	1936
459.917	1928
459.981	2325
459.986	2310
460.054	1238
460.061	1252
460.123	1996
460.141	2028
460.191	2017
460.222	2175
460.260	2350
460.302	2034
460.328	1836
460.382	2357
460.397	2535
460.462	2549
460.465	2565
460.534	3783
460.543	3852
460.602	7966
460.623	9633
460.671	14311
460.703	18472
460.739	15787
460.783	10859
460.808	9019
460.864	3414
460.876	3056
460.944	2357
460.945	2345
461.013	2465
461.024	2395
461.081	2425
461.104	2575
461.150	2702
461.184	2809
461.218	2838
461.264	2608
461.286	2446
461.345	1996
461.355	1981
461.423	2211
461.425	2208
461.491	1563
461.505	1690
461.559	2779
461.585	2915
461.628	2914
461.665	2912
461.696	3030
461.745	3251
461.764	3125
461.825	2556
461.832	2574
461.901	3199
461.905	3237
461.969	2729
461.985	2471
462.037	2956
462.065	3455
462.105	3098
462.145	2704
462.173	2995
462.225	3301
462.241	3034
462.305	2214
462.310	2266
462.378	2718
462.385	2839
462.446	2767
462.465	2594
462.514	2788
462.545	2981
462.582	2810
462.625	2632
462.650	2682
462.705	2757
462.718	2702
462.785	2624
462.786	2628
462.854	2371
462.865	2358
462.922	2679
462.945	2848
462.990	2741
463.025	2647
463.058	2708
463.104	2654
463.126	2534
463.184	2645
463.194	2789
463.262	2974
463.264	3003
463.330	3128
463.344	3056
463.398	3327
463.424	3455
463.466	2824
463.504	2555
463.533	3010
463.583	3290
463.601	3231
463.663	3290
463.669	3248
463.737	2580
463.743	2519
463.805	2727
463.823	2817
463.873	3292
463.903	3547
463.940	3229
463.982	2861
464.008	2946
464.062	3057
464.076	3040
464.142	3057
464.144	3052
464.211	2515
464.221	2440
464.279	2849
464.301	3047
464.347	3039
464.381	2956
464.414	2914
464.461	3055
464.482	3045
464.540	2790
464.550	2850
464.617	3006
464.620	3021
464.685	2850
464.699	2737
464.753	2977
464.779	3185
464.820	3040
464.859	2811
464.888	2404
464.938	1763
464.956	2312
465.018	4032
465.023	4037
465.091	4289
465.098	4299
465.158	3487
465.177	3239
465.226	3483
465.257	3567
465.293	3400
465.336	3187
465.361	3468
465.416	4117
465.428	3983
465.495	3336
465.496	3346
465.563	3589
465.575	3668
465.631	3799
465.654	3869
465.698	3884
465.734	3739
465.765	3373
465.813	2842
465.833	2912
465.893	3166
465.900	3242
465.968	3838
465.972	3873
466.035	3295
466.052	3118
466.102	3284
466.131	3388
466.170	3391
466.210	3328
466.237	3304
466.290	3310
466.304	3349
466.369	3405
466.372	3416
466.439	3588
466.449	3592
466.506	3749
466.528	3832
466.573	3833
466.607	3756
466.641	4069
466.687	4535
466.708	4687
466.766	5064
466.775	4949
466.842	3970
466.845	3917
466.909	3483
466.925	3371
466.977	4460
467.004	5034
467.044	4740
467.083	4400
467.111	4476
467.163	4618
467.178	4529
467.242	4108
467.245	4129
467.312	4425
467.321	4458
467.379	3979
467.400	3793
467.446	4714
467.480	5369
467.559	5138
467.638	4860
467.717	3950
467.796	5235
467.875	5227
467.955	5464
468.034	5787
468.113	7487
468.192	8843
468.271	10764
468.350	15637
468.429	24847
468.508	26552
468.588	14996
468.667	8732
468.746	7252
468.825	6209
468.904	5206
468.983	5171
469.062	5924
469.141	5345
469.220	5059
469.299	4604
469.378	3432
469.456	4498
469.535	4540
469.614	4142
469.693	4459
469.772	5523
469.851	4473
469.930	4794
470.009	5564
470.088	7385
470.166	10219
470.245	17947
470.324	21564
470.403	11250
470.482	7397
470.560	6380
470.639	5225
470.718	4786
470.797	4920
470.875	4990
470.954	4437
471.033	4427
471.111	5010
471.190	4308
471.269	4033
471.347	3893
471.426	4524
471.505	4358
471.583	4588
471.662	4238
471.740	4662
471.819	4601
471.898	4888
471.976	4164
472.055	4138
472.133	4382
472.212	5245
472.290	3923
472.369	4298
472.447	4034
472.526	4495
472.604	4046
472.683	5152
472.761	4144
472.839	4241
472.918	4702
472.996	4613
473.075	4328
473.153	4263
473.231	4118
473.310	5196
473.388	4321
473.466	5019
473.545	4968
473.623	4613
473.701	4703
473.780	5824
473.858	3081
473.936	6966
474.014	4262
474.093	5007
474.171	4562
474.249	5999
474.327	4913
474.405	4323
474.484	5036
474.562	4972
474.640	3655
474.718	4846
474.796	5264
474.874	5632
474.952	4106
475.030	4435
475.108	5093
475.187	4782
475.265	4963
475.343	5213
475.421	4417
475.499	4667
475.577	3685
475.655	5322
475.733	4959
475.811	5031
475.889	4579
475.966	4914
476.044	3965
476.122	5108
476.200	4378
476.278	4686
476.356	4175
476.434	4519
476.512	4795
476.590	5436
476.667	4797
476.745	4498
476.823	4552
476.901	5541
476.979	4015
477.056	4773
477.134	3986
477.212	4699
477.290	4875
477.367	4552
477.445	4001
477.523	4597
477.601	3696
477.678	4558
477.756	4491
477.834	4260
477.911	3445
477.989	4054
478.066	3428
478.144	4948
478.222	4076
478.299	4754
478.377	4219
478.454	4294
478.532	4121
478.609	4815
478.687	3740
478.764	3400
478.842	4314
478.919	4045
478.997	4897
479.074	4643
479.152	3971
479.229	4361
479.307	3209
479.384	4156
479.461	5017
479.539	4409
479.616	3764
479.694	4576
479.771	4399
479.848	3748
479.926	2863
480.003	5773
480.080	4344
480.157	4655
480.235	3708
480.312	4315
480.389	4415
480.467	3408
480.544	4752
480.621	5004
480.698	5334
480.775	4870
480.853	5147
480.930	5435
481.007	4983
481.084	5362
481.161	5609
481.238	5435
481.315	3783
481.392	4212
481.470	4809
481.547	4563
481.624	4174
481.701	4255
481.778	4945
481.855	4727
481.932	5990
482.009	6514
482.086	6361
482.163	7933
482.240	8998
482.317	8078
482.393	6579
482.470	6925
482.547	6366
482.624	5440
482.701	5316
482.778	5006
482.855	5069
482.932	5225
483.009	6280
483.085	7576
483.162	7921
483.239	8745
483.316	8593
483.393	9047
483.469	6771
483.546	7272
483.623	6032
483.699	4584
483.776	4331
483.853	5208
483.930	4747
484.006	5074
484.083	7079
484.160	5668
484.236	5611
484.313	5068
484.389	5156
484.466	7731
484.543	7736
484.619	11710
484.696	15063
484.772	9186
484.849	6947
484.925	5788
485.002	5642
485.078	5613
485.155	4105
485.231	3870
485.308	4798
485.384	4894
485.461	4928
485.537	4333
485.614	5134
485.690	5142
485.766	3986
485.843	4870
485.919	5588
485.995	4750
486.072	4807
486.148	5665
486.224	4483
486.301	4169
486.377	5149
486.453	3815
486.530	4688
486.606	6760
486.682	4785
486.758	6043
486.835	5454
486.911	4561
486.987	6720
487.063	7142
487.139	7487
487.215	9306
487.292	11503
487.368	12439
487.444	14824
487.520	21423
487.596	30971
487.672	83733
487.748	274690
487.824	380178
487.900	93256
487.976	25369
488.052	14421
488.128	10995
488.204	7304
488.280	8260
488.356	6983
488.432	6714
488.508	7159
488.584	5389
488.660	5636
488.736	5581
488.812	4025
488.888	5553
488.964	4946
489.039	6515
489.115	6051
489.191	5751
489.267	5115
489.343	4082
489.418	4792
489.494	4074
489.570	4038
489.646	5944
489.722	4712
489.797	4414
489.873	5274
489.949	5560
490.024	4771
490.100	4477
490.176	4858
490.251	4397
490.327	4357
490.403	5213
490.478	4297
490.554	5174
490.629	4592
490.705	4803
490.781	4629
490.856	4636
490.932	4117
491.007	5012
491.083	4470
491.158	4676
491.234	5057
491.309	5019
491.385	3619
491.460	4339
491.536	5589
491.611	3511
491.686	4438
491.762	4040
491.837	4597
491.913	5019
491.988	6305
492.063	4698
492.139	5691
492.214	4230
492.289	4502
492.365	4129
492.440	4776
492.515	3661
492.590	3485
492.666	4272
492.741	4855
492.816	4498
492.891	3714
492.967	4838
493.042	4492
493.117	3707
493.192	4673
493.267	4491
493.342	4832
493.418	6482
493.493	4563
493.568	4372
493.643	4546
493.718	5230
493.793	4405
493.868	5134
493.943	3079
494.018	5265
494.093	4059
494.168	5032
494.243	4051
494.318	4683
494.393	4759
494.468	3592
494.543	4303
494.618	4962
494.693	4173
494.768	4562
494.842	5180
494.917	6008
494.992	5116
495.067	5070
495.142	3809
495.217	4977
495.292	4541
495.366	4184
495.441	3738
495.516	5719
495.591	4752
495.665	5583
495.740	7792
495.815	5562
495.890	4347
495.964	3409
496.039	6908
496.114	4870
496.188	6487
496.263	6100
496.338	4910
496.412	4120
496.487	5341
496.561	5806
496.636	4727
496.710	5801
496.785	4412
496.860	4680
496.934	4578
497.009	5980
497.083	4386
497.158	4893
497.232	6157
497.307	6024
497.381	6688
497.455	6875
497.530	5663
497.604	4994
497.679	5023
497.753	5720
497.827	4283
497.902	5651
497.976	5773
498.050	7432
498.125	13762
498.199	11949
498.273	6496
498.348	5965
498.422	6749
498.496	7532
498.570	7728
498.645	4613
498.719	3483
498.793	5470
498.867	4874
498.941	4807
499.016	6894
499.090	12779
499.164	6556
499.238	5681
499.312	5009
499.386	6548
499.460	6350
499.534	7935
499.609	8368
499.683	5906
499.757	4860
499.831	4815
499.905	9265
499.979	7014
500.053	4301
500.127	5477
500.201	4048
500.275	6117
500.349	5528
500.422	5817
500.496	7592
500.570	8823
500.644	12585
500.718	13462
500.792	4576
500.866	4628
500.940	3455
501.013	3431
501.087	2160
501.161	4131
501.235	2845
501.309	6285
501.382	6382
501.456	6814
501.530	3278
501.603	3169
501.677	3115
501.751	1947
501.825	4891
501.898	3495
501.972	4716
502.046	2978
502.119	2880
502.193	3556
502.266	3153
502.340	4093
502.413	3542
502.487	4640
502.561	2290
502.634	3372
502.708	4477
502.781	3157
502.855	4983
502.928	2418
503.002	3836
503.075	2950
503.149	3308
503.222	3250
503.295	3488
503.369	4952
503.442	4347
503.516	6291
503.589	8442
503.662	7546
503.736	8246
503.809	11641
503.882	12996
503.956	21378
504.029	47291
504.102	150022
504.175	196226
504.249	57647
504.322	19906
504.395	11910
504.468	7884
504.542	4626
504.615	4040
504.688	5576
504.761	2013
504.834	4371
504.907	2953
504.980	5109
505.053	2574
505.127	590
505.200	5663
505.273	2576
505.346	2236
505.419	2454
505.492	3937
505.565	2653
505.638	2987
505.711	2367
505.784	1795
505.857	3029
505.930	4035
506.003	615
506.076	4544
506.149	1889
506.221	1027
506.294	4141
506.367	1076
506.440	3956
506.513	3052
506.586	3291
506.659	1186
506.731	2690
506.804	1771
506.877	2125
506.950	2805
507.022	3020
507.095	552
507.168	2280
507.241	2944
507.313	2353
507.386	1181
507.459	3405
507.531	1737
507.604	1911
507.677	3240
507.749	1425
507.822	2485
507.894	2210
507.967	2612
508.040	1308
508.112	2486
508.185	3114
508.257	1025
508.330	4399
508.402	1931
508.475	2246
508.547	3054
508.620	2820
508.692	2606
508.765	3104
508.837	2201
508.909	3030
508.982	2646
509.054	3404
509.127	1583
509.199	1975
509.271	1114
509.344	2719
509.416	2511
509.488	2615
509.560	3210
509.633	1692
509.705	1219
509.777	2053
509.849	2820
509.922	1578
509.994	1218
510.066	2880
510.138	50
510.210	4966
510.283	2053
510.355	2177
510.427	2564
510.499	2457
510.571	2953
510.643	1042
510.715	3436
510.787	770
510.859	2869
510.931	1809
511.003	3539
511.076	3638
511.148	1254
511.219	2098
511.291	3239
511.363	2866
511.435	2013
511.507	1728
511.579	2434
511.651	3059
511.723	3125
511.795	1979
511.867	2616
511.939	3018
512.010	1251
512.082	3285
512.154	579
512.226	2427
512.298	3404
512.369	2468
512.441	2906
512.513	2508
512.585	1146
512.656	2906
512.728	1798
512.800	2568
512.871	3598
512.943	2869
513.015	1042
513.086	2796
513.158	2201
513.230	1559
513.301	1288
513.373	2998
513.444	2584
513.516	2538
513.588	3113
513.659	2850
513.731	2764
513.802	1503
513.874	3682
513.945	2246
514.016	1282
514.088	2681
514.159	1435
514.231	4081
514.302	1985
514.374	3491
514.445	349
514.516	4616
514.588	1643
514.659	1995
514.730	1785
514.802	3758
514.873	273
514.944	5046
515.016	3110
515.087	3209
515.158	2190
515.229	3911
515.301	1883
515.372	3477
515.443	1597
515.514	1895
515.585	1522
515.656	3798
515.728	4128
515.799	2656
515.870	3237
515.941	3967
516.012	2409
516.083	5456
516.154	4559
516.225	7325
516.296	9282
516.367	9502
516.438	11309
516.509	13916
516.580	25543
516.651	104035
516.722	314551
516.793	80350
516.864	19797
516.935	18924
517.006	24165
517.077	31425
517.148	85842
517.219	427076
517.289	488492
517.360	51157
517.431	16962
517.502	10366
517.573	10872
517.643	9838
517.714	8949
517.785	12089
517.856	12431
517.926	18070
517.997	21395
518.068	26553
518.138	37064
518.209	67473
518.280	275938
518.350	828364
518.421	224563
518.492	39204
518.562	25934
518.633	29351
518.703	38915
518.774	96284
518.845	260006
518.915	200934
518.986	46073
519.056	20647
519.127	14304
519.197	11403
519.268	8860
519.338	8248
519.408	5442
519.479	4656
519.549	3895
519.620	5807
519.690	3105
519.760	3915
519.831	3834
519.901	3083
519.971	3961
520.042	2441
520.112	1937
520.182	2955
520.253	2614
520.323	2783
520.393	640
520.463	4488
520.534	-252
520.604	5016
520.674	3213
520.744	2353
520.814	1890
520.885	3249
520.955	2660
521.025	4587
521.095	1528
521.165	4656
521.235	1610
521.305	2173
521.375	3152
521.445	3687
521.515	1241
521.585	3610
521.655	467
521.725	3429
521.795	4002
521.865	43
521.935	4446
522.005	2971
522.075	2146
522.145	3989
522.215	1310
522.285	2900
522.355	2585
522.424	3845
522.494	2198
522.564	2646
522.634	3164
522.704	5681
522.774	1970
522.843	2386
522.913	2843
522.983	2214
523.053	1775
523.122	4313
523.192	1517
523.262	2841
523.331	2699
523.401	3727
523.471	2910
523.540	3360
523.610	2030
523.680	3330
523.749	3462
523.819	3255
523.888	2493
523.958	2980
524.027	2939
524.097	3024
524.166	3552
524.236	1674
524.305	4853
524.375	2665
524.444	2425
524.514	4969
524.583	1988
524.653	2359
524.722	3726
524.791	2163
524.861	4661
524.930	2115
524.999	2296
525.069	4800
525.138	3420
525.207	3475
525.277	4793
525.346	4862
525.415	5738
525.484	6369
525.554	6099
525.623	9496
525.692	10629
525.761	13858
525.830	17184
525.900	24172
525.969	39848
526.038	75715
526.107	172906
526.176	454077
526.245	288300
526.314	87746
526.383	235929
526.452	269604
526.522	450220
526.591	311636
526.660	47726
526.729	33476
526.797	37422
526.867	55701
526.935	180228
527.004	665241
527.073	302116
527.142	37353
527.211	17911
527.280	12954
527.349	9283
527.418	6714
527.487	6811
527.555	4566
527.624	4291
527.693	3896
527.762	5186
527.831	3311
527.899	4731
527.968	4137
528.037	2287
528.106	4420
528.174	4195
528.243	4457
528.312	4427
528.380	3002
528.449	1735
528.518	5052
528.586	1518
528.655	5368
528.723	2843
528.792	2539
528.861	1491
528.929	1900
528.998	3990
529.066	3316
529.135	3704
529.203	2652
529.272	2463
529.340	4897
529.409	5114
529.477	2900
529.545	2585
529.614	5366
529.682	1363
529.751	3875
529.819	5740
529.887	3968
529.956	3007
530.024	5054
530.092	2509
530.161	4862
530.229	4070
530.297	3922
530.365	4772
530.434	3902
530.502	2938
530.570	4840
530.638	3289
530.707	4513
530.775	5002
530.843	3464
530.911	3947
530.979	4916
531.047	3839
531.115	3733
531.183	3926
531.252	4349
531.320	4491
531.388	3162
531.456	4791
531.524	3463
531.592	5518
531.660	6634
531.728	3463
531.796	4570
531.864	4059
531.932	4085
532.000	4375
532.067	4455
532.135	5568
532.203	6496
532.271	3913
532.339	6698
532.407	5487
532.475	6083
532.542	5042
532.610	5787
532.678	4087
532.746	8105
532.814	9251
532.881	6585
532.949	5859
533.017	5695
533.084	4967
533.152	4658
533.220	4807
533.287	4181
533.355	5488
533.423	6747
533.490	4554
533.558	5153
533.625	4772
533.693	5242
533.761	5143
533.828	6177
533.896	4016
533.963	6907
534.031	6533
534.098	7877
534.166	8829
534.233	7164
534.300	11129
534.368	10443
534.435	9695
534.503	11173
534.570	12251
534.637	14258
534.705	15683
534.772	21223
534.840	44139
534.907	209373
534.974	190382
535.041	20756
535.109	11424
535.176	8895
535.243	9257
535.310	8642
535.378	7763
535.445	8525
535.512	8867
535.579	8808
535.646	6835
535.714	8154
535.781	8637
535.848	9955
535.915	8900
535.982	7453
536.049	7967
536.116	9414
536.183	7179
536.250	7629
536.317	7644
536.384	9307
536.451	8792
536.518	8560
536.585	6532
536.652	10416
536.719	8864
536.786	6359
536.853	7907
536.920	9263
536.987	7860
537.053	7694
537.120	11037
537.187	10148
537.254	8318
537.321	8325
537.388	10821
537.454	8643
537.521	8495
537.588	9041
537.654	9157
537.721	8851
537.788	10961
537.855	8445
537.921	9626
537.988	8897
538.055	9596
538.121	8089
538.188	8347
538.254	8228
538.321	8682
538.388	9328
538.454	9694
538.521	10322
538.587	10209
538.654	10163
538.720	8355
538.787	9855
538.853	8686
538.920	9298
538.986	7455
539.053	8441
539.119	8925
539.185	8135
539.252	10247
539.318	8467
539.385	11086
539.451	8245
539.517	9558
539.583	9150
539.650	8899
539.716	9707
539.782	7348
539.849	9038
539.915	8093
539.981	7983
540.047	8540
540.114	8502
540.180	10232
540.246	8745
540.312	9478
540.378	9434
540.444	9795
540.510	9838
540.576	10570
540.643	8501
540.709	7685
540.775	8727
540.841	8646
540.907	10251
540.973	8850
541.039	8865
541.105	8819
541.171	10084
541.237	9579
541.303	10532
541.369	11053
541.435	10304
541.500	9065
541.566	7574
541.632	8570
541.698	8640
541.764	10901
541.830	9003
541.896	7559
541.961	9185
542.027	7681
542.093	10453
542.159	10278
542.224	7460
542.290	9624
542.356	8807
542.421	9590
542.487	10248
542.553	7717
542.618	8119
542.684	8573
542.750	8538
542.815	9296
542.881	8248
542.947	10826
543.012	11040
543.078	7915
543.143	8352
543.209	9374
543.274	8692
543.340	9198
543.405	9491
543.471	8853
543.536	9559
543.602	9540
543.667	8008
543.732	10958
543.798	8444
543.863	10099
543.928	8827
543.994	8793
544.059	10192
544.124	10304
544.190	9708
544.255	9994
544.320	10736
544.386	9397
544.451	10557
544.516	10690
544.581	9785
544.646	11003
544.712	12076
544.777	10935
544.842	11330
544.907	9662
544.972	11294
545.037	10774
545.102	12154
545.168	11666
545.233	11331
545.298	11510
545.363	11010
545.428	12102
545.493	14068
545.558	12728
545.623	13066
545.688	12333
545.753	12663
545.818	13436
545.883	15866
545.947	14447
546.012	16061
546.077	14983
546.142	18309
546.207	17349
546.272	19174
546.337	18679
546.401	19480
546.466	20353
546.531	20293
546.596	23237
546.661	23636
546.725	25377
546.790	26313
546.855	29870
546.919	32337
546.984	36199
547.049	39343
547.113	45054
547.178	48480
547.243	56053
547.307	66324
547.372	71301
547.436	71522
547.501	76296
547.565	82095
547.630	73155
547.695	71096
547.759	70555
547.823	72892
547.888	73926
547.952	77501
548.017	79272
548.081	81004
548.146	79395
548.210	82671
548.274	90531
548.339	85515
548.403	78175
548.468	74284
548.532	74482
548.596	75612
548.660	75481
548.725	84507
548.789	89230
548.853	85984
548.917	83539
548.982	80571
549.046	71808
549.110	65095
549.174	69313
549.238	81342
549.303	88387
549.367	89925
549.431	84413
549.495	78999
549.559	80863
549.623	95042
549.687	101370
549.751	99319
549.815	121437
549.879	120594
549.943	116444
550.007	121814
550.071	118738
550.135	105004
550.199	101973
550.263	100774
550.327	94455
550.391	97642
550.455	108817
550.519	117197
550.582	122657
550.646	139447
550.710	138145
550.774	135763
550.838	138246
550.901	142615
550.965	151643
551.029	157094
551.093	165586
551.156	180589
551.220	202326
551.284	220573
551.347	167092
551.411	144770
551.475	141837
551.538	149505
551.602	138092
551.666	132247
551.729	123284
551.793	122866
551.856	119764
551.920	117813
551.983	118822
552.047	117575
552.110	116837
552.174	119561
552.237	122374
552.301	113215
552.364	109061
552.428	105167
552.491	110526
552.554	111563
552.618	111293
552.681	115598
552.745	111034
552.808	126809
552.871	134829
552.934	119870
552.998	113307
553.061	109707
553.124	106152
553.187	104427
553.251	107054
553.314	107106
553.377	109159
553.440	115992
553.503	118269
553.567	118556
553.630	117108
553.693	117457
553.756	117587
553.819	117546
553.882	113252
553.945	114295
554.008	113419
554.071	115591
554.134	115274
554.197	109809
554.260	109278
554.323	111297
554.386	111771
554.449	114523
554.512	113319
554.575	109023
554.638	108618
554.701	108027
554.764	106443
554.827	102797
554.889	99846
554.952	94320
555.015	92489
555.078	94099
555.141	94480
555.203	92201
555.266	91380
555.329	93761
555.391	87572
555.454	87608
555.517	82626
555.580	79941
555.642	76656
555.705	75526
555.768	75029
555.830	74154
555.893	68939
555.955	68125
556.018	66048
556.080	67283
556.143	69295
556.206	67832
556.268	64572
556.330	63332
556.393	61981
556.455	61500
556.518	59477
556.580	56501
556.643	54160
556.705	54878
556.767	51478
556.830	52359
556.892	50230
556.955	50608
557.017	48273
557.079	48719
557.142	47027
557.204	46907
557.266	45856
557.328	42329
557.391	39239
557.453	39621
557.515	39127
557.577	40729
557.639	40106
557.701	39902
557.764	38706
557.826	40771
557.888	42168
557.950	43215
558.012	48049
558.074	64892
558.136	141798
558.198	261958
558.260	76133
558.322	44349
558.384	45117
558.446	47976
558.508	51056
558.570	57049
558.632	64910
558.694	83383
558.756	142849
558.818	408272
558.880	697871
558.942	248257
559.003	284702
559.065	109360
559.127	55150
559.189	53300
559.251	62035
559.312	93858
559.374	223351
559.436	555765
559.498	206684
559.559	59328
559.621	53212
559.683	65492
559.744	111208
559.806	333450
559.868	361846
559.929	72643
559.991	60633
560.052	107566
560.114	268753
560.176	135199
560.237	167163
560.299	206301
560.360	38981
560.422	22998
560.483	19670
560.545	19203
560.606	17878
560.667	17149
560.729	16038
560.790	16089
560.852	15529
560.913	15298
560.974	15220
561.036	14579
561.097	14627
561.158	14819
561.220	13917
561.281	13740
561.342	12838
561.403	13237
561.465	12073
561.526	13969
561.587	13742
561.648	12095
561.709	12077
561.771	12824
561.832	11718
561.893	11631
561.954	11925
562.015	10930
562.076	11118
562.137	11102
562.198	10571
562.259	11959
562.320	11304
562.381	11103
562.442	10980
562.503	10888
562.564	9903
562.625	10362
562.686	9564
562.747	10401
562.808	10324
562.869	9804
562.930	9620
562.991	9851
563.051	9041
563.112	9347
563.173	9172
563.234	9253
563.294	9170
563.355	8847
563.416	8872
563.477	8976
563.537	7872
563.598	9270
563.659	8297
563.720	8433
563.780	8594
563.841	9247
563.901	9397
563.962	9351
564.023	8297
564.083	8197
564.144	8593
564.204	8025
564.265	8730
564.325	8404
564.386	8046
564.446	8094
564.507	7412
564.567	8517
564.628	7522
564.688	7610
564.749	7408
564.809	7727
564.869	7258
564.930	8185
564.990	8080
565.050	8064
565.111	7327
565.171	8127
565.231	7449
565.292	9566
565.352	7015
565.412	8519
565.472	7037
565.532	7343
565.593	8058
565.653	7698
565.713	7498
565.773	8729
565.833	7601
565.893	8462
565.953	7371
566.013	7241
566.074	7652
566.134	7828
566.194	6747
566.254	6896
566.314	6804
566.374	7737
566.434	6917
566.494	7270
566.554	7106
566.614	7304
566.673	8241
566.733	7671
566.793	7636
566.853	7323
566.913	7826
566.973	6948
567.033	7128
567.092	7326
567.152	7518
567.212	7975
567.272	7765
567.331	8083
567.391	7923
567.451	9460
567.511	8419
567.570	8223
567.630	8395
567.690	8211
567.749	7564
567.809	6943
567.868	6820
567.928	7624
567.988	7358
568.047	7666
568.107	7859
568.166	8577
568.226	7448
568.285	8371
568.345	8048
568.404	8457
568.464	6811
568.523	8552
568.582	8578
568.642	7518
568.701	6383
568.761	6482
568.820	7463
568.879	7547
568.939	8066
568.998	7419
569.057	7250
569.116	8075
569.176	7034
569.235	7529
569.294	7190
569.353	7345
569.413	7066
569.472	7536
569.531	6347
569.590	7433
569.649	7298
569.708	7076
569.767	7599
569.827	7749
569.886	6204
569.945	7352
570.004	6756
570.063	7269
570.122	6980
570.181	8079
570.240	7333
570.299	7943
570.358	7560
570.417	7774
570.475	8240
570.534	8138
570.593	7272
570.652	7636
570.711	8076
570.770	7715
570.829	7621
570.887	7144
570.946	7823
571.005	8406
571.064	8463
571.122	8974
571.181	6807
571.240	7288
571.299	6138
571.357	7378
571.416	7561
571.475	7668
571.533	8013
571.592	8654
571.650	8080
571.709	9090
571.768	9048
571.826	8995
571.885	8147
571.943	8849
572.002	5951
572.060	7516
572.119	7318
572.177	7747
572.236	7535
572.294	7626
572.352	8462
572.411	8176
572.469	7138
572.528	7924
572.586	7189
572.644	6828
572.703	7784
572.761	7583
572.819	6480
572.877	6100
572.936	6925
572.994	7058
573.052	6375
573.110	7686
573.169	7106
573.227	7128
573.285	7025
573.343	6800
573.401	6982
573.459	6307
573.517	7058
573.576	8163
573.634	7470
573.692	7748
573.750	6913
573.808	6393
573.866	6504
573.924	6119
573.982	6995
574.040	7211
574.098	6331
574.155	6345
574.213	7009
574.271	6449
574.329	6670
574.387	5374
574.445	6127
574.503	6976
574.560	5186
574.618	5793
574.676	5979
574.734	5999
574.792	5995
574.849	5440
574.907	5704
574.965	4943
575.022	4913
575.080	4248
575.138	4957
575.195	4785
575.253	4549
575.311	5248
575.368	4925
575.426	5297
575.483	5601
575.541	6023
575.598	4688
575.656	4396
575.713	5393
575.771	5799
575.828	4849
575.886	4635
575.943	5158
576.001	4010
576.058	3589
576.115	4924
576.173	5572
576.230	4541
576.287	5978
576.345	4999
576.402	5205
576.459	4909
576.517	4722
576.574	4634
576.631	4779
576.688	4299
576.746	4294
576.803	4331
576.860	4500
576.917	4754
576.974	4467
577.031	5556
577.089	4452
577.146	4817
577.203	3960
577.260	5314
577.317	4363
577.374	4875
577.431	4419
577.488	4207
577.545	3953
577.602	4858
577.659	4367
577.716	4860
577.773	3686
577.830	4024
577.886	5169
577.943	4642
578.000	4195
578.057	3795
578.114	4064
578.171	5001
578.227	3947
578.284	4229
578.341	4973
578.398	4323
578.454	4355
578.511	4723
578.568	4725
578.625	3852
578.681	3654
578.738	4145
578.794	4843
578.851	4910
578.908	3535
578.964	3600
579.021	4675
579.077	4170
579.134	4642
579.190	4795
579.247	4494
579.303	4259
579.360	4299
579.416	4737
579.473	5209
579.529	4832
579.586	4621
579.642	5237
579.698	4355
579.755	4969
579.811	4349
579.867	5428
579.924	4358
579.980	4789
580.036	4720
580.093	4213
580.149	4653
580.205	5232
580.261	4880
580.317	4506
580.374	5023
580.430	5485
580.486	4019
580.542	4342
580.598	4769
580.619	4846
580.654	4984
580.692	4824
580.710	4753
580.765	4748
580.767	4754
580.823	5140
580.838	5228
580.879	5462
580.911	4919
580.935	4525
580.984	4925
580.991	4994
581.047	5563
581.057	5586
581.103	5679
581.130	5280
581.159	4847
581.203	5007
581.215	5075
581.270	4721
581.276	4728
581.326	4767
581.349	4721
581.382	4651
581.422	4173
581.438	3978
581.494	4317
581.494	4320
581.550	5109
581.567	4834
581.606	4215
581.640	4883
581.661	5296
581.713	5613
581.717	5646
581.773	4687
581.786	4627
581.829	4366
581.859	4680
581.885	4984
581.932	5530
581.940	5630
581.996	4909
582.004	4954
582.052	5147
582.077	5191
582.107	5322
582.150	4995
582.163	4876
582.219	4586
582.223	4620
582.274	5156
582.296	5005
582.330	4654
582.368	4853
582.386	5072
582.441	5183
582.441	5183
582.497	4065
582.514	4204
582.552	4738
582.587	4767
582.608	4729
582.659	4684
582.663	4687
582.719	5007
582.732	4985
582.774	4975
582.805	4980
582.830	4917
582.877	5181
582.885	5243
582.941	4779
582.950	4730
582.996	4256
583.023	4894
583.052	5934
583.095	5244
583.107	4955
583.162	5242
583.168	5273
583.218	5547
583.240	5280
583.273	4818
583.313	4334
583.328	4258
583.384	4916
583.385	4908
583.439	4378
583.458	4669
583.494	5235
583.531	4637
583.549	4372
583.603	4239
583.605	4236
583.660	5165
583.676	5168
583.715	4997
583.748	4825
583.770	4827
583.820	5194
583.825	5198
583.881	4880
583.893	4728
583.936	4583
583.965	4775
583.991	4716
584.038	4845
584.046	4889
584.101	5169
584.110	5081
584.156	4671
584.183	4626
584.211	4555
584.255	4692
584.266	4772
584.321	5564
584.328	5432
584.376	4251
584.400	4759
584.431	5322
584.472	5531
584.486	5607
584.541	5326
584.545	5374
584.596	6202
584.617	5975
584.651	5928
584.689	6458
584.706	6434
584.761	6277
584.762	6276
584.816	6468
584.834	6987
584.871	7796
584.906	7356
584.926	7077
584.978	6692
584.980	6698
585.035	8939
585.051	9235
585.090	9855
585.123	10292
585.145	10429
585.195	11333
585.200	11519
585.254	14046
585.267	14850
585.309	16583
585.340	17818
585.364	19103
585.412	22547
585.419	23046
585.473	29164
585.484	30931
585.528	40212
585.556	51452
585.583	69102
585.628	114082
585.637	127626
585.692	263473
585.700	281256
585.747	336852
585.772	263670
585.801	149070
585.845	53823
585.856	40729
585.910	21453
585.917	19831
585.965	15243
585.989	13852
586.019	12460
586.061	11445
586.074	11275
586.128	10216
586.133	10212
586.183	9905
586.205	9470
586.237	9083
586.277	9443
586.292	9461
586.346	8939
586.349	8931
586.401	9055
586.421	9333
586.455	9499
586.493	9174
586.509	9294
586.564	8895
586.565	8934
586.618	10195
586.637	10594
586.672	12071
586.709	13950
586.727	14496
586.781	15255
586.781	15244
586.835	11323
586.853	10709
586.889	9848
586.925	9309
586.944	9257
586.996	9298
586.998	9295
587.052	9459
587.068	9363
587.106	9054
587.140	9042
587.161	9146
587.212	9305
587.215	9308
587.269	9497
587.284	9604
587.323	9620
587.356	9714
587.377	10021
587.427	10723
587.431	10706
587.485	10123
587.499	10054
587.539	10516
587.571	10919
587.593	11216
587.643	11890
587.648	11902
587.702	11512
587.715	11663
587.755	12164
587.786	12396
587.810	12490
587.858	11903
587.864	11827
587.917	11877
587.930	11806
587.971	11876
588.001	12173
588.025	12314
588.073	12379
588.079	12409
588.133	12771
588.145	12854
588.187	12254
588.217	12102
588.241	12750
588.288	13490
588.295	13494
588.348	14344
588.360	14285
588.402	13733
588.431	14044
588.456	14632
588.503	15564
588.510	15648
588.564	16412
588.575	16602
588.617	17840
588.646	19027
588.671	19795
588.718	21227
588.725	21636
588.778	26743
588.789	28220
588.832	41226
588.861	52501
588.886	74301
588.932	126721
588.939	131285
588.993	157481
589.004	153049
589.047	77623
589.075	39683
589.100	30002
589.147	20003
589.154	19551
589.207	18072
589.218	17734
589.261	18331
589.290	19050
589.314	19229
589.361	20846
589.368	21658
589.421	29282
589.433	31491
589.475	52366
589.504	70751
589.528	92142
589.576	136865
589.582	133122
589.635	62466
589.647	49991
589.689	28021
589.718	17450
589.742	16583
589.790	14934
589.795	14830
589.849	14168
589.861	14115
589.902	13542
589.932	12940
589.955	13162
590.004	13859
590.009	13770
590.062	13040
590.075	12816
590.115	12902
590.146	13036
590.168	13224
590.218	13479
590.222	13421
590.275	13068
590.289	12894
590.328	13000
590.360	13366
590.381	13695
590.431	14230
590.435	14190
590.488	13547
590.503	13387
590.541	13947
590.574	14635
590.594	14792
590.645	15040
590.647	15049
590.700	15574
590.716	15695
590.753	15693
590.787	15797
590.806	16057
590.859	16865
590.859	16855
590.912	16851
590.930	16812
590.965	17125
591.001	17698
591.018	17377
591.071	16233
591.072	16238
591.124	16350
591.143	16455
591.177	16366
591.214	16366
591.230	16589
591.283	17379
591.285	17414
591.336	16777
591.356	16569
591.389	16924
591.427	17346
591.442	17135
591.495	16334
591.498	16296
591.547	16718
591.569	16945
591.600	17244
591.640	17556
591.653	17596
591.706	17811
591.711	17853
591.759	17678
591.782	17629
591.811	18069
591.853	18689
591.864	18645
591.917	18534
591.924	18530
591.969	19140
591.995	19542
592.022	19091
592.066	18312
592.075	18459
592.127	19510
592.137	19731
592.180	19950
592.208	20102
592.233	20375
592.279	21004
592.285	21029
592.338	21347
592.350	21437
592.390	21621
592.421	21808
592.443	21723
592.491	21610
592.495	21610
592.548	21937
592.562	22055
592.600	22076
592.633	22135
592.653	22180
592.704	22240
592.705	22371
592.775	22611
592.846	23426
592.916	22209
592.987	23563
593.058	24655
593.128	25511
593.199	25138
593.270	25350
593.341	25812
593.411	27286
593.482	28043
593.553	29257
593.623	28360
593.694	28931
593.764	30272
593.835	28611
593.906	29179
593.976	30070
594.047	30729
594.117	31978
594.188	31919
594.258	32626
594.329	32106
594.399	33494
594.470	34992
594.540	36938
594.611	36142
594.681	35670
594.751	35648
594.822	38949
594.892	39388
594.963	39484
595.033	40408
595.103	43743
595.174	42915
595.244	44908
595.314	45530
595.384	46011
595.455	46915
595.525	49956
595.595	51085
595.665	51593
595.736	49636
595.806	51063
595.876	52161
595.946	52415
596.016	55661
596.087	55808
596.157	55865
596.227	56130
596.297	59193
596.367	64127
596.437	66833
596.507	67154
596.577	65148
596.647	69609
596.717	72140
596.787	73922
596.857	72946
596.927	75078
596.997	74016
597.067	74602
597.137	76107
597.207	76584
597.277	76709
597.347	73774
597.417	71807
597.487	72039
597.557	73501
597.626	75031
597.696	76425
597.766	74649
597.836	70250
597.906	66580
597.975	66944
598.045	68165
598.115	70808
598.185	76340
598.254	85479
598.324	92192
598.394	92748
598.464	89564
598.533	89139
598.603	83752
598.672	80456
598.742	82642
598.812	81426
598.881	84487
598.951	84344
599.020	86354
599.090	89392
599.159	90750
599.229	87721
599.299	84876
599.368	87786
599.437	86095
599.507	78912
599.576	76391
599.646	76687
599.715	74902
599.785	74543
599.854	71692
599.924	70185
599.993	71379
600.062	72088
600.132	73900
600.201	79047
600.270	93309
600.340	95531
600.409	94939
600.478	93123
600.547	95898
600.617	84648
600.686	69010
600.755	61464
600.824	58512
600.894	56261
600.963	58704
601.032	56777
601.101	53875
601.170	52543
601.239	51652
601.308	51493
601.378	51811
601.447	51776
601.516	52226
601.585	52181
601.654	54253
601.723	53323
601.792	55379
601.861	56530
601.930	58150
601.999	58565
602.068	58821
602.137	60044
602.206	59837
602.275	62633
602.343	61792
602.412	62148
602.481	64476
602.550	63960
602.619	66360
602.688	66548
602.756	66121
602.825	67617
602.894	69088
602.963	69803
603.032	72081
603.100	70381
603.169	71523
603.238	71472
603.307	73100
603.375	73352
603.444	74905
603.513	77407
603.581	77449
603.650	78685
603.719	75960
603.787	78949
603.856	81358
603.924	82844
603.993	85453
604.061	88495
604.130	93902
604.198	94701
604.267	96359
604.335	97494
604.404	98198
604.472	101401
604.541	101056
604.609	103508
604.678	102802
604.746	102548
604.815	106465
604.883	108414
604.951	107979
605.020	110586
605.088	112599
605.156	114113
605.225	115553
605.293	115485
605.361	117943
605.429	117321
605.498	121276
605.566	122564
605.634	130084
605.702	133795
605.771	138234
605.839	139433
605.907	135457
605.975	129141
606.043	129564
606.111	127907
606.180	127061
606.248	126553
606.316	126849
606.384	125089
606.452	127123
606.520	129898
606.588	135263
606.656	134527
606.724	131663
606.792	123897
606.860	114262
606.928	102233
606.996	100019
607.064	96804
607.132	100833
607.200	107500
607.267	109258
607.335	112608
607.403	114816
607.471	110446
607.539	108943
607.607	106961
607.674	94790
607.742	93610
607.810	92512
607.878	93539
607.946	95666
608.013	100766
608.081	101946
608.149	102771
608.216	107535
608.284	110605
608.352	110193
608.419	107731
608.487	107692
608.555	104297
608.622	109290
608.690	116266
608.757	126754
608.825	129644
608.893	126876
608.960	117751
609.028	113995
609.095	113710
609.163	113432
609.230	101072
609.298	93911
609.365	99306
609.432	106650
609.500	114939
609.567	131603
609.635	149864
609.702	157101
609.769	147412
609.837	114090
609.904	98791
609.971	102193
610.039	111945
610.106	136643
610.173	228777
610.241	446559
610.308	235293
610.375	119214
610.442	106086
610.509	105809
610.577	104703
610.644	106529
610.711	109894
610.778	113859
610.845	117709
610.912	124386
610.980	128665
611.047	129037
611.114	127753
611.181	123920
611.248	122344
611.315	132786
611.382	133507
611.449	137839
611.516	140956
611.583	138064
611.650	137871
611.717	141006
611.784	143301
611.851	147977
611.918	151216
611.984	168948
612.051	218544
612.118	371569
612.185	736548
612.252	434536
612.319	192061
612.386	176728
612.452	162809
612.519	156900
612.586	153150
612.653	159587
612.719	163096
612.786	156811
612.853	147040
612.919	143643
612.986	146147
613.053	137323
613.120	128495
613.186	125466
613.253	127296
613.319	127044
613.386	126125
613.453	129807
613.519	128870
613.586	127429
613.652	129471
613.719	128078
613.785	131753
613.852	132116
613.918	129844
613.985	134075
614.051	136541
614.118	135002
614.184	130579
614.250	132293
614.317	134300
614.383	132569
614.449	135499
614.516	134011
614.582	134963
614.648	133409
614.715	131114
614.781	127625
614.847	128886
614.914	126429
614.980	123703
615.046	125290
615.112	129287
615.179	128954
615.245	131695
615.311	127905
615.377	131265
615.443	131116
615.509	131522
615.575	138034
615.642	135785
615.708	139050
615.774	144915
615.840	148842
615.906	153791
615.972	174393
616.038	235859
616.104	426754
616.170	828536
616.236	619324
616.302	244178
616.368	204741
616.434	161581
616.500	153480
616.565	171777
616.631	198413
616.697	167008
616.763	176678
616.829	247064
616.895	390955
616.961	336250
617.026	170589
617.092	139786
617.158	137460
617.224	132268
617.289	126151
617.355	120918
617.421	118736
617.487	120178
617.552	114661
617.618	115232
617.684	112401
617.749	116773
617.815	110779
617.880	109414
617.946	108972
618.012	111633
618.077	112426
618.143	108091
618.208	109711
618.274	118660
618.339	115993
618.405	97263
618.470	100511
618.536	97604
618.601	95710
618.667	90494
618.732	87563
618.798	85033
618.863	86482
618.928	85766
618.994	86613
619.059	84425
619.124	85801
619.190	84753
619.255	84813
619.320	85036
619.386	86397
619.451	83567
619.516	83908
619.581	82634
619.647	85878
619.712	86759
619.777	82604
619.842	82667
619.907	84817
619.972	86138
620.038	85425
620.103	82938
620.168	83279
620.233	85440
620.298	86378
620.363	87582
620.428	88898
620.493	92334
620.558	91943
620.623	92473
620.688	91992
620.753	91992
620.818	93008
620.883	94237
620.948	93692
621.013	92998
621.078	91259
621.143	90662
621.207	93500
621.272	89874
621.337	88200
621.402	87407
621.467	87520
621.532	86538
621.596	87275
621.661	84620
621.726	84150
621.791	85956
621.855	85128
621.920	84343
621.985	84591
622.049	87604
622.114	86126
622.179	89016
622.243	88883
622.308	92598
622.373	97968
622.437	92341
622.502	90156
622.566	88757
622.631	87432
622.695	90288
622.760	89374
622.824	89402
622.889	89456
622.953	88619
623.018	95370
623.082	94807
623.147	94454
623.211	90850
623.276	92104
623.340	89154
623.404	86599
623.469	86463
623.533	87295
623.597	86442
623.662	85793
623.726	78327
623.790	76934
623.854	74233
623.919	75404
623.983	75360
624.047	76353
624.111	78169
624.176	79329
624.240	78083
624.304	82970
624.368	78604
624.432	79606
624.496	81808
624.560	85193
624.625	83567
624.689	85461
624.753	88593
624.817	84853
624.881	81452
624.945	74729
625.009	73270
625.073	73594
625.137	75161
625.201	79644
625.265	78159
625.329	76019
625.393	75567
625.456	77676
625.520	80486
625.584	80569
625.648	81693
625.712	83923
625.776	83022
625.839	78141
625.903	66559
625.967	63675
626.031	70744
626.095	78575
626.158	71537
626.222	57778
626.286	54994
626.349	52638
626.413	48368
626.477	50310
626.540	49959
626.604	48194
626.668	50172
626.731	48872
626.795	47514
626.858	46757
626.922	45780
626.986	47084
627.049	44918
627.113	48801
627.176	46380
627.240	45870
627.303	46587
627.366	44503
627.430	44034
627.493	44308
627.557	41541
627.620	45116
627.684	45598
627.747	47031
627.810	40599
627.874	37224
627.937	36574
628.000	39474
628.064	37621
628.127	31671
628.190	32729
628.253	32529
628.317	30135
628.380	29934
628.443	28682
628.506	28069
628.569	26347
628.632	26064
628.696	25683
628.759	24945
628.822	23457
628.885	24271
628.948	24145
629.011	23312
629.074	21849
629.137	21702
629.200	20678
629.263	23080
629.326	20808
629.389	20969
629.452	20498
629.515	19581
629.578	20046
629.641	20608
629.704	19283
629.767	19595
629.830	19588
629.892	19150
629.955	18380
630.018	20114
630.081	17811
630.144	19304
630.207	16454
630.269	19666
630.332	17161
630.395	17225
630.458	17173
630.520	16073
630.583	17655
630.646	17731
630.708	17877
630.771	16895
630.834	19035
630.896	17819
630.959	17682
631.021	17212
631.084	17657
631.146	17279
631.209	18401
631.272	17413
631.334	17564
631.397	17560
631.459	16920
631.522	18366
631.584	18033
631.646	21251
631.709	20152
631.771	20115
631.834	19070
631.896	18542
631.958	16879
632.021	17798
632.083	15457
632.145	16992
632.208	16421
632.270	16444
632.332	15574
632.395	14811
632.457	17439
632.519	15155
632.581	16434
632.643	14904
632.706	16238
632.768	15065
632.830	16132
632.892	16618
632.954	16678
633.016	17259
633.078	16531
633.141	15730
633.203	16104
633.265	16254
633.327	15515
633.389	15546
633.451	16778
633.513	14631
633.575	16666
633.637	16049
633.698	16093
633.760	17872
633.822	17428
633.884	18751
633.946	18556
634.008	18527
634.070	19176
634.132	20587
634.193	21657
634.255	23024
634.317	23076
634.379	24033
634.441	20008
634.502	18444
634.564	17292
634.626	16141
634.687	15720
634.749	15740
634.811	15643
634.873	15328
634.934	14887
634.996	15679
635.057	14305
635.119	14650
635.181	15052
635.242	16172
635.304	13641
635.365	17845
635.427	14964
635.488	14507
635.550	14379
635.611	15828
635.673	13204
635.734	17248
635.796	16017
635.857	19796
635.918	18936
635.980	23405
636.041	21981
636.102	24930
636.164	24311
636.225	24670
636.286	17470
636.348	18972
636.409	15782
636.470	14965
636.531	16366
636.593	14209
636.654	14550
636.715	15467
636.776	13537
636.838	13102
636.899	14325
636.960	13560
637.021	12944
637.082	13239
637.143	13372
637.204	12604
637.265	12197
637.326	13692
637.387	13750
637.448	12362
637.509	13515
637.570	13281
637.631	13917
637.692	10919
637.753	11227
637.814	12713
637.875	12055
637.936	12697
637.997	11806
638.058	12119
638.119	12645
638.179	12398
638.240	11285
638.301	11497
638.362	10761
638.423	10772
638.483	12563
638.544	10342
638.605	11845
638.666	10536
638.726	11789
638.787	13299
638.848	11588
638.908	10575
638.969	11114
639.030	10624
639.090	9837
639.151	10202
639.211	10735
639.272	11346
639.332	11176
639.393	11792
639.453	11399
639.514	12446
639.574	11327
639.635	10224
639.695	10284
639.756	8725
639.816	10763
639.877	10303
639.937	10608
639.997	10595
640.058	9256
640.118	9372
640.178	10895
640.239	10870
640.299	10228
640.359	10060
640.420	11441
640.480	11864
640.540	13298
640.600	12947
640.661	12203
640.721	10723
640.781	12700
640.841	8600
640.901	11028
640.961	10307
641.021	10969
641.082	10252
641.142	9396
641.202	11377
641.262	7914
641.322	10300
641.382	8102
641.442	9400
641.502	8791
641.562	11060
641.622	8599
641.682	10759
641.742	10948
641.802	10440
641.861	9765
641.921	8458
641.981	9762
642.041	9731
642.101	8290
642.161	7165
642.221	8846
642.280	8409
642.340	8746
642.400	8108
642.460	10352
642.519	9630
642.579	8517
642.639	10512
642.698	7244
642.758	11842
642.818	9738
642.877	8458
642.937	9560
642.997	10128
643.056	9491
643.116	8487
643.175	10509
643.235	9272
643.294	10525
643.354	10936
643.414	11167
643.473	12871
643.532	14622
643.592	19123
643.651	30708
643.711	52636
643.770	103018
643.830	251978
643.889	430848
643.948	94972
644.008	24065
644.067	16115
644.126	11125
644.186	11836
644.245	11309
644.304	8704
644.363	10956
644.423	7843
644.482	9676
644.541	10509
644.600	8071
644.659	12465
644.719	15056
644.778	22686
644.837	38615
644.896	84166
644.955	169914
645.014	44416
645.073	13282
645.132	11266
645.191	10383
645.250	9656
645.309	11168
645.368	11835
645.427	15492
645.486	26743
645.545	41559
645.604	12243
645.663	9259
645.722	8622
645.781	10099
645.840	10827
645.898	12595
645.957	19113
646.016	26552
646.075	50505
646.134	98483
646.192	268900
646.251	312677
646.310	47871
646.369	17755
646.427	16202
646.486	10412
646.545	9824
646.603	9557
646.662	9320
646.721	8127
646.779	8685
646.838	7777
646.896	11681
646.955	14765
647.014	23897
647.072	46241
647.131	119050
647.189	43158
647.248	9446
647.306	7808
647.365	8144
647.423	5027
647.481	8146
647.540	6107
647.598	6620
647.657	5806
647.715	6945
647.773	4860
647.832	6819
647.890	3998
647.948	5280
648.007	5492
648.065	4902
648.123	4506
648.181	6248
648.240	5605
648.298	4598
648.356	5425
648.414	4635
648.472	4370
648.531	5351
648.589	4367
648.647	4944
648.705	4876
648.763	3966
648.821	4572
648.879	4983
648.937	5749
648.995	7330
649.053	7761
649.111	14291
649.169	22678
649.227	42700
649.285	94974
649.343	244454
649.401	87037
649.459	13246
649.516	9070
649.574	5988
649.632	7134
649.690	8348
649.748	10387
649.806	14762
649.863	29895
649.921	87408
649.979	43560
650.037	6719
650.094	3363
650.152	5593
650.210	3050
650.268	3826
650.325	3567
650.383	3286
650.440	1961
650.498	3655
650.556	3280
650.613	4122
650.671	3030
650.728	3368
650.786	3001
650.843	6285
650.901	2217
650.958	3690
651.016	1668
651.073	2324
651.131	2250
651.188	2645
651.246	2183
651.303	1748
651.360	2284
651.418	2823
651.475	2178
651.532	1617
651.590	2689
651.647	1824
651.704	2306
651.762	1716
651.819	2687
651.876	1617
651.933	1652
651.990	3416
652.048	202
652.105	2011
652.162	1838
652.219	1791
652.276	1666
652.333	2583
652.390	1183
652.448	2157
652.505	1604
652.562	1096
652.619	1788
652.676	1970
652.733	1923
652.790	1965
652.847	1373
652.904	1746
652.961	590
653.017	1163
653.074	1872
653.131	1697
653.188	-109
653.245	1509
653.302	1018
653.359	2095
653.415	1353
653.472	1425
653.529	1454
653.586	657
653.642	609
653.699	1917
653.756	656
653.813	1869
653.869	1792
653.926	798
653.983	682
654.039	1945
654.096	766
654.152	2451
654.209	-176
654.266	1360
654.322	285
654.379	1239
654.435	1671
654.492	137
654.548	1338
654.605	1238
654.661	1939
654.717	1297
654.774	1126
654.830	933
654.887	751
654.943	1529
655.000	998
655.056	1772
655.112	824
655.168	32
655.225	1374
655.281	1999
655.337	543
655.394	1173
655.450	1118
655.506	1806
655.562	403
655.618	2649
655.675	494
655.731	2024
655.787	1300
655.843	1865
655.899	1005
655.955	1951
656.011	1647
656.067	473
656.123	2081
656.179	2163
656.235	3331
656.291	827
656.347	2660
656.403	1056
656.459	1093
656.515	1473
656.571	486
656.627	2015
656.683	1208
656.739	1363
656.795	1073
656.850	1507
656.906	1177
656.962	1971
657.018	968
657.074	1713
657.129	2728
657.185	5981
657.241	13175
657.297	5972
657.352	1461
657.408	1266
657.464	1053
657.519	1294
657.575	-356
657.630	1151
657.686	807
657.742	605
657.797	655
657.853	356
657.908	608
657.964	119
658.019	-331
658.075	989
658.130	1413
658.186	328
658.241	1510
658.297	164
658.352	916
658.407	597
658.463	677
658.518	1092
658.573	719
658.629	989
658.684	4
658.739	767
658.795	821
658.850	928
658.905	402
658.960	803
659.016	79
659.071	323
659.126	364
659.181	716
659.236	1660
659.291	1213
659.346	-495
659.401	315
659.457	276
659.512	197
659.567	763
659.622	519
659.677	698
659.732	374
659.787	-35
659.842	228
659.897	-197
659.952	1472
660.007	213
660.061	152
660.116	-306
660.171	420
660.226	244
660.281	1415
660.336	-172
660.391	1509
660.445	-292
660.500	667
660.555	86
660.610	23
660.664	-312
660.719	-594
660.774	771
660.828	413
660.883	-278
660.938	691
660.992	-665
661.047	1118
661.101	-188
661.156	213
661.211	-266
661.265	89
661.320	547
661.374	599
661.429	-413
661.483	1311
661.538	-661
661.592	-423
661.647	-16
661.701	137
661.755	436
661.810	759
661.864	-398
661.919	270
661.973	367
662.027	745
662.081	-569
662.136	368
662.190	385
662.244	594
662.299	266
662.353	602
662.407	5
662.461	145
662.515	189
662.569	47
662.624	743
662.678	264
662.732	163
662.786	-610
662.840	158
662.894	62
662.948	-156
663.002	501
663.056	250
663.110	1038
663.164	-279
663.218	-397
663.272	252
663.326	201
663.380	535
663.434	875
663.488	-595
663.542	-57
663.595	-300
663.649	-23
663.703	-476
663.757	804
663.811	-343
663.864	613
663.918	759
663.972	141
664.026	-255
664.079	-381
664.133	443
664.187	741
664.240	271
664.294	678
664.348	-327
664.401	103
664.455	433
664.508	234
664.562	-13
664.615	1295
664.669	-155
664.722	58
664.776	-588
664.829	448
664.883	-618
664.936	-294
664.990	15
665.043	395
665.097	-368
665.150	-16
665.203	-737
665.257	566
665.310	421
665.363	368
665.417	701
665.470	875
665.523	-545
665.576	-278
665.630	32
665.683	935
665.736	407
665.789	446
665.842	0
665.895	607
665.949	54
666.002	561
666.055	25
666.108	350
666.161	434
666.214	285
666.267	-515
666.320	1075
666.373	317
666.426	-394
666.479	-614
666.532	653
666.585	402
666.638	824
666.691	32
666.744	775
666.796	-558
666.849	598
666.902	818
666.955	-80
667.008	274
667.060	92
667.113	-349
667.166	577
667.219	351
667.271	1190
667.324	112
667.377	946
667.430	682
667.482	391
667.535	55
667.587	597
667.640	374
667.693	598
667.745	-219
667.798	230
667.850	-220
667.903	-195
667.955	1195
668.008	162
668.060	738
668.113	426
668.165	355
668.218	198
668.270	578
668.322	773
668.375	-756
668.427	925
668.479	-250
668.532	531
668.584	-207
668.636	553
668.689	268
668.741	-433
668.793	416
668.845	685
668.898	559
668.950	970
669.002	287
669.054	306
669.106	712
669.158	-16
669.211	26
669.263	365
669.315	-212
669.367	-26
669.419	213
669.471	782
669.523	-169
669.575	1069
669.627	-332
669.679	59
669.731	413
669.783	-215
669.835	144
669.886	-202
669.938	56
669.990	389
670.042	-119
670.094	802
670.146	-595
670.197	425
670.249	333
670.301	-283
670.353	683
670.404	961
670.456	491
670.508	916
670.560	1579
670.611	3164
670.663	4704
670.715	14962
670.766	17073
670.818	4036
670.869	1343
670.921	989
670.972	342
671.024	403
671.075	-298
671.127	877
671.178	-558
671.230	1246
671.281	945
671.333	1034
671.384	890
671.436	1804
671.487	3099
671.538	5078
671.590	9957
671.641	16823
671.692	35753
671.744	66051
671.795	32541
671.846	9339
671.897	3594
671.949	2288
672.000	942
672.051	1482
672.102	693
672.153	152
672.204	-128
672.256	-31
672.307	58
672.358	-70
672.409	243
672.460	328
672.511	-305
672.562	-403
672.613	-454
672.664	-670
672.715	-198
672.766	-404
672.817	-484
672.868	444
672.919	167
672.970	-1120
673.021	246
673.071	-547
673.122	46
673.173	386
673.224	116
673.275	352
673.326	-391
673.376	16
673.427	-389
673.478	-522
673.528	331
673.579	-724
673.630	-462
673.680	104
673.731	-533
673.782	-7
673.832	-810
673.883	-352
673.934	-395
673.984	-314
674.035	-628
674.085	28
674.136	-263
674.186	-206
674.237	-1225
674.287	-790
674.338	-8
674.388	-638
674.438	-714
674.489	394
674.539	-154
674.589	21
674.640	-196
674.690	-549
674.740	-303
674.791	-721
674.841	-422
674.891	-235
674.942	-477
674.992	-567
675.042	-353
675.092	-196
675.142	-1153
675.193	-215
675.243	-1224
675.293	-276
675.343	-840
675.393	-287
675.443	-327
675.493	-63
675.543	-1625
675.593	216
675.643	-1027
675.693	55
675.743	-1199
675.793	-377
675.843	-849
675.893	-471
675.943	-596
675.993	316
676.043	-777
676.093	-287
676.142	-1431
676.192	-593
676.242	-639
676.292	-1530
676.341	-723
676.391	-1093
676.441	-1376
676.491	-597
676.540	-1368
676.590	-1191
676.640	-1311
676.689	-525
676.739	-1399
676.789	-550
676.838	-1092
676.888	-982
676.937	-423
676.987	-358
677.037	-666
677.086	-1277
677.136	-803
677.185	-387
677.235	-1134
677.284	-388
677.333	55
677.383	-811
677.432	-1501
677.482	-854
677.531	-843
677.580	-156
677.630	-1010
677.679	-713
677.728	-1329
677.778	-291
677.827	-1643
677.876	-933
677.925	-1530
677.975	-635
678.024	-928
678.073	-902
678.122	-1389
678.171	-514
678.220	-1106
678.269	-575
678.319	-374
678.368	-239
678.417	105
678.466	-495
678.515	-540
678.564	-825
678.613	-827
678.662	-303
678.711	-527
678.760	-184
678.809	-1596
678.857	-83
678.906	-297
678.955	-704
679.004	-500
679.053	-1368
679.102	-734
679.151	-984
679.199	-1233
679.248	-294
679.297	-1135
679.346	-142
679.394	-1271
679.443	-861
679.492	-847
679.540	-441
679.589	-1114
679.638	-606
679.686	-517
679.735	-613
679.784	-1775
679.832	45
679.881	-1018
679.929	-1254
679.978	-696
680.026	-996
680.075	-1064
680.123	-1675
680.172	-1279
680.220	-900
680.268	-672
680.317	-1118
680.365	-1154
680.414	-1245
680.462	-614
680.510	-726
680.559	-1186
680.607	-754
680.655	-1340
680.703	-683
680.752	-623
680.800	-463
680.848	-1232
680.896	-1254
680.945	-830
680.993	-1439
681.041	-2278
681.089	-1174
681.137	-917
681.185	-1091
681.233	-502
681.258	-419
681.281	-361
681.329	-1240
681.377	-1602
681.380	-1536
681.425	-731
681.473	-502
681.502	-678
681.521	-838
681.569	-39
681.617	-745
681.624	-774
681.665	-1142
681.713	-713
681.745	-513
681.761	-447
681.809	-652
681.857	-561
681.867	-598
681.904	-828
681.952	201
681.989	-550
682.000	-797
682.048	-670
682.096	-758
682.111	-555
682.143	-204
682.191	102
682.233	358
682.239	371
682.286	256
682.334	-215
682.354	-298
682.382	-426
682.430	1269
682.476	137
682.477	92
682.525	-325
682.572	-636
682.598	-179
682.620	198
682.667	456
682.715	-45
682.720	-0
682.763	193
682.810	-234
682.841	421
682.857	747
682.905	886
682.952	579
682.963	540
683.000	321
683.047	336
683.085	1292
683.095	1532
683.142	176
683.190	714
683.206	800
683.237	876
683.284	1299
683.328	397
683.332	303
683.379	692
683.426	342
683.449	660
683.473	1030
683.521	1004
683.568	834
683.571	850
683.615	722
683.662	1053
683.693	1174
683.709	1190
683.757	586
683.804	1311
683.814	1231
683.851	1029
683.898	1664
683.936	1847
683.945	1854
683.992	1628
684.039	1748
684.057	1594
684.086	1316
684.133	2242
684.179	1118
684.180	1072
684.227	1474
684.274	1990
684.300	1696
684.321	1419
684.368	1918
684.415	1697
684.422	1730
684.462	1905
684.509	1848
684.543	1776
684.556	1718
684.603	1877
684.649	2155
684.665	2203
684.696	2327
684.743	2725
684.786	2241
684.790	2184
684.837	1701
684.883	2552
684.908	2545
684.930	2520
684.977	2724
685.023	1709
685.029	1856
685.070	2902
685.117	2043
685.150	2847
685.164	3121
685.210	2467
685.257	3520
685.272	3267
685.303	2776
685.350	3161
685.393	2449
685.396	2369
685.443	2879
685.490	2109
685.514	2324
685.536	2584
685.583	2688
685.629	2514
685.636	2554
685.675	2778
685.722	2476
685.757	2233
685.768	2123
685.815	2512
685.861	2329
685.878	2584
685.908	3079
685.954	2862
686.000	2656
686.000	2646
686.047	2252
686.093	3271
686.121	3273
686.139	3301
686.185	3429
686.232	3203
686.242	3066
686.278	2574
686.324	3122
686.363	3404
686.370	3438
686.416	3275
686.463	3797
686.484	3316
686.509	2794
686.555	3344
686.601	3004
686.606	3067
686.647	3629
686.693	3516
686.727	3690
686.739	3733
686.785	3474
686.831	3599
686.848	3548
686.877	3515
686.923	4068
686.969	3379
686.969	3375
687.015	4125
687.061	4021
687.090	4731
687.107	4997
687.153	4615
687.199	4118
687.211	3773
687.245	2986
687.291	4497
687.332	3918
687.336	3879
687.382	3915
687.428	4160
687.453	4487
687.474	4677
687.520	4769
687.565	4906
687.574	4833
687.611	4501
687.657	4776
687.695	4713
687.702	4701
687.748	4814
687.794	4836
687.816	4752
687.839	4764
687.885	4947
687.931	5177
687.937	5139
687.976	4714
688.022	4556
688.058	5054
688.067	5213
688.113	4633
688.158	5403
688.179	5140
688.204	4841
688.249	5315
688.295	5407
688.300	5350
688.340	4835
688.386	4937
688.421	4796
688.431	4823
688.477	5179
688.522	5106
688.542	5516
688.567	6090
688.613	5774
688.658	6408
688.663	6412
688.703	6038
688.749	5868
688.784	5351
688.794	5311
688.839	6032
688.884	5766
688.905	5936
688.930	5934
688.975	5664
689.020	5570
689.026	5510
689.065	5399
689.110	5558
689.146	5393
689.155	5345
689.201	5545
689.246	5686
689.267	5820
689.291	5928
689.336	6134
689.381	5615
689.388	5542
689.426	5460
689.471	5864
689.509	6008
689.516	5998
689.561	5869
689.606	5735
689.630	5686
689.651	5733
689.696	5181
689.741	6016
689.750	6077
689.785	6386
689.830	6353
689.871	5915
689.875	5851
689.920	6176
689.965	5294
689.992	5297
690.010	5496
690.054	5423
690.099	6160
690.112	6131
690.144	6048
690.189	6350
690.233	5905
690.233	5913
690.278	6293
690.323	6382
690.354	6309
690.367	6291
690.412	6231
690.457	6162
690.474	6152
690.501	6215
690.546	6157
690.590	6073
690.595	6077
690.635	6216
690.680	6155
690.716	6254
690.724	6283
690.769	6214
690.813	6320
690.836	5949
690.857	5894
690.902	6629
690.946	7422
690.957	7553
690.991	7969
691.035	8271
691.077	8619
691.080	8609
691.124	8001
691.168	8025
691.198	7332
691.213	7075
691.257	7139
691.301	6473
691.318	6489
691.346	6809
691.390	6519
691.434	7049
691.439	7022
691.478	6763
691.522	7252
691.559	6855
691.567	6880
691.611	7328
691.655	7550
691.680	7725
691.699	7644
691.743	7832
691.787	7568
691.800	7516
691.831	7443
691.875	7256
691.919	7367
691.921	7340
691.964	7341
692.008	8096
692.041	7838
692.052	7702
692.096	7458
692.139	7770
692.162	7532
692.183	7361
692.227	7536
692.271	7324
692.282	7323
692.315	7410
692.359	7141
692.402	7027
692.403	7044
692.447	7085
692.490	7230
692.523	7119
692.534	7108
692.578	7129
692.622	6788
692.643	6779
692.666	6905
692.709	7181
692.753	7481
692.763	7481
692.797	7501
692.840	7897
692.884	7711
692.884	7727
692.928	7756
692.971	7612
693.004	7373
693.015	7424
693.059	7579
693.102	7847
693.124	7815
693.146	7820
693.189	7907
693.233	8238
693.245	8298
693.276	8196
693.320	8149
693.363	7769
693.365	7724
693.407	7535
693.450	8122
693.485	8008
693.493	7960
693.537	8192
693.580	7930
693.605	8048
693.624	8276
693.667	8430
693.710	8902
693.725	8817
693.753	9472
693.797	10835
693.840	12498
693.845	12624
693.883	11453
693.926	10051
693.966	9167
693.970	9183
694.013	8642
694.056	8324
694.086	7958
694.099	7981
694.142	8134
694.185	8208
694.206	8227
694.229	8266
694.272	8289
694.315	8501
694.326	8455
694.358	8339
694.401	8429
694.444	8325
694.446	8291
694.487	8394
694.530	8770
694.566	9125
694.573	9174
694.616	8972
694.659	9093
694.686	9092
694.702	9162
694.745	9270
694.787	9063
694.806	9169
694.830	9175
694.873	8786
694.916	8592
694.926	8462
694.959	8732
695.002	9266
695.044	9815
695.046	9815
695.087	10140
695.130	10159
695.166	10424
695.172	10509
695.215	10491
695.258	10762
695.286	10848
695.301	10844
695.343	10844
695.386	10743
695.406	10618
695.428	11093
695.471	12257
695.514	13361
695.526	13523
695.556	13982
695.599	15292
695.641	15958
695.646	16013
695.684	14869
695.726	13580
695.766	12237
695.769	12249
695.811	12026
695.854	11838
695.886	11671
695.896	11847
695.938	12251
695.981	12803
696.005	13179
696.023	13686
696.065	14575
696.108	15577
696.125	15915
696.150	16051
696.192	16413
696.235	16479
696.245	16491
696.277	16509
696.319	16466
696.361	16595
696.365	16539
696.404	16382
696.446	16255
696.485	16059
696.488	16107
696.530	16205
696.572	16275
696.604	16260
696.614	16268
696.656	16111
696.698	16261
696.724	16012
696.740	16130
696.783	16590
696.825	17096
696.844	17270
696.867	17240
696.909	16861
696.951	16647
696.964	16557
696.992	16772
697.034	16956
697.076	17130
697.083	17131
697.118	17735
697.160	18180
697.202	18662
697.203	18628
697.244	18428
697.286	17997
697.323	17598
697.327	17654
697.369	17679
697.411	17800
697.442	17782
697.453	17900
697.494	18200
697.536	18555
697.562	18633
697.578	18516
697.620	18173
697.661	17827
697.682	17609
697.703	18032
697.744	18701
697.786	19489
697.801	19692
697.828	19721
697.869	19711
697.911	19641
697.921	19577
697.952	19325
697.994	18921
698.035	18596
698.040	18486
698.077	18727
698.118	19039
698.160	19360
698.160	19308
698.201	20090
698.243	20850
698.279	21488
698.284	21608
698.325	22117
698.367	22679
698.399	23032
698.408	23157
698.449	23440
698.491	23712
698.518	23844
698.532	23840
698.573	23635
698.614	23400
698.638	23197
698.656	23178
698.697	23011
698.738	22819
698.757	22672
698.779	22601
698.820	22326
698.862	22069
698.877	21912
698.903	22262
698.944	22721
698.985	23176
698.996	23241
699.026	23049
699.067	22688
699.116	22198
699.235	22920
699.354	22862
699.474	20435
699.593	21159
699.713	21369
699.832	22379
699.951	23152
700.070	21619
700.190	20654
700.309	19698
700.428	19791
700.547	19465
700.667	19183
700.786	18883
700.905	18385
701.024	18655
701.143	17572
701.262	19463
701.381	20683
701.500	19997
701.619	19407
701.738	20525
701.857	19353
701.976	18200
702.095	18693
702.214	18759
702.333	18499
702.452	19956
702.571	19879
702.690	18742
702.809	18837
702.928	18922
703.047	17238
703.165	18043
703.284	17423
703.403	17484
703.522	17146
703.640	16620
703.759	16473
703.878	16222
703.997	16756
704.115	16083
704.234	15948
704.353	16406
704.471	15758
704.590	15067
704.708	14854
704.827	14944
704.946	15339
705.064	14753
705.183	14722
705.301	16015
705.420	14937
705.538	13941
705.656	13080
705.775	13134
705.893	14225
706.012	12870
706.130	13515
706.249	14907
706.367	12291
706.485	12766
706.604	12990
706.722	12754
706.840	13866
706.958	14658
707.077	13053
707.195	12151
707.313	13168
707.431	11580
707.549	12002
707.668	10699
707.786	13466
707.904	12180
708.022	12046
708.140	12601
708.258	10227
708.376	13649
708.494	10262
708.612	13290
708.730	12411
708.848	11736
708.966	12667
709.084	11773
709.202	11773
709.320	10959
709.438	11010
709.556	10318
709.674	9433
709.791	10439
709.909	10356
710.027	9615
710.145	10509
710.263	10385
710.380	9602
710.498	9892
710.616	10453
710.733	9651
710.851	9101
710.969	10761
711.086	9179
711.204	9803
711.322	9512
711.439	9182
711.557	8759
711.674	9492
711.792	9361
711.909	8450
712.027	8479
712.144	8909
712.262	9254
712.379	9683
712.497	9110
712.614	8732
712.732	10268
712.849	8841
712.966	9027
713.084	9593
713.201	8514
713.318	9127
713.436	9731
713.553	9010
713.670	10438
713.787	8896
713.905	8631
714.022	10223
714.139	10380
714.256	11624
714.373	18037
714.490	32847
714.608	88817
714.725	338678
714.842	265044
714.959	27690
715.076	13615
715.193	11196
715.310	10365
715.427	7519
715.544	9037
715.661	8515
715.778	7933
715.895	7264
716.011	8042
716.128	7468
716.245	7565
716.362	7211
716.479	6081
716.596	7689
716.713	8088
716.829	7147
716.946	6904
717.063	6553
717.180	6571
717.296	7405
717.413	6483
717.530	6441
717.646	6319
717.763	6216
717.880	6411
717.996	5278
718.113	6395
718.229	6320
718.346	5450
718.462	5625
718.579	5963
718.695	6897
718.812	7193
718.928	6257
719.045	5835
719.161	6614
719.277	6157
719.394	6572
719.510	7391
719.626	7109
719.743	8896
719.859	13911
719.975	30576
720.092	126670
720.208	232032
720.324	24269
720.440	9550
720.557	7135
720.673	6995
720.789	5899
720.905	5846
721.021	5416
721.137	5635
721.253	5619
721.369	5654
721.486	5448
721.602	4694
721.718	5389
721.834	4658
721.950	5279
722.066	4989
722.181	4892
722.297	5672
722.413	4904
722.529	5721
722.645	4870
722.761	4787
722.877	4411
722.993	4812
723.108	6889
723.224	5678
723.340	4949
723.456	4799
723.571	4599
723.687	3968
723.803	4569
723.918	4206
724.034	5645
724.150	4431
724.265	5163
724.381	4856
724.497	4611
724.612	4274
724.728	4758
724.843	4069
724.959	3879
725.074	4811
725.190	4720
725.305	4393
725.421	4098
725.536	4100
725.651	4464
725.767	4449
725.882	4731
725.997	4460
726.113	5369
726.228	4169
726.343	4492
726.459	3517
726.574	3849
726.689	3682
726.804	4453
726.920	4331
727.035	3748
727.150	4407
727.265	3830
727.380	4420
727.495	4367
727.610	3867
727.725	3703
727.841	3834
727.956	4297
728.071	4212
728.186	3567
728.301	3439
728.416	4545
728.531	4546
728.645	3438
728.760	4140
728.875	3878
728.990	3640
729.105	3912
729.220	3352
729.335	3658
729.449	5318
729.564	3948
729.679	4246
729.794	4473
729.908	4128
730.023	4120
730.138	3489
730.253	5359
730.367	3637
730.482	4388
730.596	4033
730.711	5135
730.826	6882
730.940	6011
731.055	5479
731.169	4819
731.284	6193
731.398	5674
731.513	5652
731.627	6580
731.742	9590
731.856	10202
731.970	10102
732.085	12810
732.199	18612
732.313	30227
732.428	81486
732.542	238418
732.656	116332
732.771	24177
732.885	14229
732.999	14613
733.113	15906
733.227	15268
733.342	13304
733.456	14032
733.570	13480
733.684	12401
733.798	12474
733.912	12115
734.026	12937
734.140	12537
734.254	11980
734.368	12050
734.482	11918
734.596	12628
734.710	11056
734.824	9845
734.938	11400
735.052	11166
735.166	11093
735.280	10947
735.393	10725
735.507	11081
735.621	10057
735.735	9999
735.849	10299
735.962	9516
736.076	10598
736.190	8983
736.303	10436
736.417	10263
736.531	9390
736.644	10301
736.758	9335
736.872	8821
736.985	9253
737.099	9108
737.212	8192
737.326	9309
737.439	9032
737.553	7914
737.666	9730
737.780	8349
737.893	9199
738.007	8624
738.120	8668
738.233	7770
738.347	8670
738.460	8163
738.573	9533
738.687	7838
738.800	8130
738.913	9407
739.026	8607
739.140	8143
739.253	8636
739.366	8049
739.479	7828
739.592	7943
739.705	7265
739.818	8732
739.932	6132
740.045	8590
740.158	7107
740.271	8363
740.384	8231
740.497	7328
740.610	8257
740.723	6625
740.836	7484
740.949	8265
741.062	7727
741.174	7330
741.287	7581
741.400	7558
741.513	6613
741.626	7817
741.739	7369
741.851	6820
741.964	7713
742.077	6707
742.189	6338
742.302	7528
742.415	6419
742.527	6317
742.640	7455
742.753	5875
742.865	6581
742.978	6507
743.090	6268
743.203	5734
743.316	6250
743.428	6088
743.541	6398
743.653	5726
743.766	6264
743.878	7225
743.990	5637
744.103	7348
744.215	6495
744.327	5321
744.440	6748
744.552	5602
744.664	6054
744.777	6283
744.889	5584
745.001	5399
745.113	7051
745.226	5354
745.338	4796
745.450	6048
745.562	4837
745.674	4943
745.786	5729
745.898	5604
746.010	5104
746.122	5552
746.234	6056
746.347	5285
746.459	5619
746.570	4432
746.682	7242
746.794	7946
746.906	5460
747.018	4439
747.130	6057
747.242	4341
747.354	4722
747.466	6059
747.577	4730
747.689	5008
747.801	5481
747.913	4187
748.024	4345
748.136	4227
748.248	4137
748.359	4477
748.471	4999
748.583	4263
748.694	3354
748.806	4947
748.918	3985
749.029	5180
749.141	4939
749.252	5345
749.364	4366
749.475	3615
749.587	3395
749.698	3799
749.809	4807
749.921	4680
750.032	4753
750.144	4414
750.255	3456
750.366	3429
750.478	3655
750.589	3820
750.700	2916
750.811	3894
750.923	4312
751.034	3788
751.145	4307
751.256	3480
751.367	2740
751.479	4432
751.590	4100
751.701	4006
751.812	3302
751.923	3594
752.034	5056
752.145	3397
752.256	4298
752.367	3087
752.478	3296
752.589	4369
752.700	4166
752.811	2826
752.922	3729
753.032	3540
753.143	4587
753.254	2921
753.365	4314
753.476	4716
753.586	4095
753.697	3986
753.808	3274
753.919	3161
754.029	3498
754.140	3582
754.251	3096
754.361	3188
754.472	4540
754.582	3373
754.693	3008
754.804	4171
754.914	2837
755.025	2829
755.135	3241
755.246	4566
755.356	3078
755.466	3890
755.577	3655
755.687	3856
755.798	3124
755.908	3123
756.018	3792
756.129	3856
756.239	3662
756.349	4230
756.460	2956
756.570	4374
756.680	3425
756.790	2664
756.900	4396
757.011	2143
757.121	2590
757.231	4203
757.341	3230
757.451	2689
757.561	3210
757.671	2617
757.781	2995
757.891	2543
758.001	2237
758.111	3614
758.221	3632
758.331	3036
758.441	3436
758.551	3234
758.661	3657
758.771	3976
758.880	2758
758.990	3450
759.100	2399
759.210	2932
759.320	3646
759.429	3168
759.539	3608
759.649	2699
759.758	4875
759.868	4193
759.978	4335
760.087	4547
760.197	4994
760.307	4387
760.416	3880
760.526	3429
760.635	4369
760.745	4403
760.854	4994
760.964	5622
761.073	4587
761.182	4344
761.292	3788
761.401	4249
761.511	3405
761.620	3150
761.729	3498
761.839	2007
761.948	2540
762.057	2469
762.166	2979
762.276	1511
762.385	4894
762.494	2580
762.603	2603
762.712	2368
762.822	2319
762.931	1835
763.040	2056
763.149	2793
763.258	2187
763.367	3175
763.476	2784
763.585	2708
763.694	2432
763.803	2840
763.912	2841
764.021	2854
764.130	2967
764.238	2918
764.347	2742
764.456	3091
764.565	2796
764.674	2879
764.783	2759
764.891	2719
765.000	4384
765.109	2846
765.217	3073
765.326	3336
765.435	3998
765.543	5142
765.652	5564
765.761	7177
765.869	8323
765.978	12567
766.086	20777
766.195	40548
766.303	97045
766.412	190720
766.520	149379
766.629	61841
766.737	26252
766.846	15336
766.954	9708
767.062	8233
767.171	6226
767.279	6047
767.387	4933
767.496	5017
767.604	3122
767.712	3592
767.820	4014
767.928	3707
768.037	2878
768.145	3105
768.253	3341
768.361	2605
768.469	2866
768.577	1939
768.685	3730
768.793	3753
768.901	2917
769.009	3846
769.117	3454
769.225	4791
769.333	5959
769.441	9293
769.549	16782
769.657	36663
769.765	103364
769.873	153155
769.981	68099
770.088	21855
770.196	10927
770.304	8473
770.412	6642
770.519	5069
770.627	5112
770.735	4345
770.842	3593
770.950	4168
771.058	3421
771.165	5041
771.273	4664
771.380	5442
771.488	8769
771.595	8774
771.703	8013
771.810	7457
771.918	6911
772.025	9376
772.133	9785
772.240	8993
772.348	10812
772.455	10593
772.562	8800
772.670	8158
772.777	9963
772.884	8698
772.991	8375
773.099	9807
773.206	8052
773.313	9258
773.420	8390
773.528	7824
773.635	7868
773.742	9109
773.849	8282
773.956	8242
774.063	6899
774.170	8064
774.277	8805
774.384	7081
774.491	7264
774.598	8446
774.705	7552
774.812	8134
774.919	7551
775.026	7600
775.133	8454
775.239	7734
775.346	6633
775.453	6730
775.560	7264
775.667	7229
775.773	5551
775.880	6744
775.987	6834
776.093	7307
776.200	8174
776.307	5436
776.413	6464
776.520	7678
776.627	6431
776.733	5762
776.840	5128
776.946	9931
777.053	9669
777.159	10028
777.266	6787
777.372	10330
777.478	8104
777.585	6417
777.691	6051
777.798	6800
777.904	5964
778.010	5388
778.117	5857
778.223	5976
778.329	5163
778.435	4640
778.542	6574
778.648	5598
778.754	4235
778.860	5654
778.966	5103
779.072	4596
779.178	5640
779.284	4092
779.391	4977
779.497	4436
779.603	6444
779.708	4479
779.815	5280
779.920	7434
780.026	8091
780.132	5142
780.238	4385
780.344	4131
780.450	6961
780.556	3818
780.661	4397
780.767	5637
780.873	3434
780.979	4337
781.085	4825
781.190	4438
781.296	3501
781.402	5129
781.507	4180
781.613	3423
781.719	4479
781.824	4700
781.930	4344
782.035	5350
782.141	4386
782.246	3438
782.352	4030
782.457	4746
782.563	4077
782.668	3846
782.773	3933
782.879	3061
782.984	5050
783.090	3602
783.195	4078
783.300	5040
783.405	4184
783.511	2582
783.616	4260
783.721	3632
783.826	4332
783.932	2948
784.037	3350
784.142	4346
784.247	3449
784.352	4087
784.457	2654
784.562	4176
784.667	4230
784.772	2824
784.877	2013
784.982	4158
785.087	3393
785.192	3102
785.297	3178
785.402	3995
785.507	3625
785.611	3602
785.716	2546
785.821	3894
785.926	2566
786.031	3868
786.135	3156
786.240	4116
786.345	1422
786.450	3152
786.554	3217
786.659	3033
786.763	2676
786.868	3451
786.973	5067
787.077	2572
787.182	3025
787.286	3576
787.391	3469
787.495	1087
787.600	2454
787.704	1386
787.809	3205
787.913	2534
788.017	2765
788.122	3175
788.226	2342
788.330	1394
788.435	2268
788.539	3790
788.643	1960
788.747	1786
788.852	2765
788.956	2539
789.060	3554
789.164	2986
789.268	2864
789.372	3186
789.476	1978
789.580	1575
789.684	1995
789.788	3608
789.892	2164
789.996	2303
790.100	2204
790.204	2810
790.308	3063
790.412	656
790.516	1142
790.620	2421
790.724	3389
790.828	1560
790.931	874
791.035	3104
791.139	1859
791.242	1481
791.346	3324
791.450	2247
791.554	1043
791.657	1078
791.761	2850
791.864	2251
791.968	2777
792.072	1822
792.175	1951
792.279	1072
792.382	2064
792.486	1658
792.589	1494
792.693	2802
792.796	1558
792.899	2208
793.003	2795
793.106	-214
793.209	1043
793.313	2719
793.416	-33
793.519	2255
793.623	3048
793.726	1026
793.829	596
793.932	684
794.035	423
794.138	2822
794.242	2471
794.345	896
794.448	1322
794.551	921
794.654	4190
794.757	4019
794.860	1444
794.963	1964
795.066	512
795.169	2274
795.272	445
795.375	2418
795.477	1373
795.580	1452
795.683	-139
795.786	2026
795.889	863
795.991	1975
796.094	2675
796.197	736
796.300	3107
796.402	1542
796.505	1249
796.608	563
796.710	2228
796.813	2170
796.915	1408
797.018	1947
797.120	2127
797.223	384
797.326	3095
797.428	1238
797.530	743
797.633	374
797.735	2009
797.838	1513
797.940	2143
798.042	1773
798.145	789
798.247	1598
798.349	33
798.452	2983
798.554	1750
798.656	1631
798.758	2677
798.860	1506
798.962	1408
799.065	1315
799.167	155
799.269	2463
799.371	2815
799.473	2758
799.575	678
799.677	301
799.779	2225
799.881	-597
799.983	2005
800.085	814
800.187	1823
800.289	612
800.390	458
800.492	2517
800.594	2730
800.696	416
800.798	76
800.899	448
801.001	830
801.103	1828
801.205	869
801.306	740
801.408	397
801.509	1357
801.611	1768
801.713	1919
801.814	541
801.916	1360
802.017	225
802.119	-671
802.220	1270
802.322	365
802.423	1906
802.525	267
802.626	808
802.727	1442
802.829	1366
802.930	-786
803.031	2051
803.133	940
803.234	1364
803.335	694
803.436	-333
803.538	1174
803.639	-65
803.740	1724
803.841	634
803.942	2004
804.043	1456
804.144	118
804.245	486
804.346	412
804.447	192
804.548	346
804.649	1953
804.750	185
804.851	141
804.952	442
805.053	1567
805.154	-526
805.255	1331
805.355	1528
805.456	470
805.557	461
805.658	91
805.758	1742
805.859	1203
805.960	853
806.061	124
806.161	953
806.262	282
806.362	364
806.463	-74
806.564	1026
806.664	1140
806.765	674
806.865	417
806.966	495
807.066	-57
807.166	2317
807.267	946
807.367	1217
807.468	1321
807.568	-1085
807.668	800
807.769	942
807.869	191
807.969	340
808.069	90
808.170	1134
808.270	-308
808.370	1392
808.470	99
808.570	-226
808.670	1439
808.770	420
808.870	262
808.970	338
809.070	-401
809.170	221
809.271	1147
809.370	138
809.470	955
809.570	464
809.670	-412
809.770	-81
809.870	715
809.970	381
810.070	674
810.169	1290
810.269	-1108
810.369	1353
810.469	-12
810.568	158
810.668	-427
810.768	162
810.867	795
810.967	-429
811.066	672
811.166	-525
811.265	937
811.365	465
811.464	53
811.564	1609
811.663	790
811.763	-419
811.862	930
811.962	1852
812.061	1
812.160	153
812.260	427
812.359	641
812.458	1111
812.557	1649
812.657	306
812.756	632
812.855	-284
812.954	434
813.053	449
813.153	580
813.252	-648
813.351	478
813.450	1288
813.549	449
813.648	134
813.747	178
813.846	1585
813.945	-164
814.044	705
814.143	532
814.242	1066
814.341	-245
814.439	1049
814.538	900
814.637	482
814.736	152
814.835	2255
814.933	461
815.032	1189
815.131	3206
815.229	5675
815.328	9008
815.427	5604
815.525	5585
815.624	5010
815.722	4427
815.821	4826
815.919	5024
816.018	4806
816.116	5282
816.215	5233
816.313	5601
816.412	7496
816.510	6620
816.609	8097
816.707	7692
816.805	6489
816.904	5931
817.002	7015
817.100	7775
817.198	8189
817.296	6429
817.395	6450
817.493	6627
817.591	5972
817.689	6070
817.787	6192
817.885	5993
817.983	6209
818.081	5808
818.179	6313
818.277	11712
818.375	8381
818.473	6851
818.571	5370
818.669	6631
818.767	6730
818.865	5948
818.963	4707
819.061	6158
819.158	5711
819.256	7842
819.354	8000
819.452	14518
819.549	7707
819.647	7806
819.745	3661
819.842	5754
819.940	5089
820.038	4687
820.135	4245
820.233	7174
820.330	4282
820.428	3507
820.525	6317
820.623	4282
820.720	3898
820.818	5036
820.915	5347
821.012	5364
821.110	4156
821.207	5712
821.304	4697
821.402	5919
821.499	6330
821.596	4835
821.693	4641
821.791	4930
821.888	4455
821.985	4867
822.082	3565
822.179	5500
822.276	5535
822.373	3975
822.470	3855
822.567	4318
822.664	3627
822.761	5090
822.858	3429
822.955	4545
823.052	3481
823.149	3466
823.246	4068
823.343	3049
823.440	4203
823.536	4791
823.633	3918
823.730	2410
823.827	4460
823.923	4004
824.020	4126
824.117	4214
824.213	3813
824.310	3609
824.407	2874
824.503	3358
824.600	3539
824.696	2563
824.793	5032
824.889	3897
824.986	3307
825.082	2810
825.179	2723
825.275	3807
825.371	5077
825.468	2878
825.564	1141
825.660	3791
825.757	4721
825.853	2905
825.949	2427
826.045	3332
826.142	2490
826.238	3764
826.334	3345
826.430	2771
826.526	1868
826.622	1759
826.718	4630
826.814	4017
826.910	3318
827.006	1428
827.102	1218
827.198	3552
827.294	3394
827.390	4002
827.486	3169
827.582	675
827.678	2400
827.774	4302
827.869	1657
827.965	3192
828.061	1240
828.157	3333
828.252	3129
828.348	1811
828.444	2981
828.539	1311
828.635	3670
828.731	3490
828.826	1187
828.922	2759
829.017	3249
829.113	3406
829.208	1979
829.304	2144
829.399	4160
829.495	2542
829.590	2827
829.685	2211
829.781	2816
829.876	2265
829.971	978
830.066	1198
830.162	2206
830.257	4026
830.352	2075
830.447	1559
830.543	1244
830.638	858
830.733	3985
830.828	1723
830.923	2564
831.018	3067
831.113	3043
831.208	1217
831.303	806
831.398	1219
831.493	2386
831.588	3621
831.683	737
831.778	849
831.873	1758
831.967	2462
832.062	2269
832.157	2056
832.252	1531
832.346	1088
832.441	3201
832.536	1829
832.631	1726
832.725	995
832.820	2150
832.914	2051
833.009	1126
833.104	1134
833.198	1528
833.293	2505
833.387	2377
833.482	1530
833.576	677
833.670	2883
833.765	1974
833.859	1545
833.954	2409
834.048	1597
834.142	1658
834.237	218
834.331	1447
834.425	1969
834.519	2023
834.613	1984
834.708	338
834.802	964
834.896	1587
834.990	1681
835.084	1513
835.178	898
835.272	409
835.366	1787
835.460	2433
835.554	902
835.648	480
835.742	-786
835.836	784
835.930	976
836.024	2138
836.117	2803
836.211	613
836.305	1277
836.399	958
836.493	213
836.586	2139
836.680	1897
836.774	-279
836.867	1403
836.961	219
837.055	-31
837.148	587
837.242	1357
837.335	1466
837.429	640
837.522	707
837.616	991
837.709	1221
837.803	243
837.896	2188
837.989	1162
838.083	594
838.176	141
838.269	-781
838.363	1795
838.456	1353
838.549	2080
838.642	-92
838.735	803
838.829	2076
838.922	54
839.015	530
839.108	-204
839.201	880
839.294	1218
839.387	977
839.480	87
839.573	134
839.666	273
839.759	727
839.852	138
839.945	865
840.038	827
840.131	-251
840.223	831
840.316	2405
840.409	1451
840.502	1034
840.594	2487
840.687	-413
840.780	6
840.873	-110
840.965	736
841.058	1329
841.150	446
841.243	-76
841.336	636
841.428	1061
841.521	99
841.613	340
841.706	632
841.798	382
841.890	692
841.983	-340
842.075	1036
842.167	-249
842.260	374
842.352	1630
842.444	964
842.537	-75
842.629	552
842.721	-232
842.813	600
842.905	377
842.997	1333
843.090	177
843.182	146
843.274	-78
843.366	803
843.458	683
843.550	1753
843.642	776
843.734	661
843.826	-699
843.918	380
844.009	328
844.101	62
844.193	513
844.285	850
844.377	1086
844.469	327
844.560	491
844.652	-216
844.744	226
844.835	307
844.927	159
845.019	149
845.110	395
845.202	623
845.293	595
845.385	-348
845.476	555
845.568	631
845.659	-29
845.751	1152
845.842	-120
845.934	356
846.025	-597
846.116	763
846.208	935
846.299	200
846.390	-262
846.482	676
846.573	771
846.664	716
846.755	-359
846.846	1110
846.937	-751
847.029	69
847.120	166
847.211	100
847.302	1466
847.393	387
847.484	-224
847.575	-218
847.666	-503
847.757	-39
847.847	-67
847.938	1239
848.029	925
848.120	427
848.211	-471
848.302	-643
848.392	89
848.483	1015
848.574	-151
848.664	750
848.755	219
848.846	119
848.936	-131
849.027	240
849.118	28
849.208	-649
849.299	425
849.389	2773
849.480	4246
849.570	8544
849.661	18972
849.751	28131
849.841	8055
849.932	1218
850.022	50
850.112	954
850.203	50
850.293	-304
850.383	68
850.474	-626
850.564	-190
850.654	-741
850.744	-192
850.834	260
850.924	-175
851.014	903
851.104	779
851.194	78
851.284	-279
851.374	425
851.464	-149
851.554	611
851.644	153
851.734	-71
851.824	-501
851.914	22
852.004	613
852.094	133
852.183	284
852.273	762
852.363	-194
852.452	982
852.542	46
852.632	-1243
852.721	-136
852.811	-118
852.901	646
852.990	631
853.080	209
853.169	873
853.259	-240
853.348	502
853.438	911
853.527	1726
853.617	1956
853.706	5048
853.795	9250
853.885	22437
853.974	38982
854.063	73896
854.152	94398
854.242	32935
854.331	7747
854.420	2894
854.509	2482
854.598	2041
854.687	32
854.777	2302
854.866	-541
854.955	1109
855.044	-327
855.133	425
855.222	25
855.311	-811
855.400	-240
855.488	-228
855.577	236
855.666	-547
855.755	-12
855.844	875
855.933	-96
856.021	722
856.110	125
856.199	-965
856.288	-407
856.376	-462
856.465	-1015
856.554	-244
856.642	52
856.731	768
856.819	710
856.908	-361
856.996	81
857.085	-458
857.173	842
857.262	136
857.350	-131
857.438	183
857.527	-287
857.615	-549
857.703	-106
857.792	-221
857.880	-145
857.968	-742
858.056	-920
858.145	-353
858.233	41
858.321	-1089
858.409	658
858.497	-345
858.585	-744
858.673	405
858.761	46
858.849	-1009
858.937	25
859.025	406
859.113	589
859.201	-399
859.289	937
859.377	-683
859.465	-263
859.552	22
859.640	-845
859.728	-312
859.816	572
859.903	172
859.991	-387
860.079	330
860.166	-9
860.254	167
860.342	-473
860.429	-346
860.517	203
860.604	-455
860.692	85
860.779	-409
860.867	-440
860.954	140
861.042	264
861.129	260
861.216	561
861.304	674
861.391	338
861.478	-589
861.565	326
861.653	523
861.740	-626
861.827	-273
861.914	-171
862.001	-110
862.089	425
862.176	-740
862.263	-101
862.350	369
862.437	194
862.524	-822
862.611	-517
862.698	734
862.785	-25
862.871	1001
862.958	57
863.045	344
863.132	-379
863.219	370
863.306	-1090
863.392	26
863.479	-650
863.566	821
863.652	-83
863.739	105
863.826	1094
863.912	524
863.999	160
864.086	483
864.172	797
864.259	332
864.345	666
864.432	839
864.518	1422
864.604	922
864.691	889
864.777	1220
864.863	2237
864.950	2373
865.036	4210
865.122	8357
865.209	7856
865.295	7865
865.381	6796
865.467	6337
865.553	6973
865.639	6931
865.726	9443
865.812	16113
865.898	26149
865.984	36851
866.070	63889
866.156	57540
866.242	18581
866.328	9724
866.414	6660
866.499	7624
866.585	5942
866.671	5628
866.757	6087
866.843	6246
866.928	5412
867.014	5450
867.100	5783
867.186	5905
867.271	4707
867.357	5965
867.442	5180
867.528	5301
867.614	5734
867.699	5020
867.785	5646
867.870	4924
867.956	4888
868.041	5503
868.127	4586
868.212	5201
868.297	5896
868.383	5425
868.468	4380
868.553	5830
868.639	3601
868.724	4506
868.809	5020
868.894	4697
868.979	4737
869.065	4919
869.150	2947
869.235	4384
869.320	4467
869.405	3288
869.490	3987
869.575	3824
869.660	3111
869.745	4878
869.830	4266
869.915	3543
870.000	3310
870.085	2881
870.169	5369
870.254	5441
870.339	2569
870.424	3018
870.509	4432
870.593	4808
870.678	4592
870.763	2924
870.847	3353
870.932	4177
871.016	4140
871.101	1813
871.186	4414
871.270	4451
871.355	2461
871.439	4041
871.523	4393
871.608	2101
871.692	3198
871.777	4120
871.861	4058
871.945	3153
872.030	2510
872.114	3889
872.198	2014
872.282	3063
872.367	3009
872.451	3517
872.535	3698
872.619	3352
872.703	3593
872.787	2957
872.871	4008
872.955	2082
873.039	2109
873.123	3925
873.207	3198
873.291	949
873.375	2112
873.459	3406
873.543	3365
873.627	2115
873.711	1779
873.794	2969
873.878	2430
873.962	1257
874.045	1319
874.129	2799
874.137	2756
874.213	2327
874.245	2485
874.296	2741
874.352	2277
874.380	2053
874.460	2185
874.464	2189
874.547	2397
874.568	2588
874.631	3178
874.676	2703
874.714	2298
874.784	2604
874.798	2666
874.881	2875
874.892	2697
874.965	1495
874.999	2111
875.048	2959
875.107	2385
875.131	2123
875.215	1795
875.215	1795
875.298	1867
875.323	2182
875.381	2881
875.430	3371
875.465	3734
875.538	2711
875.548	2555
875.631	1101
875.646	1046
875.714	879
875.753	940
875.798	1018
875.861	2653
875.881	3169
875.964	2043
875.968	2043
876.047	1969
876.076	1989
876.130	2130
876.183	2359
876.213	2402
876.291	3504
876.296	3590
876.379	2409
876.398	2289
876.462	1791
876.506	1826
876.545	1935
876.613	2150
876.628	2176
876.711	1977
876.721	2034
876.794	2636
876.828	2463
876.877	1974
876.935	1717
876.960	1759
877.043	1736
877.043	1740
877.125	2213
877.150	2296
877.208	2513
877.258	2135
877.291	1886
877.365	1460
877.374	1413
877.456	1762
877.472	1681
877.539	1237
877.579	1547
877.622	1974
877.687	1424
877.704	1250
877.787	1697
877.794	1721
877.869	2145
877.901	2027
877.952	1608
878.008	991
878.034	765
878.115	1301
878.117	1313
878.199	1298
878.222	1321
878.282	1641
878.329	2397
878.364	2733
878.437	2567
878.447	2534
878.529	751
878.544	807
878.611	1093
878.651	1239
878.694	1708
878.758	2255
878.776	2284
878.858	2395
878.865	2327
878.941	1662
878.972	1328
879.023	588
879.078	686
879.105	944
879.185	1653
879.187	1662
879.269	1717
879.292	1853
879.351	2288
879.399	1731
879.433	1193
879.506	1500
879.516	1553
879.598	1147
879.613	1082
879.680	964
879.720	1397
879.762	1891
879.827	2034
879.844	1984
879.926	891
879.933	928
880.007	1663
880.040	1584
880.089	1391
880.147	2271
880.171	2644
880.253	2917
880.254	2922
880.335	3314
880.360	3469
880.417	4755
880.467	6885
880.499	8061
880.574	7919
880.580	7745
880.662	3976
880.680	3328
880.744	1380
880.787	984
880.825	1031
880.893	1668
880.907	1751
880.989	1470
881.000	1408
881.070	1850
881.106	2285
881.152	2105
881.213	1295
881.233	1264
881.315	1548
881.319	1592
881.396	1658
881.426	1443
881.478	1386
881.532	1625
881.559	1696
881.639	1582
881.641	1577
881.722	1225
881.745	1286
881.803	1906
881.852	1937
881.885	1554
881.958	1105
881.966	1073
882.047	1114
882.064	956
882.129	953
882.171	1114
882.210	875
882.277	418
882.291	490
882.372	1716
882.383	1843
882.454	2155
882.489	1822
882.535	1377
882.596	1652
882.616	1725
882.697	1593
882.702	1555
882.778	1307
882.808	1363
882.859	1136
882.914	1041
882.940	1111
883.020	1123
883.021	1126
883.102	1487
883.127	1595
883.183	2210
883.233	2595
883.264	2068
883.339	551
883.345	544
883.426	1156
883.445	1286
883.507	1362
883.551	937
883.587	897
883.657	1510
883.668	1559
883.749	1880
883.763	1787
883.830	1089
883.869	1075
883.910	880
883.975	618
883.991	772
884.072	1611
884.081	1671
884.152	2187
884.187	2284
884.233	1998
884.292	1674
884.314	1414
884.394	539
884.398	492
884.475	517
884.504	619
884.555	525
884.610	250
884.636	384
884.716	1361
884.716	1369
884.797	2014
884.821	2207
884.877	1987
884.927	1571
884.958	1260
885.033	766
885.038	792
885.118	947
885.139	1109
885.199	947
885.244	631
885.279	785
885.350	1552
885.359	1657
885.439	2061
885.456	2093
885.520	1505
885.561	1207
885.600	1016
885.667	1120
885.680	1228
885.760	1277
885.773	1329
885.840	903
885.878	682
885.920	945
885.984	1256
886.000	1245
886.080	1057
886.089	1053
886.160	1203
886.195	1280
886.240	1083
886.300	636
886.320	763
886.400	1371
886.406	1414
886.480	1055
886.511	891
886.560	994
886.616	1096
886.640	941
886.720	363
886.722	351
886.800	1176
886.827	1457
886.879	1208
886.932	836
886.959	1189
887.038	2414
887.039	2410
887.119	1531
887.143	1266
887.198	1602
887.248	1789
887.278	1456
887.354	671
887.358	712
887.437	1575
887.459	1827
887.517	1663
887.564	1437
887.596	1431
887.669	1335
887.676	1281
887.755	659
887.774	513
887.835	1295
887.880	1927
887.914	1651
887.985	854
887.994	966
888.073	2215
888.090	2420
888.153	2015
888.195	1734
888.232	1537
888.300	1260
888.311	1233
888.391	995
888.405	948
888.470	878
888.510	856
888.549	925
888.615	1040
888.628	1150
888.708	1758
888.720	1857
888.787	1509
888.825	1235
888.866	942
888.930	644
888.945	636
889.024	601
889.035	580
889.103	1464
889.140	1963
889.182	1200
889.245	96
889.261	287
889.340	1211
889.349	1317
889.419	1162
889.454	1071
889.498	1178
889.559	1371
889.577	1321
889.656	1083
889.664	1062
889.735	1397
889.768	1554
889.814	1327
889.873	1025
889.978	1438
890.083	1002
890.187	1473
890.292	903
890.397	1510
890.501	1369
890.606	1187
890.710	1638
890.815	1888
890.919	1244
891.024	1767
891.128	447
891.233	1047
891.337	749
891.442	2607
891.546	1466
891.650	956
891.755	72
891.859	2632
891.963	1932
892.068	2429
892.172	732
892.276	32
892.380	1123
892.484	1210
892.589	1690
892.693	1152
892.797	-39
892.901	1226
893.005	287
893.109	2121
893.213	1358
893.317	1415
893.421	-358
893.525	745
893.629	831
893.733	2204
893.837	56
893.941	307
894.045	1652
894.148	688
894.252	333
894.356	889
894.460	2405
894.564	1750
894.667	137
894.771	822
894.875	23
894.978	1447
895.082	736
895.186	1948
895.289	2026
895.393	1610
895.496	1319
895.600	1314
895.703	-508
895.807	1029
895.910	733
896.014	930
896.117	614
896.221	1928
896.324	765
896.427	628
896.531	211
896.634	-147
896.737	-234
896.840	1619
896.944	1201
897.047	1691
897.150	408
897.253	712
897.356	735
897.460	567
897.563	548
897.666	1838
897.769	1568
897.872	302
897.975	-685
898.078	1890
898.181	432
898.284	984
898.387	754
898.490	2087
898.593	-40
898.695	676
898.798	984
898.901	204
899.004	17
899.107	1126
899.209	645
899.312	1573
899.415	1464
899.518	285
899.620	-549
899.723	1113
899.826	-343
899.928	899
900.031	316
900.133	1454
900.236	268
900.338	506
900.441	1109
900.543	955
900.646	689
900.748	937
900.851	455
900.953	1004
901.055	-54
901.158	856
901.260	296
901.362	324
901.465	-114
901.567	926
901.669	1091
901.771	468
901.873	883
901.976	1319
902.078	111
902.180	510
902.282	-292
902.384	387
902.486	1412
902.588	514
902.690	240
902.792	205
902.894	772
902.996	1436
903.098	-187
903.200	635
903.302	1608
903.404	867
903.505	-9
903.607	1152
903.709	1015
903.811	2118
903.913	458
904.014	442
904.116	368
904.218	932
904.319	502
904.421	2203
904.523	1274
904.624	802
904.726	79
904.827	1166
904.929	1484
905.030	439
905.132	1697
905.233	1676
905.335	647
905.436	681
905.537	959
905.639	384
905.740	311
905.841	1418
905.943	819
906.044	881
906.145	305
906.247	729
906.348	565
906.449	1576
906.550	757
906.651	383
906.752	811
906.854	60
906.955	-481
907.056	1066
907.157	1389
907.258	2438
907.359	74
907.460	-122
907.561	127
907.662	252
907.762	304
907.863	1673
907.964	1147
908.065	813
908.166	-774
908.267	454
908.367	-534
908.468	1014
908.569	1059
908.670	1459
908.770	221
908.871	1048
908.971	24
909.072	467
909.173	183
909.273	823
909.374	814
909.474	795
909.575	569
909.675	569
909.776	112
909.876	1090
909.977	-163
910.077	780
910.177	332
910.278	931
910.378	342
910.478	477
910.579	-442
910.679	1072
910.779	160
910.879	1603
910.980	648
911.080	821
911.180	82
911.280	-264
911.380	824
911.480	803
911.580	394
911.680	1012
911.780	787
911.880	1647
911.980	22
912.080	179
912.180	753
912.280	1534
912.380	-303
912.480	824
912.580	-33
912.679	729
912.779	1524
912.879	1218
912.979	566
913.078	801
913.178	-231
913.278	419
913.377	274
913.477	14
913.577	296
913.676	1397
913.776	1125
913.875	910
913.975	635
914.074	-25
914.174	443
914.273	144
914.373	773
914.472	944
914.572	829
914.671	719
914.770	2
914.870	674
914.969	-143
915.068	885
915.167	452
915.267	655
915.366	-362
915.465	1107
915.564	746
915.663	379
915.763	166
915.862	1385
915.961	554
916.060	370
916.159	-309
916.258	454
916.357	-852
916.456	855
916.555	1387
916.654	579
916.752	818
916.851	968
916.950	179
917.049	641
917.148	249
917.247	897
917.345	-255
917.444	154
917.543	158
917.642	1163
917.740	72
917.839	1301
917.937	608
918.036	1881
918.135	610
918.233	1216
918.332	777
918.430	512
918.529	459
918.627	636
918.726	802
918.824	885
918.923	116
919.021	927
919.119	31
919.218	727
919.316	790
919.414	742
919.512	129
919.611	857
919.709	776
919.807	1776
919.905	1019
920.003	1311
920.102	1242
920.200	1221
920.298	1228
920.396	1102
920.494	1043
920.592	1202
920.690	1148
920.788	1401
920.886	957
920.984	1382
921.082	1207
921.180	2407
921.277	1347
921.375	1685
921.473	2264
921.571	3235
921.669	2335
921.766	2083
921.864	2289
921.962	2221
922.060	1465
922.157	3107
922.255	2143
922.352	2766
922.450	2864
922.548	3026
922.645	3087
922.743	4970
922.840	7557
922.938	8348
923.035	7348
923.133	6834
923.230	8087
923.327	10306
923.425	9428
923.522	9282
923.619	8264
923.717	7464
923.814	7569
923.911	6753
924.008	7287
924.106	7178
924.203	6591
924.300	8242
924.397	6521
924.494	8335
924.591	6762
924.688	6555
924.786	6610
924.883	7908
924.979	5694
925.077	7417
925.173	6855
925.270	6481
925.367	6472
925.464	8680
925.561	6955
925.658	7761
925.755	5923
925.852	8696
925.948	6570
926.045	7085
926.142	6844
926.239	7491
926.335	5535
926.432	8329
926.529	7618
926.625	8196
926.722	6169
926.818	6120
926.915	6424
927.011	6736
927.108	6534
927.204	7215
927.301	5210
927.397	6353
927.494	7236
927.590	5409
927.687	4447
927.783	7103
927.879	6066
927.976	5347
928.072	4932
928.168	5776
928.264	5073
928.361	4867
928.457	6895
928.553	6045
928.649	4684
928.745	5969
928.841	5133
928.937	6918
929.033	5417
929.129	4735
929.225	6877
929.321	5107
929.417	3633
929.513	6195
929.609	4158
929.705	4819
929.801	5971
929.897	4641
929.993	4912
930.089	6196
930.184	3824
930.280	5162
930.376	6233
930.471	4341
930.567	4246
930.663	5072
930.758	4210
930.854	4478
930.950	4513
931.045	4684
931.141	4367
931.236	5906
931.332	5148
931.427	3708
931.523	5257
931.618	5432
931.714	2652
931.809	4330
931.905	5545
932.000	3889
932.095	2280
932.191	5875
932.286	5896
932.381	4960
932.476	3664
932.572	5079
932.667	2783
932.762	3499
932.857	4598
932.952	5344
933.047	5002
933.142	3076
933.237	3214
933.332	4961
933.427	5413
933.522	5277
933.617	3688
933.712	4174
933.807	4419
933.902	5685
933.997	5348
934.092	3079
934.187	4081
934.282	5248
934.376	3690
934.471	4532
934.566	2798
934.661	4251
934.755	4202
934.850	5323
934.945	3450
935.039	3697
935.134	2820
935.228	4596
935.323	6049
935.417	4459
935.512	2422
935.606	2827
935.701	4416
935.795	4781
935.890	3517
935.984	3877
936.079	2483
936.173	4198
936.267	3253
936.362	3382
936.456	3550
936.550	5309
936.644	4041
936.738	3215
936.833	2875
936.927	2053
937.021	2678
937.115	4309
937.209	3452
937.303	4414
937.397	2723
937.491	3233
937.585	3713
937.679	4078
937.773	2600
937.867	2263
937.961	2963
938.055	5091
938.149	4319
938.243	1907
938.337	1575
938.430	3449
938.524	4701
938.618	4744
938.712	2566
938.805	3127
938.899	3307
938.993	5066
939.086	2538
939.180	2742
939.274	3432
939.367	3928
939.461	3759
939.554	3109
939.648	2114
939.741	2913
939.835	3086
939.928	4464
940.022	3554
940.115	2131
940.208	3573
940.302	4708
940.395	4779
940.488	2526
940.582	3079
940.675	1917
940.768	2148
940.861	4182
940.954	4550
941.048	1636
941.141	1368
941.234	1551
941.327	1189
941.420	3276
941.513	2832
941.606	2251
941.699	2337
941.792	3572
941.885	2632
941.978	4282
942.071	2848
942.164	2011
942.257	1582
942.349	2832
942.442	2353
942.535	1851
942.628	1742
942.721	3022
942.813	1221
942.906	2919
942.999	2844
943.091	1806
943.184	2305
943.277	2419
943.369	1524
943.462	1614
943.554	1726
943.647	2122
943.739	2814
943.832	3962
943.924	1332
944.017	1103
944.109	509
944.201	2551
944.294	1813
944.386	2806
944.478	1461
944.571	1963
944.663	1809
944.755	1927
944.847	2761
944.940	2895
945.032	965
945.124	2049
945.216	2973
945.308	2841
945.400	1703
945.492	2891
945.584	2476
945.676	3516
945.768	2577
945.860	3088
945.952	2877
946.044	2625
946.136	1238
946.228	2375
946.320	2113
946.412	2721
946.503	2777
946.595	3970
946.687	1248
946.779	1664
946.870	1061
946.962	1840
947.054	911
947.145	2798
947.237	1465
947.329	1820
947.420	1921
947.512	3060
947.603	1116
947.695	1661
947.786	931
947.878	1480
947.969	1460
948.061	2518
948.152	1625
948.243	1498
948.335	1117
948.426	775
948.517	1095
948.609	2463
948.700	1124
948.791	1449
948.882	1760
948.973	1202
949.065	1934
949.156	2327
949.247	686
949.338	2187
949.429	-182
949.520	1465
949.611	1221
949.702	2990
949.793	1002
949.884	2104
949.975	1564
950.066	655
950.157	826
950.247	1960
950.338	1058
950.429	544
950.520	1728
950.611	1424
950.701	942
950.792	2836
950.883	1674
950.973	1356
951.064	1546
951.155	2289
951.245	1675
951.336	1659
951.427	1856
951.517	2971
951.608	2321
951.698	2172
951.788	604
951.879	479
951.969	341
952.060	1323
952.150	1203
952.240	2800
952.331	568
952.421	3160
952.511	695
952.602	1422
952.692	675
952.782	1036
952.872	1871
952.962	1642
953.052	1611
953.143	1815
953.233	1602
953.323	1671
953.413	1242
953.503	1996
953.593	1725
953.683	2560
953.773	344
953.863	1758
953.953	354
954.042	1493
954.132	925
954.222	2481
954.312	676
954.402	1435
954.492	1216
954.581	1238
954.671	822
954.761	481
954.850	1578
954.940	443
955.030	352
955.119	514
955.209	677
955.298	1190
955.388	986
955.477	2398
955.567	73
955.656	1980
955.746	1339
955.835	851
955.925	-461
956.014	2177
956.103	990
956.193	2595
956.282	1698
956.371	1372
956.461	1278
956.550	1000
956.639	426
956.728	2061
956.817	435
956.906	1211
956.995	1358
957.085	704
957.174	883
957.263	592
957.352	605
957.441	1445
957.530	1014
957.619	1576
957.708	540
957.796	1300
957.885	1104
957.974	1090
958.063	1790
958.152	82
958.241	1416
958.329	774
958.418	816
958.507	776
958.596	2021
958.684	969
958.773	814
958.861	1065
958.950	844
959.039	419
959.127	25
959.216	1744
959.304	604
959.393	718
959.481	1189
959.570	451
959.658	456
959.746	860
959.835	1125
959.923	470
960.011	445
960.100	1222
960.188	931
960.276	944
960.365	101
960.453	1232
960.541	148
960.629	1333
960.717	303
960.805	98
960.893	776
960.981	245
961.069	1613
961.158	2090
961.245	1860
961.333	1943
961.421	-62
961.509	985
961.597	303
961.685	895
961.773	771
961.861	766
961.949	1798
962.036	829
962.124	984
962.212	1085
962.299	58
962.387	1131
962.475	421
962.562	-180
962.650	1382
962.738	1354
962.825	654
962.913	530
963.000	1068
963.088	1296
963.175	784
963.263	842
963.350	769
963.438	1109
963.525	95
963.612	1183
963.700	-475
963.787	1713
963.874	446
963.962	1062
964.049	1251
964.136	1079
964.223	-56
964.310	609
964.398	1
964.485	294
964.572	956
964.659	1789
964.746	359
964.833	778
964.920	283
965.007	1354
965.094	133
965.181	780
965.268	870
965.355	1757
965.441	684
965.528	-284
965.615	1415
965.702	1302
965.789	844
965.875	1781
965.962	755
966.049	873
966.136	849
966.222	800
966.309	233
966.395	1534
966.482	1090
966.569	572
966.655	316
966.742	1296
966.828	623
966.915	691
967.001	1296
967.087	-351
967.174	29
967.260	1398
967.347	-749
967.433	268
967.519	383
967.605	940
967.692	309
967.778	1262
967.864	350
967.950	681
968.036	-291
968.123	629
968.209	961
968.295	-435
968.381	1243
968.467	1289
968.553	-415
968.639	1012
968.725	-774
968.811	1405
968.897	599
968.983	968
969.069	-197
969.154	374
969.240	595
969.326	-103
969.412	68
969.497	795
969.583	-502
969.669	2037
969.755	599
969.840	980
969.926	1544
970.012	2245
970.097	3423
970.183	2344
970.268	431
970.354	1138
970.439	-281
970.525	1541
970.610	-134
970.696	1428
970.781	-694
970.866	4
970.952	507
971.037	-45
971.122	810
971.208	724
971.293	277
971.378	822
971.463	-338
971.549	1209
971.634	-215
971.719	838
971.804	-88
971.889	692
971.974	-238
972.059	730
972.144	1077
972.229	155
972.314	-284
972.399	592
972.484	-65
972.569	923
972.654	-1466
972.739	764
972.824	-400
972.908	-59
972.993	109
973.078	737
973.163	133
973.247	594
973.332	-1063
973.417	1486
973.501	-960
973.586	698
973.671	-214
973.755	689
973.840	609
973.924	740
974.009	470
974.093	1105
974.178	805
974.262	1265
974.346	-503
974.431	1201
974.515	875
974.600	809
974.684	568
974.768	243
974.852	80
974.937	357
975.021	729
975.105	421
975.189	-39
975.273	1595
975.358	-91
975.442	185
975.526	439
975.610	-147
975.694	-930
975.778	1278
975.862	-94
975.946	-1848
976.030	1908
976.114	-57
976.198	281
976.281	536
976.365	1395
976.449	-78
976.533	90
976.617	-128
976.700	-264
976.784	1021
976.868	-1239
976.951	481
977.035	-875
977.119	566
977.202	1027
977.286	1254
977.369	351
977.453	2496
977.536	408
977.620	1309
977.703	1446
977.787	1694
977.870	1125
977.953	1197
978.037	-1170
978.120	1618
978.203	-423
978.287	1059
978.370	-467
978.453	1499
978.536	-517
978.620	549
978.703	118
978.786	319
978.869	-1067
978.952	-603
979.035	1715
979.118	1169
979.201	-870
979.284	793
979.367	-141
979.450	1460
979.533	-593
979.616	508
979.699	43
979.782	363
979.865	-109
979.948	301
980.030	-105
980.113	755
980.196	-750
980.279	202
980.361	-49
980.444	450
980.526	116
980.609	1768
980.692	587
980.774	2981
980.857	-515
980.939	1768
981.022	610
981.104	458
981.187	-683
981.269	1822
981.352	829
981.434	75
981.516	-442
981.599	1862
981.681	1032
981.763	766
981.846	-79
981.928	856
982.010	-188
982.092	481
982.174	1341
982.256	492
982.339	683
982.421	945
982.503	-452
982.585	-655
982.667	500
982.749	1203
982.831	106
982.913	43
982.995	884
983.077	84
983.158	1756
983.240	-52
983.322	509
983.404	3045
983.486	1022
983.568	2076
983.649	508
983.731	1110
983.813	889
983.894	1410
983.976	356
984.058	520
984.139	889
984.221	52
984.302	1321
984.384	746
984.465	-136
984.547	1431
984.628	-54
984.710	1707
984.791	312
984.872	878
984.954	490
985.035	1646
985.116	-54
985.198	713
985.279	795
985.360	393
985.441	516
985.522	1460
985.604	-28
985.685	-264
985.766	989
985.847	1933
985.928	-374
986.009	974
986.090	-180
986.171	1599
986.252	307
986.333	942
986.414	583
986.495	1311
986.576	818
986.656	588
986.737	944
986.818	1398
986.899	1413
986.980	839
987.060	1940
987.141	959
987.222	1106
987.302	1901
987.383	2366
987.464	1954
987.544	1726
987.625	2057
987.705	1767
987.786	2909
987.866	1598
987.947	1893
988.027	1458
988.108	1166
988.188	1643
988.268	388
988.349	1003
988.429	1301
988.509	1206
988.589	566
988.670	548
988.750	3009
988.830	1355
988.910	1548
988.990	1608
989.070	2099
989.151	1240
989.231	1326
989.311	1352
989.391	1205
989.471	924
989.551	2323
989.631	334
989.711	1154
989.791	836
989.870	1230
989.950	2005
990.030	1042
990.110	1306
990.190	816
990.269	-773
990.349	1119
990.429	934
990.509	2135
990.588	354
990.668	2056
990.747	1608
990.827	1930
990.907	1039
990.986	2064
991.066	1900
991.145	707
991.225	1113
991.304	1111
991.383	828
991.463	810
991.542	1602
991.622	-32
991.701	898
991.780	978
991.859	-55
991.939	851
992.018	1184
992.097	1815
992.176	1185
992.256	1204
992.335	30
992.414	2222
992.493	-340
992.572	1134
992.651	1254
992.730	1244
992.809	933
992.888	1062
992.967	576
993.046	1157
993.125	-628
993.203	1583
993.282	398
993.361	1212
993.440	241
993.519	-646
993.597	334
993.676	-127
993.755	1079
993.834	1550
993.912	-155
993.991	1410
994.069	-152
994.148	1025
994.226	-27
994.305	314
994.384	133
994.462	1990
994.540	-636
994.619	-254
994.697	-211
994.776	-742
994.854	829
994.932	-257
995.011	-102
995.089	538
995.167	-453
995.245	1214
995.324	-981
995.402	688
995.480	-684
995.558	614
995.636	-257
995.714	265
995.792	257
995.870	770
995.948	-564
996.026	558
996.104	-1955
996.182	749
996.260	-685
996.338	-51
996.416	-1128
996.494	346
996.572	506
996.649	-462
996.727	-777
996.805	191
996.883	-3
996.960	244
997.038	88
997.116	547
997.193	-875
997.271	1019
997.348	-374
997.426	1083
997.504	-672
997.581	1491
997.658	118
997.736	-1139
997.813	-972
997.891	1647
997.968	-850
998.046	94
998.123	-236
998.200	423
998.277	-726
998.355	956
998.432	-1186
998.509	535
998.586	-362
998.663	817
998.741	390
998.818	452
998.895	-946
998.972	675
999.049	-204
999.126	-4
999.203	-108
999.280	387
999.357	-494
999.434	373
999.511	320
999.587	299
999.664	-788
999.741	-32
999.818	-576
999.895	179
999.971	-1109
1000.048	-806
1000.125	922
1000.202	-533
1000.278	-669
1000.355	319
1000.431	-190
1000.508	-492
1000.584	-348
1000.661	671
1000.738	-455
1000.814	-110
1000.890	-222
1000.967	-577
1001.043	141
1001.120	-1521
1001.196	-496
1001.272	-923
1001.349	-268
1001.425	366
1001.501	-958
1001.577	-395
1001.654	-348
1001.730	-670
1001.806	30
1001.882	-168
1001.958	-622
1002.034	179
1002.110	-1092
1002.186	-843
1002.262	-1044
1002.338	-971
1002.414	-538
1002.490	160
1002.566	-582
1002.642	-562
1002.718	-264
1002.794	-409
1002.870	-900
1002.945	-396
1003.021	-990
1003.097	-566
1003.173	-642
1003.248	-999
1003.324	25
1003.400	242
1003.475	-1880
1003.551	66
1003.626	-1259
1003.702	-1669
1003.777	-387
1003.853	-1605
1003.928	-936
1004.004	165
1004.079	-1430
1004.155	-194
1004.230	-1858
1004.305	1024
1004.381	-1937
1004.456	-787
1004.531	-677
1004.607	-744
1004.682	-1082
1004.757	-162
1004.832	-1319
1004.907	-23
1004.982	-714
1005.057	164
1005.133	-1126
1005.208	-17
1005.283	-968
1005.358	-495
1005.433	-1222
1005.508	-502
1005.583	-1662
1005.657	-1220
1005.732	-634
1005.807	-1612
1005.882	-1106
1005.957	-242
1006.032	-1078
1006.106	-375
1006.181	-1680
1006.256	279
1006.331	-1202
1006.405	-835
1006.480	-850
1006.554	-623
1006.629	-591
1006.704	-1165
1006.778	-1754
1006.853	-225
1006.927	-1413
1007.002	-1301
1007.076	-860
1007.150	-1292
1007.225	-876
1007.299	250
1007.373	-1761
1007.448	-1090
1007.522	-625
1007.596	-486
1007.671	-1831
1007.745	-305
1007.819	-1601
1007.893	-1383
1007.967	-506
1008.041	-1211
1008.115	-1702
1008.190	-847
1008.264	-69
1008.338	-1429
1008.412	-1042
1008.486	-570
1008.560	-775
1008.633	-931
1008.707	-1336
1008.781	-1443
1008.855	-1406
1008.929	-998
1009.003	-2318
1009.076	-1158
1009.150	-1142
1009.224	-815
1009.298	-1178
1009.371	-1712
1009.445	-120
1009.519	-546
1009.592	-1562
1009.666	-1528
1009.739	-698
1009.813	-915
1009.886	-345
1009.960	-1519
1010.033	-998
1010.107	-415
1010.180	-2053
1010.253	-897
1010.327	-1735
1010.400	-1716
1010.473	-1242
1010.547	570
1010.620	-1416
1010.693	-734
1010.766	-2259
1010.840	-375
1010.913	-1175
1010.986	-1272
1011.059	-1002
1011.132	-924
1011.205	-697
1011.278	-474
1011.351	-1393
1011.424	-1149
1011.497	-1746
1011.570	-875
1011.643	-2542
1011.716	-980
1011.789	-1689
1011.862	-675
1011.934	-565
1012.007	-1829
1012.080	-998
1012.153	-1311
1012.225	-697
1012.298	-1376
1012.371	-1254
1012.443	-649
1012.516	-2070
1012.588	-913
1012.661	-1390
1012.733	-1627
1012.806	-692
1012.879	-1442
1012.951	-1314
1013.023	-1852
1013.096	-845
1013.168	-962
1013.241	-738
1013.313	-900
1013.385	-1767
1013.458	-1365
1013.530	-1010
1013.602	-2294
1013.674	-1708
1013.746	-1040
1013.819	-1361
1013.891	-718
1013.963	-2068
1014.035	-1900
1014.107	-1375
1014.179	-1391
1014.251	-2542
1014.323	-1067
1014.395	-1188
1014.467	-1088
1014.539	-1226
1014.611	-1770
1014.683	-1792
1014.754	-368
1014.826	-1821
1014.898	-1555
1014.970	-1918
1015.042	-783
1015.113	-1053
1015.185	-1961
1015.257	-2348
1015.328	-554
1015.400	-1368
1015.471	-1684
1015.543	-2155
1015.615	-1509
1015.686	-1774
1015.757	-1719
1015.829	-1977
1015.901	-1022
1015.972	-1040
1016.043	-1810
1016.115	-946
1016.186	-1928
1016.257	-2847
1016.328	-956
1016.400	-1516
1016.471	-1601
1016.542	-1499
1016.613	-1156
1016.685	-1687
1016.756	-779
1016.827	-1748
1016.898	-2707
1016.969	-1192
1017.040	-1262
1017.111	-2214
1017.182	-1423
1017.253	-1625
1017.324	-904
1017.395	-1505
1017.466	-1782
1017.537	-1360
1017.608	-851
1017.678	-1991
1017.749	-1494
1017.820	-1876
1017.891	-1710
1017.961	-2067
1018.032	-1730
1018.103	-1498
1018.173	-504
1018.244	-3113
1018.315	-1420
1018.385	-991
1018.456	-1372
1018.526	-2034
1018.597	-1270
1018.667	-948
1018.738	-1123
1018.808	-2808
1018.878	-1998
1018.949	-1481
1019.019	-1149
1019.089	-2307
1019.160	-348
1019.230	-2648
1019.300	-1256
1019.371	-2270
1019.441	-1269
1019.511	-2468
1019.581	-1334
1019.651	-2311
1019.721	-831
1019.791	-2614
1019.861	-774
1019.931	-1718
1020.001	-1145
1020.071	-1499
1020.141	-1951
1020.211	-2569
1020.281	-2375
1020.351	-1905
1020.421	-1864
1020.491	-1599
1020.560	-1985
1020.630	-2020
1020.700	-1659
1020.770	-2134
1020.839	-1341
1020.909	-1843
1020.979	-1691
1021.048	-1989
1021.118	-1438
1021.187	-1891
1021.257	-1193
1021.326	-1921
1021.396	-839
1021.465	-1694
1021.535	-1533
1021.604	-2394
1021.674	-1355
1021.743	-2087
1021.812	-992
1021.882	-2251
1021.951	-727
1022.020	-1787
1022.089	-1258
1022.159	-2761
1022.228	-1292
1022.297	-1590
1022.366	-1519
1022.435	-2165
1022.504	-1429
1022.573	-2323
1022.642	-1015
1022.711	-2823
1022.781	-562
1022.849	-1260
1022.918	-1858
1022.987	-2366
1023.056	-2000
1023.125	-2520
1023.194	-1135
1023.263	-1041
1023.331	-1016
1023.400	-2461
1023.469	-1974
1023.538	-1622
1023.606	-2169
1023.675	-2107
1023.744	-1929
1023.812	-2261
1023.881	-1284
1023.949	-2368
1024.018	-1799
1024.086	-2089
1024.155	-1644
1024.223	-1875
1024.292	-1429
1024.360	-1350
1024.429	-1549
1024.497	-1915
1024.565	-1392
1024.634	-1813
1024.702	-409
1024.770	-1462
1024.838	-2124
1024.907	-2345
1024.975	-1809
1025.043	-2249
1025.111	-1804
1025.179	-1866
1025.247	-2335
1025.315	-1593
1025.383	-1093
1025.451	-1964
1025.519	-1372
1025.587	-2618
1025.655	-1466
1025.723	-2547
1025.791	-1872
1025.859	-1795
1025.927	-1100
1025.995	-2281
1026.062	-1082
1026.130	-1993
1026.198	-1702
1026.266	-2559
1026.333	-917
1026.401	-2009
1026.469	-1347
1026.536	-1994
1026.604	-1485
1026.671	-2132
1026.739	-1636
1026.806	-2566
1026.874	-2383
1026.941	-1822
1027.009	-1397
1027.076	-2308
1027.144	-766
1027.211	-2116
1027.278	-1494
1027.345	-1428
1027.413	-1317
1027.480	-2236
1027.547	-1221
1027.614	-2416
1027.682	-1511
1027.749	-1310
1027.816	-1600
1027.883	-1618
1027.950	-1468
1028.017	-3178
1028.084	-1304
1028.151	-2426
1028.218	-336
1028.285	-1684
1028.352	-1309
1028.419	-1403
1028.486	-1583
1028.553	-1996
1028.619	-2502
1028.686	-1762
1028.753	-1714
1028.820	-1689
1028.886	-1373
1028.953	-1941
1029.020	-1891
1029.086	-1936
1029.153	-1799
1029.220	-2532
1029.286	-1624
1029.353	-2038
1029.419	-1424
1029.486	-1975
1029.552	-2566
1029.619	-2101
1029.685	-1670
1029.751	-1883
1029.818	-1539
1029.884	-3214
1029.951	-1585
1030.017	-2664
1030.083	-1619
1030.149	-1688
1030.216	-1968
1030.282	-1932
1030.348	-795
1030.414	-2348
1030.480	-1962
1030.546	-1944
1030.612	-1084
1030.678	-2910
1030.744	-1460
1030.810	-1628
1030.876	-1278
1030.942	-2456
1031.008	-1622
1031.074	-2484
1031.140	-1763
1031.206	-1948
1031.272	-1704
1031.337	-2187
1031.403	-1296
1031.469	-1530
1031.534	-2041
1031.600	-1452
1031.666	-1602
1031.731	-3054
1031.797	-1077
1031.863	-2043
1031.928	-2500
1031.994	-2298
1032.059	-1936
1032.125	-1783
1032.190	-1208
1032.256	-1591
1032.321	-2900
1032.386	-1905
1032.452	-964
1032.517	-1885
1032.582	-1431
1032.647	-1993
1032.713	-1480
1032.778	-1857
1032.843	-1336
1032.908	-1999
1032.974	-1884
1033.039	-2229
1033.104	-492
1033.169	-2638
1033.234	-1013
1033.299	-2262
1033.364	-1826
1033.429	-1590
1033.494	-1653
1033.559	-1772
1033.624	-1508
1033.688	-1580
1033.753	-1531
1033.818	-2118
1033.883	-265
1033.948	-1298
1034.013	-924
1034.077	-1504
1034.142	-625
1034.207	-701
1034.271	1329
1034.336	-138
1034.400	-703
1034.465	-1634
1034.530	-1833
1034.594	-2333
1034.658	-1994
1034.723	-1659
1034.787	-1598
1034.852	-1702
1034.916	-2611
1034.981	-2377
1035.045	-1432
1035.109	-2456
1035.173	-1529
1035.238	-1727
1035.302	-1013
1035.366	-2368
1035.430	-2084
1035.495	-2478
1035.559	-2015
1035.623	-2128
1035.687	-2039
1035.751	-2596
1035.815	-1896
1035.879	-2374
1035.943	-1177
1036.007	-1913
1036.071	-1516
1036.135	-1539
1036.198	-2015
1036.262	-2519
1036.326	-1292
1036.390	-1950
1036.454	-1346
1036.517	-2412
1036.581	-706
1036.645	-2354
1036.709	-1425
1036.772	-2166
1036.836	-2311
1036.900	-1950
1036.963	-2243
1037.026	-1959
1037.090	-1479
1037.154	-2008
1037.217	-1194
1037.280	-2710
1037.344	-1869
1037.407	-1876
1037.471	-1786
1037.534	-2437
1037.597	-1414
1037.661	-2406
1037.724	-753
1037.787	-2442
1037.850	-1631
1037.913	-2229
1037.977	-2084
1038.040	-2213
1038.103	-2087
1038.166	-2385
1038.229	-1477
1038.292	-2638
1038.355	-1647
1038.418	-1695
1038.481	-949
1038.544	-1496
1038.607	-1553
1038.670	-1566
1038.732	-1887
1038.795	-2267
1038.858	-1792
1038.921	-2359
1038.984	-1304
1039.046	-2309
1039.109	-1940
1039.172	-2051
1039.234	-2199
1039.297	-1603
1039.360	-2188
1039.422	-2785
1039.485	-1580
1039.547	-2494
1039.610	-1884
1039.672	-1844
1039.734	-2214
1039.797	-1713
1039.859	-1407
1039.922	-2164
1039.984	-1600
1040.046	-3078
1040.109	-1273
1040.171	-2637
1040.233	-1974
1040.295	-2843
1040.358	-2015
1040.420	-2150
1040.482	-1771
1040.544	-2462
1040.606	-1428
1040.668	-2066
1040.730	-1459
1040.792	-2849
1040.854	-1637
1040.916	-1883
1040.978	-2429
1041.040	-1453
1041.102	-1320
1041.164	-2568
1041.225	-2381
1041.287	-2775
1041.349	-1551
1041.411	-3240
1041.472	-2207
1041.534	-2168
1041.596	-2250
1041.657	-2649
1041.719	-1872
1041.781	-2857
1041.842	-2288
1041.904	-2596
1041.965	-2344
1042.027	-2066
1042.088	-2147
1042.150	-2562
1042.211	-2241
1042.272	-1223
1042.334	-1648
1042.395	-2373
1042.456	-1705
1042.518	-1886
1042.579	-1520
1042.640	-2736
1042.701	-3039
1042.763	-2862
1042.824	-2826
1042.885	-2926
1042.946	-1712
1043.007	-2893
1043.068	-2424
1043.129	-1754
1043.190	-2519
1043.251	-2555
1043.312	-1971
1043.373	-1273
1043.434	-2329
1043.495	-2921
1043.556	-1865
1043.616	-2331
1043.677	-2104
1043.738	-2843
1043.799	-2158
1043.859	-2357
1043.920	-1865
1043.981	-1972
1044.041	-2001
1044.102	-2585
1044.162	-1984
1044.223	-2324
1044.284	-1944
1044.344	-2488
1044.405	-1952
1044.465	-1811
1044.525	-2368
1044.586	-2160
1044.646	-1569
1044.707	-2765
1044.767	-1334
1044.827	-2781
1044.887	-2092
1044.948	-1901
1045.008	-1481
1045.068	-3151
1045.128	-1797
1045.188	-2388
1045.249	-1632
1045.309	-2719
1045.369	-2196
1045.429	-2031
1045.489	-2132
1045.549	-2682
1045.609	-2113
1045.669	-2147
1045.729	-2106
1045.789	-1802
1045.848	-1836
1045.908	-1897
1045.968	-2060
1046.028	-1376
1046.088	-1034
1046.147	-1983
1046.207	-2651
1046.267	-2724
1046.326	-1092
1046.386	-2514
1046.446	-1560
1046.505	-1384
1046.565	-845
1046.624	-1243
1046.684	-764
1046.743	-1614
1046.803	-385
1046.862	-1385
1046.922	0
