'Start Wavelength	183.907
'End Wavelength	1046.922
'Gate Delay	5.000
'Gate Width (ms)	1.050
'Laser Output Level	0.000
'X Position	0.000
'Y Position	0.000
'Z Position	0.000
'Grid Point Number	1.000
'Shot Number	100.000
183.907	561.000
183.977	-94.000
184.047	28
184.116	512
184.186	-240
184.256	272
184.325	442
184.395	-703
184.465	860
184.534	-248
184.604	181
184.674	282
184.743	-933
184.813	1148
184.883	216
184.952	707
185.022	-324
185.092	260
185.161	-74
185.231	6
185.301	-888
185.370	437
185.440	66
185.509	-435
185.579	284
185.649	541
185.718	637
185.788	318
185.857	-105
185.927	-449
185.996	31
186.066	180
186.136	-1157
186.205	432
186.275	-106
186.344	-257
186.414	-301
186.483	298
186.553	-39
186.622	296
186.692	-162
186.761	-142
186.831	369
186.900	-273
186.970	-31
187.039	999
187.109	-132
187.178	141
187.248	3
187.317	294
187.387	-283
187.456	564
187.526	522
187.595	-403
187.664	-75
187.734	-737
187.803	115
187.873	-576
187.942	-652
188.012	728
188.081	-451
188.150	-537
188.220	-675
188.289	-169
188.358	-486
188.428	159
188.497	-534
188.567	178
188.636	-258
188.705	-20
188.775	-989
188.844	-814
188.913	695
188.983	-55
189.052	155
189.121	-432
189.191	-528
189.260	135
189.329	-395
189.399	-367
189.468	112
189.537	-271
189.606	-218
189.676	431
189.745	-344
189.814	-412
189.883	-102
189.953	-546
190.022	156
190.091	410
190.161	562
190.230	244
190.299	146
190.368	324
190.437	174
190.507	68
190.576	-556
190.645	105
190.714	154
190.783	-182
190.853	138
190.922	655
190.991	-1050
191.060	424
191.129	-860
191.198	577
191.268	-46
191.337	266
191.406	184
191.475	370
191.544	-979
191.613	488
191.682	-241
191.752	198
191.821	-803
191.890	-264
191.959	-787
192.028	-130
192.097	211
192.166	933
192.235	-1035
192.304	76
192.373	-1044
192.442	117
192.511	-235
192.580	-178
192.650	-152
192.719	221
192.788	27
192.857	96
192.926	-882
192.995	-58
193.064	-890
193.133	190
193.202	-308
193.271	515
193.340	-124
193.409	301
193.478	-74
193.547	99
193.615	-490
193.684	14
193.753	-178
193.822	7
193.891	-36
193.960	-12
194.029	130
194.098	-140
194.167	-774
194.236	126
194.305	-466
194.374	78
194.443	-720
194.512	69
194.580	-279
194.649	208
194.718	847
194.787	905
194.856	-447
194.925	165
194.994	-592
195.062	91
195.131	-676
195.200	156
195.269	-68
195.338	657
195.407	251
195.475	-314
195.544	408
195.613	-374
195.682	-563
195.751	-36
195.819	-623
195.888	386
195.957	985
196.026	-101
196.094	-436
196.163	-552
196.232	-429
196.301	666
196.369	-410
196.438	-30
196.507	378
196.576	268
196.644	-596
196.713	-712
196.782	-1088
196.850	435
196.919	-848
196.988	476
197.056	-558
197.125	719
197.194	-62
197.262	-470
197.331	-180
197.400	-33
197.468	-496
197.537	148
197.606	-769
197.674	607
197.743	109
197.812	-1086
197.880	-495
197.949	-187
198.017	111
198.086	-164
198.155	-9
198.223	-176
198.292	-631
198.360	-207
198.429	-501
198.497	92
198.566	-338
198.635	601
198.703	639
198.772	98
198.840	-140
198.909	7
198.977	-295
199.046	-458
199.114	-337
199.183	329
199.251	-106
199.320	-921
199.388	-375
199.457	-314
199.525	-80
199.594	-463
199.662	-399
199.731	175
199.799	-100
199.867	-408
199.936	-222
200.004	709
200.073	442
200.141	-312
200.210	-518
200.278	-164
200.346	-870
200.415	278
200.483	-750
200.552	214
200.620	-159
200.688	60
200.757	-405
200.825	-26
200.893	-239
200.962	454
201.030	-892
201.098	-386
201.167	110
201.235	-353
201.303	-674
201.372	623
201.440	-286
201.508	539
201.577	-121
201.645	40
201.713	-178
201.781	270
201.850	-593
201.918	1040
201.986	-515
202.055	962
202.123	-138
202.191	158
202.259	-606
202.327	61
202.396	-120
202.464	269
202.532	-309
202.600	-115
202.669	-985
202.737	307
202.805	-653
202.873	361
202.941	362
203.009	61
203.078	-859
203.146	118
203.214	-286
203.282	-965
203.350	2
203.418	-754
203.487	-88
203.555	-441
203.623	-747
203.691	-149
203.759	-1035
203.827	251
203.895	-1045
203.963	-47
204.031	-929
204.099	-251
204.168	-385
204.236	-24
204.304	153
204.372	-216
204.440	-126
204.508	-182
204.576	-571
204.644	-60
204.712	-894
204.780	-384
204.848	83
204.916	-558
204.984	-156
205.052	73
205.120	-300
205.188	265
205.256	-441
205.324	-740
205.392	-429
205.460	376
205.528	563
205.596	-302
205.664	-95
205.732	-439
205.799	127
205.867	391
205.935	-1285
206.003	291
206.071	-510
206.139	-642
206.207	-21
206.275	-715
206.343	-110
206.411	-296
206.478	-771
206.546	-838
206.614	-855
206.682	405
206.750	-875
206.818	26
206.885	-161
206.953	-1075
207.021	248
207.089	-525
207.157	-254
207.225	-6
207.292	-836
207.360	294
207.428	-721
207.496	14
207.563	-728
207.631	85
207.699	-995
207.767	119
207.834	-873
207.902	-57
207.970	-1049
208.038	-10
208.105	40
208.173	396
208.241	-640
208.309	37
208.376	-179
208.444	-232
208.512	-607
208.579	-626
208.647	-248
208.715	-392
208.782	-726
208.850	-496
208.918	-1252
208.985	148
209.053	-493
209.120	-608
209.188	-588
209.256	-331
209.323	-907
209.391	-576
209.459	195
209.526	99
209.594	-110
209.661	-301
209.729	-387
209.796	371
209.864	130
209.932	-1672
209.999	505
210.067	-503
210.134	-417
210.202	793
210.269	-477
210.337	-470
210.404	-777
210.472	-90
210.539	-530
210.607	-410
210.674	1
210.742	48
210.809	-1384
210.877	386
210.944	-505
211.012	-734
211.079	943
211.146	-540
211.214	-517
211.281	-521
211.349	-180
211.416	-275
211.484	-299
211.551	-243
211.618	-946
211.686	48
211.753	-967
211.821	465
211.888	63
211.955	-129
212.023	251
212.090	-445
212.157	-390
212.225	-806
212.292	231
212.359	-563
212.427	246
212.494	-188
212.561	-754
212.629	-251
212.696	-516
212.763	154
212.831	-611
212.898	204
212.965	-811
213.032	23
213.100	-502
213.167	-1053
213.234	109
213.301	267
213.369	-684
213.436	150
213.503	-519
213.570	314
213.638	-142
213.705	-1111
213.772	-1183
213.839	-591
213.906	83
213.973	-473
214.041	-740
214.108	-125
214.175	-865
214.242	-520
214.309	-741
214.376	-24
214.444	-1078
214.511	-506
214.578	-1653
214.645	-408
214.712	179
214.779	-809
214.846	-998
214.913	161
214.980	-283
215.048	-586
215.115	167
215.182	-458
215.249	-774
215.316	-423
215.383	79
215.450	-48
215.517	-696
215.584	94
215.651	-1091
215.718	-266
215.785	-221
215.852	-1015
215.919	-589
215.986	49
216.053	-938
216.120	-260
216.187	458
216.254	584
216.321	-729
216.388	-580
216.455	-535
216.522	110
216.589	-27
216.656	-179
216.722	-371
216.789	-366
216.856	-644
216.923	54
216.990	-932
217.057	461
217.124	-402
217.191	-78
217.258	-112
217.324	-874
217.391	336
217.458	-226
217.525	-754
217.592	-231
217.659	-1062
217.725	494
217.792	-798
217.859	1318
217.926	-796
217.993	-555
218.059	-276
218.126	-46
218.193	-1064
218.260	-605
218.327	-924
218.393	-341
218.460	-839
218.527	-279
218.594	-707
218.660	-720
218.727	150
218.794	-946
218.860	-747
218.927	360
218.994	-1263
219.061	-873
219.127	-1143
219.194	-274
219.261	-512
219.327	-650
219.394	683
219.461	-1037
219.527	-955
219.594	-466
219.661	-646
219.727	-1105
219.794	331
219.860	-365
219.927	-1115
219.994	589
220.060	333
220.127	599
220.193	14
220.260	-67
220.326	-156
220.393	138
220.460	-902
220.526	-140
220.593	-1440
220.659	2081
220.726	-466
220.792	-133
220.859	-640
220.925	-187
220.992	538
221.058	783
221.125	594
221.191	-58
221.258	-994
221.324	875
221.391	-181
221.457	-324
221.524	-743
221.590	528
221.657	314
221.723	-546
221.789	-1290
221.856	978
221.922	-1406
221.989	-238
222.055	-729
222.121	-1687
222.188	317
222.254	-79
222.321	-784
222.387	-845
222.453	-338
222.520	175
222.586	-778
222.652	40
222.719	-1366
222.785	19
222.851	-908
222.918	-608
222.984	-327
223.050	-303
223.116	-1155
223.183	527
223.249	-649
223.315	-1080
223.382	-1093
223.448	-56
223.514	-1192
223.580	61
223.647	-1258
223.713	-886
223.779	-660
223.845	-230
223.911	-714
223.978	-865
224.044	-544
224.110	-756
224.176	-422
224.242	-969
224.309	-793
224.375	-508
224.441	-685
224.507	-107
224.573	-1268
224.639	214
224.705	-1205
224.772	197
224.838	-1305
224.904	-775
224.970	-861
225.036	-538
225.102	-1425
225.168	-672
225.234	-170
225.300	-682
225.366	33
225.432	9
225.499	-897
225.565	-508
225.631	-1188
225.697	-493
225.763	-202
225.829	-370
225.895	-241
225.961	-376
226.027	-59
226.093	-379
226.159	-253
226.225	205
226.291	-202
226.357	1508
226.423	-11
226.489	-229
226.554	-557
226.620	387
226.686	-1337
226.752	-51
226.818	-282
226.884	1279
226.950	646
227.016	257
227.082	-348
227.148	-514
227.214	-237
227.279	-384
227.345	-1025
227.411	-16
227.477	-176
227.543	408
227.609	60
227.674	564
227.740	-942
227.806	-243
227.872	-971
227.938	-755
228.003	-540
228.069	-570
228.135	-1171
228.201	-654
228.267	-1082
228.332	-164
228.398	-2544
228.464	-129
228.530	-814
228.595	234
228.661	-1269
228.727	-692
228.792	618
228.858	-1243
228.924	-2683
228.990	1239
229.055	-1275
229.121	-406
229.187	-1055
229.252	-653
229.318	-1362
229.384	247
229.449	-416
229.515	-1571
229.581	-2065
229.646	742
229.712	-701
229.777	-91
229.843	-1423
229.909	-209
229.974	-579
230.040	158
230.105	-783
230.171	-654
230.236	521
230.302	-672
230.368	-1896
230.433	-1205
230.499	-703
230.564	-47
230.630	-1579
230.695	-932
230.761	537
230.826	-854
230.892	452
230.957	-1755
231.023	-101
231.088	-532
231.154	-583
231.219	-722
231.284	-1466
231.350	306
231.415	-1801
231.481	-283
231.546	-759
231.612	-57
231.677	-688
231.742	-869
231.808	823
231.873	116
231.939	-2366
232.004	747
232.069	-1037
232.135	-469
232.200	-1211
232.265	-81
232.331	-627
232.396	-384
232.461	-806
232.527	-516
232.592	-925
232.657	-257
232.723	-1125
232.788	-1023
232.853	-262
232.918	363
232.984	-1456
233.049	-172
233.114	-1162
233.179	96
233.245	-705
233.310	-54
233.375	-2192
233.440	138
233.506	-706
233.571	-359
233.636	-225
233.701	-302
233.766	-757
233.832	-735
233.897	-982
233.962	-1263
234.027	-114
234.092	-661
234.157	-800
234.222	-454
234.288	-904
234.353	-228
234.418	-364
234.483	184
234.548	-1422
234.613	-604
234.678	254
234.743	-1158
234.808	615
234.873	-1411
234.938	1237
235.004	-393
235.069	-682
235.134	-410
235.199	-617
235.264	-678
235.329	-1609
235.394	576
235.459	-120
235.524	-757
235.589	-1058
235.654	-192
235.719	-1470
235.784	-66
235.849	-1295
235.913	-920
235.978	-1113
236.043	-574
236.108	-2297
236.173	-1304
236.238	-1056
236.303	-1243
236.368	-1506
236.433	422
236.498	-1684
236.563	-83
236.627	-867
236.692	2116
236.757	1308
236.822	191
236.887	-1571
236.952	270
237.017	-2075
237.081	536
237.146	-1204
237.211	984
237.276	1240
237.341	3910
237.405	100
237.470	-325
237.535	-422
237.600	123
237.664	-141
237.729	-1904
237.794	-1897
237.859	-68
237.923	-1088
237.988	319
238.053	-652
238.118	-304
238.182	-1660
238.247	786
238.312	-1368
238.376	-444
238.441	-2267
238.506	727
238.570	-1667
238.635	1069
238.700	-733
238.764	-916
238.829	-965
238.893	-1361
238.958	-487
239.023	387
239.087	-841
239.152	-120
239.216	-2063
239.281	-287
239.346	-897
239.410	-426
239.475	-1535
239.539	-508
239.604	-2062
239.668	128
239.733	-1195
239.797	-360
239.862	1568
239.926	839
239.991	-130
240.055	-152
240.120	-1373
240.184	181
240.249	-777
240.313	-348
240.378	-648
240.442	-448
240.507	-523
240.571	-949
240.635	-1413
240.700	-326
240.764	-1322
240.829	-479
240.893	-1583
240.957	593
241.022	-835
241.086	-593
241.151	-1988
241.215	-1492
241.279	145
241.344	-1770
241.408	-883
241.472	-844
241.537	683
241.601	185
241.665	-2236
241.730	-913
241.794	634
241.858	-773
241.922	-938
241.987	403
242.051	-2004
242.115	-1133
242.179	-304
242.244	-392
242.308	128
242.372	-915
242.436	-1591
242.501	428
242.565	-1974
242.629	-1237
242.693	-719
242.757	-1194
242.822	-288
242.886	-183
242.950	-64
243.014	-1536
243.078	-701
243.142	-1394
243.206	-1682
243.271	-807
243.335	-1270
243.399	-229
243.463	-496
243.527	2533
243.591	-760
243.655	-1044
243.719	-1308
243.783	819
243.847	-824
243.911	38
243.975	-1166
244.040	-1620
244.104	324
244.168	-368
244.232	-796
244.296	-684
244.360	-973
244.424	-1718
244.488	-329
244.552	282
244.615	-1467
244.679	-560
244.743	-2255
244.807	-1211
244.871	-1062
244.935	35
244.999	-2524
245.063	-1888
245.127	122
245.191	363
245.255	-645
245.319	-572
245.383	-2760
245.446	228
245.510	-2241
245.574	-474
245.638	-63
245.702	-2410
245.766	-770
245.829	222
245.893	-2276
245.957	-1287
246.021	-70
246.085	-1009
246.149	-688
246.212	-56
246.276	-1579
246.340	-1576
246.404	-740
246.467	414
246.531	-2956
246.595	201
246.659	-180
246.722	-1550
246.786	-1104
246.850	-417
246.913	-1126
246.977	-1822
247.041	-644
247.104	-5
247.168	-959
247.232	-991
247.295	-1055
247.359	-207
247.423	-1159
247.486	-237
247.550	-192
247.614	-990
247.677	-639
247.741	-840
247.804	-1261
247.868	-1031
247.932	-1823
247.995	-367
248.059	-867
248.122	-1258
248.186	296
248.249	-441
248.313	-489
248.376	-132
248.440	-1162
248.503	-1371
248.567	138
248.630	-1775
248.694	-997
248.757	424
248.821	399
248.884	78
248.948	-1566
249.011	569
249.075	-131
249.138	516
249.202	-1658
249.265	-1200
249.328	-56
249.392	-992
249.455	-511
249.519	-941
249.582	-1506
249.645	-452
249.709	-966
249.772	-1614
249.835	-388
249.899	-1306
249.962	-1045
250.025	-887
250.089	-1401
250.152	400
250.215	-1075
250.279	-1947
250.342	-667
250.405	-234
250.468	-2100
250.532	-628
250.595	726
250.658	997
250.721	3609
250.785	850
250.848	798
250.911	-1103
250.974	-249
251.038	-1595
251.101	-894
251.164	-414
251.227	-1015
251.290	-442
251.354	474
251.417	1763
251.480	2978
251.543	2381
251.606	6903
251.669	5714
251.732	1060
251.795	-135
251.859	-228
251.922	4289
251.985	2623
252.048	233
252.111	-424
252.174	-412
252.237	-216
252.300	608
252.363	470
252.426	5471
252.489	346
252.552	553
252.615	-1099
252.678	564
252.741	149
252.804	-30
252.867	6049
252.930	1669
252.993	-193
253.056	632
253.119	-650
253.182	-322
253.245	-697
253.308	461
253.371	-1859
253.434	-441
253.497	-756
253.559	-431
253.622	-1286
253.685	-1132
253.748	-1395
253.811	-1831
253.874	-321
253.937	-1619
254.000	-1399
254.062	-284
254.125	-1481
254.188	-217
254.251	-1354
254.314	-1078
254.376	-1946
254.439	-659
254.502	-784
254.565	-1173
254.628	198
254.690	-1113
254.753	-1016
254.816	-1044
254.878	-1612
254.941	-240
255.004	-1236
255.067	-1062
255.129	-1393
255.192	-1071
255.255	-1568
255.317	-586
255.380	-921
255.443	-145
255.505	-1555
255.568	-1396
255.631	-1757
255.693	-703
255.756	-2610
255.819	-43
255.881	-1277
255.944	-445
256.006	-1804
256.069	-863
256.132	-1302
256.194	-466
256.257	-1352
256.319	-980
256.382	-1421
256.444	-510
256.507	-1058
256.569	-1437
256.632	-1587
256.694	-2111
256.757	1047
256.819	4085
256.882	-702
256.944	-39
257.007	-105
257.069	-1680
257.132	-1395
257.194	-368
257.257	-1443
257.319	-1785
257.381	-1954
257.444	6
257.506	3060
257.569	4836
257.631	-432
257.693	-636
257.756	-240
257.818	-1352
257.880	-1165
257.943	-916
258.005	-1176
258.067	-641
258.130	-959
258.192	-764
258.254	-1762
258.317	-858
258.379	-921
258.441	-1202
258.503	-723
258.566	-1649
258.628	-640
258.690	-1152
258.753	-1243
258.815	-1151
258.877	-960
258.939	-682
259.001	-1361
259.064	-748
259.126	-1337
259.188	-1074
259.250	-526
259.312	-924
259.375	-1405
259.437	-1494
259.499	-1190
259.561	-866
259.623	-1066
259.685	-1367
259.747	-1086
259.809	-620
259.872	-998
259.934	-1474
259.996	-261
260.058	-489
260.120	-1255
260.182	-1795
260.244	-995
260.306	-1461
260.368	-577
260.430	-1718
260.492	-1246
260.554	-107
260.616	-2141
260.678	-91
260.740	-1600
260.802	-1074
260.864	-385
260.926	-1531
260.988	-1135
261.050	-1967
261.112	-1695
261.174	812
261.236	-1024
261.298	-812
261.359	-1706
261.421	-371
261.483	-1964
261.545	276
261.607	-2015
261.669	-844
261.731	-1337
261.793	-873
261.854	-1952
261.916	-970
261.978	-1492
262.040	-939
262.102	-1048
262.164	-1143
262.225	-1113
262.287	-877
262.349	-2640
262.411	-506
262.472	51
262.534	-1591
262.596	-1376
262.658	-635
262.719	-1897
262.781	-45
262.843	-2299
262.904	-1792
262.966	-1437
263.028	-830
263.090	-526
263.151	1818
263.213	-541
263.275	-1327
263.336	-1376
263.398	-717
263.459	-1789
263.521	-829
263.583	-1249
263.644	-703
263.706	-1104
263.767	-2149
263.829	-1681
263.891	-971
263.952	-1321
264.014	-1212
264.075	-1675
264.137	-83
264.198	-959
264.260	-1273
264.321	-1121
264.383	-1569
264.444	-83
264.506	-999
264.567	-1132
264.629	13
264.690	-809
264.752	16
264.813	-1501
264.875	-1359
264.936	-627
264.998	-1042
265.059	-1440
265.120	-1242
265.182	-1095
265.243	781
265.305	691
265.366	-517
265.427	-1399
265.489	-410
265.550	-1346
265.611	-798
265.673	-1575
265.734	-1354
265.795	-1139
265.857	-2234
265.918	-1348
265.979	-356
266.040	1913
266.102	2026
266.163	-511
266.224	-534
266.286	-1440
266.347	-1471
266.408	-1352
266.469	-919
266.530	-1188
266.592	-1083
266.653	-1506
266.714	-1466
266.775	-1793
266.836	-1515
266.898	-1532
266.959	-959
267.020	-1398
267.081	128
267.142	-1282
267.203	-1021
267.264	-1995
267.326	-343
267.387	-1630
267.448	-1626
267.509	-1598
267.570	-937
267.631	-967
267.692	-1510
267.753	-1177
267.814	-1627
267.875	-792
267.936	-1511
267.997	-1528
268.058	-1774
268.119	-1805
268.180	-1241
268.241	-1905
268.302	-230
268.363	-1482
268.424	-1652
268.485	-936
268.546	-1205
268.607	-1500
268.668	-1341
268.729	-1584
268.790	-1701
268.851	-740
268.912	-1711
268.972	-1914
269.033	-1592
269.094	-2099
269.155	-850
269.216	-1533
269.277	-1460
269.338	-1658
269.398	-1398
269.459	-1669
269.520	-1091
269.581	-1618
269.642	-1223
269.702	-2130
269.763	-755
269.824	-1515
269.885	-1501
269.945	-1501
270.006	-1017
270.067	-2606
270.128	-1305
270.188	-2016
270.249	-1275
270.310	-2148
270.370	-1256
270.431	-2083
270.492	-904
270.553	-1546
270.613	-1745
270.674	-1761
270.734	-1671
270.795	-1236
270.856	-675
270.916	-2069
270.977	-1110
271.038	-854
271.098	-1505
271.159	-1721
271.219	-1717
271.280	-1059
271.340	-1086
271.401	-1756
271.462	-1462
271.522	-1510
271.583	-1315
271.643	-1374
271.704	-1120
271.764	-1817
271.825	-1436
271.885	-1251
271.946	-142
272.006	-1618
272.066	-397
272.127	232
272.187	340
272.248	-1541
272.308	-988
272.369	-1072
272.429	-886
272.489	-1744
272.550	-1195
272.610	-1161
272.671	-1337
272.731	-1068
272.791	-1373
272.852	-1995
272.912	-903
272.972	-1855
273.033	-1034
273.093	-1659
273.153	-714
273.214	-1568
273.274	-1837
273.334	-929
273.394	-850
273.455	-1679
273.515	-974
273.575	-1265
273.635	-140
273.696	-433
273.756	-547
273.816	-1009
273.876	-885
273.936	-1728
273.997	-277
274.057	-2198
274.117	-1212
274.177	-1065
274.237	-705
274.297	-223
274.358	-717
274.418	-1723
274.478	-441
274.538	-1591
274.598	-1398
274.658	-406
274.718	-886
274.778	-1191
274.838	-1563
274.898	-1378
274.958	-1029
275.018	-450
275.078	-1420
275.138	-636
275.198	-2124
275.258	-1472
275.318	-988
275.378	-1536
275.438	-1712
275.498	-1773
275.558	-1171
275.618	-1372
275.678	-1342
275.738	-1653
275.798	-1170
275.858	-1989
275.918	-791
275.978	-1472
276.038	-977
276.098	-1394
276.157	-1991
276.217	-1219
276.277	-852
276.337	-1392
276.397	-1596
276.457	-1798
276.517	-1062
276.576	-1089
276.636	-1558
276.696	-1739
276.756	-1810
276.815	-1676
276.875	-969
276.935	-1899
276.995	-1337
277.055	-1835
277.114	-1470
277.174	-2298
277.234	-924
277.293	-1391
277.353	-1710
277.413	-1872
277.472	-1867
277.532	-1437
277.592	-638
277.651	-80
277.711	1051
277.771	-1437
277.830	1664
277.890	1382
277.950	512
278.009	4714
278.069	1871
278.128	391
278.188	2136
278.248	-852
278.307	1915
278.367	771
278.426	-511
278.486	-1510
278.545	-1157
278.605	-1538
278.664	-1394
278.724	-1909
278.783	-816
278.843	-368
278.902	-816
278.962	-1850
279.021	-732
279.081	-600
279.140	-1252
279.199	-1520
279.259	117
279.318	-679
279.378	-905
279.437	-630
279.496	1720
279.556	14314
279.615	12162
279.675	1380
279.734	209
279.793	-554
279.853	776
279.912	-854
279.971	-1034
280.031	-645
280.090	-180
280.149	585
280.208	323
280.268	8525
280.327	12180
280.386	-27
280.445	-570
280.505	-1205
280.564	-435
280.623	-1246
280.682	-867
280.742	-780
280.801	-1299
280.860	-1272
280.919	-444
280.978	-1345
281.037	-2151
281.097	-2369
281.156	-1282
281.215	-2048
281.274	-1438
281.333	-630
281.392	-1458
281.451	-1178
281.510	-1002
281.569	-1282
281.628	-327
281.688	-1215
281.747	-615
281.806	-1248
281.865	-928
281.924	-2307
281.983	-808
282.042	-930
282.101	-1431
282.160	-1122
282.219	-964
282.278	-1681
282.337	-1281
282.396	-1998
282.454	-275
282.513	-1516
282.572	-1197
282.631	-1451
282.690	-1428
282.749	-1993
282.808	-1206
282.867	-2185
282.926	-751
282.985	-982
283.043	-1515
283.102	-1880
283.161	-1091
283.220	-1397
283.279	-494
283.338	-1205
283.396	-450
283.455	-767
283.514	4
283.573	-1529
283.631	-1187
283.690	-1431
283.749	-1084
283.808	-1420
283.866	-1175
283.925	-1667
283.984	-892
284.043	-869
284.101	-1241
284.160	-1142
284.219	-488
284.277	-1811
284.336	-1836
284.395	-616
284.453	-1161
284.512	-827
284.570	-1646
284.629	-1409
284.688	-697
284.746	-780
284.805	-193
284.863	-308
284.922	634
284.981	688
285.039	2635
285.098	3892
285.156	12058
285.215	22224
285.273	21808
285.332	14867
285.390	8062
285.449	3179
285.507	3443
285.566	381
285.624	1288
285.683	-337
285.741	218
285.799	-260
285.858	-1048
285.916	-1037
285.975	-544
286.033	-659
286.091	-450
286.150	-1518
286.208	-1286
286.267	-1422
286.325	-889
286.383	-993
286.442	-1038
286.500	-836
286.558	-1066
286.616	-1590
286.675	-1478
286.733	-1090
286.791	-1628
286.850	-1748
286.908	-847
286.966	-2081
287.024	-1769
287.083	-2063
287.141	-1715
287.199	-722
287.257	-672
287.315	-1478
287.374	-1113
287.432	-1141
287.490	-1951
287.548	-2057
287.606	-1285
287.664	-1230
287.723	-846
287.781	-670
287.839	-1427
287.897	-1627
287.955	-994
288.013	-777
288.071	-44
288.129	4089
288.187	21487
288.245	9354
288.303	1863
288.361	169
288.419	14
288.477	-1588
288.535	-947
288.593	-612
288.651	-931
288.709	-2060
288.767	-671
288.825	-1359
288.883	-1130
288.941	-882
288.999	-1519
289.057	-1746
289.115	-1093
289.173	-786
289.231	-740
289.289	-1693
289.346	-1519
289.404	-1340
289.462	-730
289.520	-2553
289.578	-1252
289.636	-1649
289.694	-1006
289.751	-1360
289.809	-1326
289.867	-1889
289.925	-175
289.983	-1766
290.040	-2127
290.098	-1577
290.156	-2578
290.214	-1088
290.271	-2016
290.329	-1075
290.387	-1725
290.444	-1502
290.502	-986
290.560	-1607
290.617	-1627
290.675	-1739
290.733	-1793
290.790	-1643
290.848	-540
290.906	-1538
290.963	-1221
291.021	-1549
291.078	-1323
291.136	-1748
291.194	-1321
291.251	-1001
291.309	-1344
291.366	-1229
291.424	-918
291.481	-1434
291.539	-1765
291.596	-1364
291.654	-1301
291.711	-1943
291.769	-1465
291.826	-605
291.884	-1597
291.941	-1612
291.999	-1572
292.056	-1613
292.114	-1023
292.171	-1870
292.228	-1852
292.286	-430
292.343	-1487
292.401	-1676
292.458	-570
292.515	-2431
292.573	-716
292.630	-1645
292.687	-2013
292.745	-1815
292.802	-1974
292.859	-1721
292.917	-807
292.974	-1581
293.031	-1593
293.089	-1141
293.146	-766
293.203	-2108
293.260	-991
293.318	-1769
293.375	-1647
293.432	-1333
293.489	-971
293.546	-1958
293.604	-1175
293.661	-1211
293.718	-532
293.775	-683
293.832	-986
293.889	-2252
293.947	-1452
294.004	-1338
294.061	-1593
294.118	-1235
294.175	-408
294.232	1170
294.289	-964
294.346	-1677
294.403	-355
294.460	-1240
294.517	-1460
294.574	-1862
294.631	-1501
294.688	-2053
294.745	-1210
294.802	-138
294.859	1902
294.916	-1049
294.973	-1552
295.030	-1165
295.087	-811
295.144	-1419
295.201	-1065
295.258	-1829
295.315	-1451
295.372	-976
295.429	-516
295.486	-1366
295.542	-1213
295.599	-640
295.656	2131
295.713	-905
295.770	-969
295.827	-1250
295.883	-1053
295.940	-1318
295.997	-1798
296.054	-1140
296.111	-1343
296.167	-1264
296.224	-1874
296.281	-1838
296.338	-1282
296.394	-1686
296.451	-798
296.508	-1737
296.564	-1148
296.621	-794
296.678	-863
296.734	120
296.791	-755
296.848	-803
296.904	-1645
296.961	-1371
297.018	-443
297.074	-1012
297.131	-1250
297.187	-1756
297.244	-1306
297.301	-1178
297.357	1283
297.414	-1269
297.470	-1332
297.527	-1710
297.583	-1566
297.640	-1423
297.696	-1574
297.753	-2100
297.809	-1924
297.866	-2053
297.922	-608
297.979	-2943
298.035	-1219
298.092	-1853
298.148	-903
298.204	-1595
298.261	-1742
298.317	-614
298.374	351
298.430	-1006
298.486	-802
298.543	-1437
298.599	-1363
298.656	-1538
298.712	-732
298.768	-34
298.824	-579
298.881	-1582
298.937	-868
298.993	-1731
299.050	-1653
299.106	-1788
299.162	-910
299.218	-1620
299.275	-270
299.331	-1688
299.387	-784
299.443	-515
299.500	2293
299.556	1204
299.612	-228
299.668	-1001
299.724	1180
299.780	2205
299.837	-437
299.893	-1037
299.949	885
300.005	1122
300.061	1789
300.117	3319
300.173	1590
300.229	-623
300.285	-995
300.341	-589
300.397	-1295
300.453	-1196
300.510	-1634
300.566	-797
300.622	-472
300.678	4294
300.734	6169
300.790	2091
300.845	971
300.901	853
300.957	3120
301.013	756
301.069	-674
301.125	-736
301.181	-1252
301.237	-1036
301.293	-1476
301.349	-1287
301.405	-1328
301.461	-875
301.516	-1358
301.572	-2058
301.628	-1226
301.684	-980
301.740	-1661
301.796	-1533
301.851	-882
301.907	-1563
301.963	-826
302.019	-962
302.074	1993
302.130	2549
302.186	873
302.242	-1024
302.297	-1645
302.353	-1991
302.409	-1256
302.464	-2321
302.520	-1424
302.576	-56
302.631	-108
302.687	-1092
302.743	-1149
302.798	-1769
302.854	-1923
302.910	-1341
302.965	-1793
303.021	-1234
303.076	-1594
303.132	-879
303.187	-1275
303.243	-1781
303.299	-900
303.354	-1728
303.410	-1489
303.465	-1980
303.521	-516
303.576	-1499
303.632	-1532
303.687	-2519
303.743	-947
303.798	-423
303.853	-1209
303.909	-1483
303.964	-1075
304.020	-1378
304.075	-2303
304.130	-1765
304.186	-1480
304.241	-58
304.297	-829
304.352	-2403
304.358	-2224
304.407	-773
304.449	-1077
304.463	-1180
304.518	-1152
304.539	-1437
304.573	-1898
304.629	-940
304.630	-968
304.684	-2280
304.720	-1416
304.739	-970
304.794	124
304.811	-186
304.850	-925
304.902	-952
304.905	-955
304.960	-1107
304.992	-1467
305.015	-1730
305.071	-737
305.083	-932
305.126	-1659
305.173	-1403
305.181	-1352
305.236	-1429
305.264	-1598
305.292	-1768
305.347	-1298
305.354	-1245
305.402	-888
305.445	-1237
305.457	-1366
305.512	-1128
305.535	-1316
305.567	-1509
305.622	-1677
305.626	-1675
305.678	-1587
305.716	-458
305.733	-7
305.788	-460
305.807	-554
305.843	-633
305.897	-583
305.898	-585
305.953	-22
305.988	-586
306.008	-880
306.063	-826
306.078	-910
306.118	-987
306.168	-890
306.173	-902
306.228	-823
306.259	-934
306.283	-959
306.338	-1235
306.349	-1158
306.393	-941
306.440	-1620
306.448	-1700
306.503	-809
306.530	-845
306.558	-918
306.613	-329
306.620	-356
306.668	-629
306.711	-739
306.723	-776
306.778	-651
306.801	-448
306.833	-33
306.888	-1125
306.892	-1051
306.943	-306
306.982	-508
306.997	-536
307.052	-410
307.072	-572
307.107	-835
307.162	-378
307.163	-385
307.217	-828
307.253	-479
307.272	-347
307.327	-698
307.343	-848
307.381	-867
307.434	-1028
307.436	-1033
307.491	-63
307.524	293
307.546	384
307.600	305
307.614	79
307.655	-540
307.704	-362
307.710	-290
307.765	-299
307.795	-172
307.819	-287
307.874	410
307.885	391
307.929	485
307.975	269
307.984	281
308.038	1003
308.065	1398
308.093	3156
308.148	7985
308.156	9333
308.202	16264
308.246	21121
308.257	20903
308.312	10320
308.336	6456
308.366	4140
308.421	1495
308.426	1346
308.475	543
308.517	294
308.530	207
308.585	99
308.607	-60
308.639	4
308.694	386
308.697	403
308.748	567
308.787	1155
308.803	1313
308.857	878
308.877	741
308.912	614
308.967	572
308.967	578
309.021	1873
309.058	2294
309.076	2713
309.130	5144
309.148	5935
309.185	12220
309.238	24387
309.239	24469
309.293	29324
309.328	26568
309.348	22968
309.402	10120
309.418	7155
309.457	4467
309.508	2264
309.511	2199
309.566	1897
309.598	2170
309.620	2797
309.674	4687
309.688	5212
309.729	4947
309.778	3443
309.783	3316
309.837	1776
309.868	1288
309.892	1367
309.946	1100
309.959	1179
310.001	1270
310.049	1119
310.055	1084
310.109	1009
310.139	714
310.163	339
310.218	-191
310.229	-331
310.272	-77
310.319	549
310.326	538
310.381	54
310.409	-195
310.435	-80
310.489	209
310.499	288
310.543	439
310.589	258
310.598	224
310.652	329
310.679	275
310.706	214
310.760	118
310.769	93
310.814	-5
310.859	-18
310.868	60
310.923	204
310.948	375
310.977	455
311.031	509
311.038	528
311.085	311
311.128	-89
311.139	11
311.193	671
311.218	875
311.247	669
311.301	484
311.308	424
311.356	290
311.398	294
311.410	395
311.464	734
311.488	925
311.518	834
311.572	635
311.578	599
311.626	373
311.668	180
311.680	326
311.734	965
311.758	1221
311.788	1004
311.842	641
311.847	596
311.896	646
311.937	658
311.950	596
312.004	328
312.027	194
312.058	359
312.112	671
312.117	698
312.165	152
312.207	-320
312.297	964
312.386	158
312.476	806
312.566	734
312.656	655
312.745	888
312.835	651
312.925	-101
313.015	671
313.104	670
313.194	512
313.284	635
313.374	532
313.463	522
313.553	1277
313.643	440
313.732	1039
313.822	354
313.912	871
314.001	554
314.091	825
314.180	1481
314.270	1344
314.360	993
314.449	537
314.539	869
314.628	1256
314.718	687
314.808	1178
314.897	1497
314.987	1256
315.076	1216
315.166	930
315.255	1595
315.345	1119
315.434	1109
315.524	1391
315.613	739
315.703	906
315.792	2282
315.881	5504
315.971	1802
316.060	2046
316.150	1479
316.239	697
316.328	605
316.418	715
316.507	946
316.597	1538
316.686	1317
316.775	832
316.865	1310
316.954	-96
317.043	833
317.133	888
317.222	528
317.311	716
317.400	-218
317.490	2027
317.579	339
317.668	838
317.757	1006
317.847	3758
317.936	8797
318.025	3667
318.114	1702
318.203	1752
318.293	1006
318.382	819
318.471	1362
318.560	2814
318.649	3865
318.738	1121
318.828	563
318.917	598
319.006	1724
319.095	1529
319.184	4789
319.273	2292
319.362	1167
319.451	-16
319.540	486
319.629	661
319.718	1134
319.807	1626
319.896	722
319.985	6416
320.074	1885
320.163	656
320.252	492
320.341	1476
320.430	883
320.519	687
320.608	541
320.697	832
320.786	898
320.875	1772
320.964	1578
321.053	1307
321.142	1386
321.230	2089
321.319	1409
321.408	2046
321.497	1969
321.586	1695
321.675	1407
321.764	1931
321.852	1450
321.941	1423
322.030	1036
322.119	1999
322.207	2305
322.296	2856
322.385	2526
322.474	3462
322.562	3080
322.651	2326
322.740	1226
322.829	1612
322.917	1069
323.006	1800
323.095	1509
323.183	616
323.272	1113
323.361	1275
323.449	2581
323.538	1159
323.626	1852
323.715	1369
323.804	-38
323.892	2203
323.981	664
324.069	878
324.158	2023
324.246	1375
324.335	470
324.424	706
324.512	27
324.601	471
324.689	521
324.778	1593
324.866	1252
324.954	895
325.043	442
325.131	78
325.220	1454
325.308	373
325.397	682
325.485	917
325.574	120
325.662	363
325.750	218
325.839	1034
325.927	332
326.015	429
326.104	-5
326.192	558
326.280	243
326.369	576
326.457	181
326.545	590
326.634	118
326.722	1133
326.810	8
326.898	187
326.987	724
327.075	-191
327.163	960
327.251	-162
327.340	191
327.428	942
327.516	668
327.604	518
327.692	164
327.781	155
327.869	126
327.957	-238
328.045	-28
328.133	1307
328.221	205
328.309	992
328.397	188
328.485	1186
328.574	231
328.662	1177
328.750	285
328.838	1038
328.926	544
329.014	708
329.102	418
329.190	975
329.278	841
329.366	261
329.454	-203
329.542	1020
329.630	477
329.718	1152
329.806	273
329.893	303
329.981	-386
330.069	682
330.157	2030
330.245	8839
330.333	3720
330.421	582
330.509	334
330.597	406
330.684	514
330.772	508
330.860	764
330.948	672
331.036	111
331.123	-6
331.211	88
331.299	388
331.387	253
331.475	878
331.562	-177
331.650	1122
331.738	-44
331.825	549
331.913	323
332.001	170
332.089	36
332.176	138
332.264	1159
332.352	69
332.439	292
332.527	401
332.614	-55
332.702	-7
332.790	747
332.877	375
332.965	970
333.052	133
333.140	309
333.228	1848
333.315	590
333.403	1577
333.490	84
333.578	612
333.665	2461
333.753	1297
333.840	-8
333.928	617
334.015	594
334.103	2248
334.190	6028
334.278	3378
334.365	3365
334.452	2875
334.540	1437
334.627	2016
334.715	2307
334.802	3299
334.889	7662
334.977	10429
335.064	4873
335.151	2403
335.239	2362
335.326	1711
335.413	3923
335.501	5483
335.588	1255
335.675	1556
335.762	2333
335.850	2673
335.937	3738
336.024	6851
336.111	13076
336.199	11539
336.286	4578
336.373	2850
336.460	1396
336.547	1720
336.635	1255
336.722	531
336.809	305
336.896	907
336.983	1899
337.070	3640
337.157	6124
337.245	2491
337.332	1779
337.419	-54
337.506	795
337.593	866
337.680	1705
337.767	4619
337.854	1445
337.941	801
338.028	-36
338.115	20
338.202	1146
338.289	209
338.376	1822
338.463	863
338.550	1882
338.637	2970
338.724	662
338.811	967
338.898	567
338.984	-540
339.071	396
339.158	-167
339.245	-482
339.332	315
339.419	763
339.506	966
339.593	-426
339.679	565
339.766	-56
339.853	297
339.940	282
340.027	182
340.113	-154
340.200	660
340.287	-589
340.374	-210
340.460	-118
340.547	-685
340.634	926
340.720	1912
340.807	-186
340.894	557
340.980	-74
341.067	-641
341.154	385
341.240	114
341.327	-331
341.414	615
341.500	-238
341.587	355
341.674	237
341.760	18
341.847	-784
341.933	77
342.020	76
342.106	251
342.193	-28
342.279	117
342.366	-987
342.452	107
342.539	571
342.625	607
342.712	456
342.798	644
342.885	-559
342.971	244
343.058	115
343.144	-171
343.230	23
343.317	309
343.403	-523
343.490	-41
343.576	-457
343.662	1165
343.749	-398
343.835	-121
343.921	137
344.008	1466
344.094	4066
344.180	702
344.267	421
344.353	280
344.439	839
344.525	181
344.612	2000
344.698	1464
344.784	-583
344.870	555
344.957	394
345.043	653
345.129	-1094
345.215	-615
345.301	-267
345.387	-101
345.474	-535
345.560	-445
345.646	-522
345.732	535
345.818	-707
345.904	-217
345.990	-200
346.076	-332
346.162	-242
346.249	651
346.335	-68
346.421	911
346.507	215
346.593	666
346.679	-915
346.765	856
346.851	249
346.937	-655
347.023	400
347.108	180
347.194	-829
347.280	-278
347.366	559
347.452	1817
347.538	1746
347.624	3061
347.710	971
347.796	540
347.882	446
347.967	544
348.053	-330
348.139	236
348.225	377
348.311	-284
348.397	125
348.482	849
348.568	-383
348.654	-198
348.740	3196
348.825	993
348.911	1937
348.997	100
349.083	1147
349.168	733
349.254	638
349.340	-269
349.425	-353
349.511	53
349.597	-609
349.682	-649
349.768	408
349.854	-286
349.939	-33
350.025	647
350.110	-274
350.196	-413
350.282	-650
350.367	515
350.453	-202
350.538	-48
350.624	-664
350.709	633
350.795	-566
350.880	-11
350.966	501
351.051	-241
351.137	117
351.222	651
351.308	213
351.393	868
351.479	-637
351.564	-297
351.649	-54
351.735	-40
351.820	-653
351.906	-296
351.991	-81
352.076	-119
352.162	14
352.247	504
352.332	-178
352.418	-367
352.503	-914
352.588	1068
352.673	-175
352.759	92
352.844	-935
352.929	80
353.014	-1151
353.100	-75
353.185	15
353.270	-226
353.355	147
353.441	299
353.526	-183
353.611	-314
353.696	-575
353.781	481
353.866	-572
353.952	981
354.037	-243
354.122	-54
354.207	-350
354.292	342
354.377	-15
354.462	727
354.547	167
354.632	477
354.717	50
354.802	-312
354.887	-12
354.972	307
355.057	-70
355.142	244
355.227	629
355.312	-73
355.397	-364
355.482	188
355.567	-1097
355.652	661
355.737	-777
355.822	521
355.907	-119
355.991	855
356.076	-720
356.161	696
356.246	-474
356.331	-162
356.416	-912
356.501	2623
356.585	838
356.670	-810
356.755	1008
356.840	230
356.924	1451
357.009	2957
357.094	1625
357.179	66
357.263	-35
357.348	770
357.433	549
357.517	374
357.602	-436
357.687	-223
357.771	615
357.856	523
357.941	-30
358.025	600
358.110	4800
358.195	2581
358.279	-55
358.364	666
358.448	37
358.533	1157
358.617	292
358.702	889
358.787	110
358.871	-270
358.956	-202
359.040	196
359.125	-479
359.209	100
359.294	-434
359.378	322
359.462	35
359.547	281
359.631	-328
359.716	-736
359.800	-356
359.885	1116
359.969	-1092
360.053	1308
360.138	164
360.222	77
360.306	-599
360.391	239
360.475	255
360.559	-21
360.644	-90
360.728	-649
360.812	1684
360.896	2841
360.981	840
361.065	21
361.149	613
361.233	-144
361.318	-492
361.402	-36
361.486	237
361.570	-44
361.654	18
361.739	127
361.823	99
361.907	3017
361.991	47
362.075	682
362.159	-88
362.243	3306
362.327	6435
362.411	13675
362.495	3998
362.580	1521
362.664	1660
362.748	982
362.832	1562
362.916	5928
363.000	22245
363.084	34029
363.168	12144
363.252	2818
363.336	1714
363.420	1705
363.503	4337
363.587	5391
363.671	408
363.755	-56
363.839	1621
363.923	326
364.007	1522
364.091	2460
364.175	2944
364.258	15690
364.342	24251
364.426	50163
364.510	25404
364.594	8355
364.677	2714
364.761	2199
364.845	1566
364.929	802
365.013	143
365.096	532
365.180	-902
365.264	2124
365.347	7988
365.431	2814
365.515	-302
365.598	-744
365.682	1505
365.766	153
365.849	503
365.933	-194
366.017	1267
366.100	139
366.184	-224
366.267	914
366.351	91
366.435	-1067
366.518	38
366.602	890
366.685	-222
366.769	809
366.852	403
366.936	253
367.019	-119
367.103	-236
367.186	1155
367.270	653
367.353	-3
367.436	1011
367.520	-1060
367.603	512
367.687	-1194
367.770	-258
367.853	907
367.937	1173
368.020	609
368.104	-352
368.187	407
368.270	102
368.353	9
368.437	-184
368.520	1324
368.603	-100
368.687	-410
368.770	82
368.853	195
368.936	964
369.020	269
369.103	-103
369.186	-710
369.269	-735
369.352	584
369.436	-284
369.519	-132
369.602	-1171
369.685	1282
369.768	-1096
369.851	236
369.934	-248
370.018	-1
370.101	-344
370.184	2174
370.267	234
370.350	-383
370.433	788
370.516	947
370.599	3985
370.682	-1090
370.765	1477
370.848	830
370.931	-41
371.014	813
371.097	-817
371.180	408
371.263	987
371.346	-1388
371.429	1278
371.511	-605
371.594	117
371.677	732
371.760	1427
371.843	-434
371.926	2717
372.009	4023
372.091	4190
372.174	542
372.257	1597
372.340	458
372.423	719
372.505	2263
372.588	309
372.671	758
372.754	386
372.836	-201
372.919	1868
373.002	3990
373.085	363
373.167	1028
373.250	55
373.332	1239
373.415	3492
373.498	4453
373.580	3113
373.663	5084
373.746	6184
373.828	503
373.911	1491
373.993	-728
374.076	3531
374.159	3123
374.241	724
374.324	1121
374.406	1112
374.489	30
374.571	4148
374.654	715
374.736	987
374.819	1839
374.901	4091
374.983	3007
375.066	850
375.148	171
375.231	3577
375.313	6761
375.395	1025
375.478	401
375.560	772
375.643	-161
375.725	528
375.807	1715
375.890	3583
375.972	519
376.054	1147
376.136	687
376.219	74
376.301	361
376.383	634
376.465	440
376.548	-60
376.630	174
376.712	1229
376.794	139
376.877	322
376.959	-533
377.041	437
377.123	-202
377.205	679
377.287	-1175
377.369	396
377.452	-1
377.534	306
377.616	-316
377.698	-61
377.780	-1060
377.862	225
377.944	949
378.026	-652
378.108	25
378.190	-798
378.272	797
378.354	-210
378.436	-711
378.518	-708
378.600	224
378.682	557
378.764	-375
378.846	351
378.928	-677
379.010	-735
379.091	421
379.173	251
379.255	-651
379.337	-254
379.419	-173
379.501	909
379.583	-605
379.664	-440
379.746	-1435
379.828	1845
379.910	-729
379.991	872
380.073	-864
380.155	-1324
380.237	-804
380.318	-468
380.400	-337
380.482	-43
380.564	-86
380.645	-32
380.727	-289
380.809	795
380.890	-533
380.972	-1071
381.053	-1195
381.135	90
381.217	-563
381.298	695
381.380	-726
381.461	-184
381.543	513
381.624	805
381.706	-26
381.787	-58
381.869	378
381.951	750
382.032	2103
382.113	4135
382.195	-878
382.276	2196
382.358	-551
382.439	1752
382.521	2439
382.602	3166
382.684	1132
382.765	2315
382.846	6455
382.928	17706
383.009	8635
383.090	6675
383.172	24691
383.253	37122
383.334	9939
383.416	4238
383.497	2853
383.578	1582
383.659	5046
383.741	20621
383.822	55064
383.903	25566
383.984	3891
384.066	4540
384.147	837
384.228	2003
384.309	582
384.390	1176
384.471	685
384.553	803
384.634	-130
384.715	1325
384.796	185
384.877	221
384.958	448
385.039	-322
385.120	59
385.201	762
385.282	566
385.363	1202
385.444	-89
385.525	765
385.606	1459
385.687	723
385.768	749
385.849	183
385.930	2446
386.011	5057
386.092	623
386.173	356
386.254	531
386.335	1296
386.416	109
386.496	861
386.577	903
386.658	1370
386.739	232
386.820	1870
386.901	-105
386.981	791
387.062	515
387.143	684
387.224	100
387.304	3038
387.385	2566
387.466	-35
387.547	1863
387.627	771
387.708	1112
387.789	1801
387.869	913
387.950	1841
388.031	741
388.111	-1386
388.192	1352
388.273	1639
388.353	760
388.434	466
388.514	-220
388.595	1608
388.676	598
388.756	496
388.837	722
388.917	598
388.998	-1918
389.078	298
389.159	27
389.239	-1698
389.320	1902
389.400	-1738
389.480	-12
389.561	277
389.641	1109
389.722	456
389.802	-815
389.883	912
389.963	1428
390.043	589
390.124	-511
390.204	135
390.284	-140
390.365	-465
390.445	2547
390.525	4627
390.605	3037
390.686	-1163
390.766	447
390.846	1697
390.927	-4
391.007	-1231
391.087	561
391.167	-162
391.247	-1577
391.328	1298
391.408	634
391.488	787
391.568	-2061
391.648	-286
391.728	977
391.808	817
391.888	-746
391.969	364
392.049	-262
392.129	1461
392.209	371
392.289	2430
392.369	1027
392.449	1111
392.529	1473
392.609	2249
392.689	826
392.769	2791
392.849	2191
392.929	5151
393.009	6057
393.089	7400
393.169	15919
393.248	45279
393.328	136078
393.408	141619
393.488	47035
393.568	15825
393.648	7907
393.728	4302
393.807	1568
393.887	3572
393.967	1802
394.047	1537
394.127	727
394.206	2279
394.286	8210
394.366	38605
394.446	41228
394.525	7897
394.605	1983
394.685	1504
394.764	2993
394.844	5362
394.924	4459
395.003	795
395.083	1085
395.163	337
395.242	-159
395.322	1230
395.402	-885
395.481	2032
395.561	836
395.640	7810
395.720	12491
395.799	8786
395.879	3958
395.958	2640
396.038	11048
396.117	50163
396.197	53288
396.276	13770
396.356	3751
396.435	3461
396.515	3337
396.594	4476
396.673	12192
396.753	44889
396.832	123104
396.912	86213
396.991	18849
397.070	7248
397.150	2089
397.229	3774
397.308	8649
397.388	16154
397.467	7600
397.546	1839
397.625	-1335
397.705	1906
397.784	75
397.863	-248
397.942	479
398.022	-31
398.101	855
398.180	4414
398.259	1222
398.338	144
398.417	-396
398.497	441
398.576	113
398.655	-1166
398.734	233
398.813	15
398.892	763
398.971	4106
399.050	558
399.129	-742
399.208	-205
399.287	641
399.366	22
399.445	-185
399.524	-1171
399.603	-1384
399.682	-222
399.761	5
399.840	5714
399.919	4410
399.998	-264
400.077	-1042
400.156	-1489
400.235	1380
400.313	-1262
400.392	-1027
400.471	283
400.550	529
400.629	-1688
400.708	374
400.786	-1386
400.865	-206
400.944	-624
401.023	1784
401.102	-1441
401.180	-451
401.259	-511
401.338	-803
401.416	-2
401.495	-1735
401.574	315
401.652	-1053
401.731	-12
401.810	-1753
401.888	-1206
401.967	-851
402.046	-529
402.124	-361
402.203	-1238
402.281	-286
402.360	-1450
402.438	244
402.517	-894
402.596	-43
402.674	-905
402.753	-969
402.831	-980
402.910	608
402.988	-1184
403.066	-99
403.145	634
403.223	349
403.302	-911
403.380	-530
403.459	-414
403.537	-855
403.615	374
403.694	-2274
403.772	71
403.850	-608
403.929	-868
404.007	-778
404.085	6
404.164	-655
404.242	-433
404.320	2902
404.398	9692
404.477	6392
404.555	3242
404.633	2644
404.711	6022
404.789	4154
404.868	-429
404.946	-754
405.024	-131
405.102	-715
405.180	-1814
405.258	-1821
405.336	-339
405.415	-1709
405.493	-1401
405.571	-3
405.649	-2113
405.727	-1594
405.805	17
405.883	224
405.961	-406
406.039	-893
406.117	-2082
406.195	254
406.273	-2009
406.351	-25
406.429	387
406.507	-1095
406.585	-1304
406.663	-529
406.740	-374
406.818	-1785
406.896	-1171
406.974	-271
407.052	-2367
407.130	-238
407.208	215
407.285	101
407.363	-1781
407.441	-400
407.519	-445
407.596	-84
407.674	-207
407.752	4415
407.830	3253
407.907	21
407.985	-2045
408.063	-944
408.141	-1158
408.218	241
408.296	-1466
408.373	-607
408.451	-1542
408.529	-180
408.606	-903
408.684	-1176
408.762	-781
408.839	-546
408.917	-939
408.994	-807
409.072	-1698
409.149	342
409.227	1145
409.304	1568
409.382	1548
409.459	2621
409.537	4208
409.614	3059
409.692	1807
409.769	1542
409.846	2660
409.924	6243
410.001	355
410.079	1168
410.156	1394
410.233	147
410.311	-915
410.388	-589
410.465	-136
410.543	-802
410.620	408
410.697	-27
410.775	-987
410.852	-476
410.929	163
411.006	805
411.083	-889
411.161	-199
411.238	-55
411.315	-228
411.392	-885
411.469	-29
411.547	-250
411.624	-1677
411.701	-882
411.778	29
411.855	-1346
411.932	-1253
412.009	-952
412.086	-138
412.163	-1196
412.240	-1434
412.317	-548
412.394	-1780
412.471	-346
412.548	-1721
412.625	-1067
412.702	-1137
412.779	-584
412.856	-627
412.933	-1979
413.010	-356
413.087	-663
413.164	-1381
413.241	-243
413.318	-1191
413.395	-824
413.471	-1356
413.548	-458
413.625	144
413.702	-1472
413.779	-1359
413.855	-1408
413.932	-1009
414.009	-1521
414.086	-1227
414.162	-807
414.239	-744
414.316	-1014
414.393	586
414.469	-1828
414.546	-1135
414.623	-1405
414.699	-1099
414.776	-1091
414.853	-1957
414.929	-878
415.006	-891
415.082	-848
415.159	-1248
415.236	-1908
415.312	-409
415.389	-1043
415.465	-1922
415.542	-1013
415.618	-1230
415.695	-1121
415.771	-906
415.848	-1543
415.924	-976
416.000	-1824
416.077	-448
416.153	-2133
416.230	-1182
416.306	-1490
416.383	-1560
416.459	-1105
416.535	-793
416.612	-1882
416.688	-1317
416.764	-1468
416.841	-1131
416.917	-1466
416.993	-1170
417.069	-842
417.146	-1209
417.222	-1561
417.298	-856
417.374	-1294
417.451	-1160
417.527	-1696
417.603	-1208
417.679	-1445
417.755	-824
417.831	-1826
417.908	-755
417.984	-1261
418.060	-1896
418.136	-1356
418.212	-1404
418.288	-1539
418.364	-881
418.440	-1806
418.516	-402
418.592	-1738
418.668	-1651
418.744	-1362
418.820	-744
418.896	-1254
418.972	-801
419.048	-1444
419.124	8
419.200	-2253
419.276	-1129
419.352	-1642
419.428	-1223
419.504	-1863
419.579	-913
419.655	-1046
419.731	-1089
419.807	-472
419.883	-1164
419.959	-1150
420.034	-518
420.110	-1191
420.186	-1358
420.262	-6
420.337	-1204
420.413	-741
420.489	-553
420.565	426
420.640	-226
420.716	-333
420.792	-1001
420.867	675
420.943	-846
421.019	-515
421.094	-339
421.170	7
421.245	690
421.321	750
421.397	-65
421.472	1402
421.548	3247
421.623	2488
421.699	2037
421.774	1310
421.850	1551
421.925	3125
422.001	4610
422.076	4724
422.152	5912
422.227	8805
422.302	13760
422.378	21125
422.453	35016
422.529	60586
422.604	89592
422.679	90635
422.755	91201
422.830	65978
422.905	38658
422.981	23226
423.056	15887
423.131	12205
423.207	8090
423.282	4988
423.357	5342
423.432	3516
423.508	3290
423.583	2247
423.658	1625
423.733	2026
423.808	982
423.883	1758
423.959	953
424.034	2338
424.109	2218
424.184	115
424.259	-90
424.334	156
424.409	192
424.484	-579
424.559	-84
424.634	-138
424.709	-830
424.784	-414
424.859	-1157
424.934	-1144
425.009	80
425.084	-649
425.159	-1323
425.234	-242
425.309	-1256
425.384	-1115
425.459	-928
425.534	-756
425.609	-1162
425.683	-679
425.758	-905
425.833	-217
425.908	-113
425.983	-1327
426.058	370
426.132	-846
426.207	-471
426.282	167
426.357	-946
426.431	-781
426.506	-656
426.581	-693
426.655	195
426.730	-429
426.805	-1020
426.879	-393
426.954	-636
427.029	-1397
427.103	-463
427.178	-223
427.253	-584
427.327	-1300
427.402	-726
427.476	-138
427.551	-837
427.625	-763
427.700	-504
427.774	-1628
427.849	111
427.923	-1478
427.998	-389
428.072	-639
428.147	726
428.221	7524
428.296	29049
428.370	15010
428.444	940
428.519	-749
428.593	-858
428.667	-108
428.742	591
428.816	2654
428.890	17014
428.965	27702
429.039	6838
429.113	-289
429.188	-696
429.262	-1224
429.336	-241
429.410	-648
429.485	125
429.559	543
429.633	-398
429.707	-85
429.781	1601
429.855	15694
429.930	24269
430.004	6829
430.078	5745
430.152	10497
430.226	37509
430.300	39135
430.374	7281
430.448	1341
430.522	1137
430.596	3448
430.670	5301
430.744	20410
430.818	24611
430.892	3439
430.966	-221
431.040	-817
431.114	-1524
431.188	-1419
431.262	-665
431.336	-1861
431.410	123
431.484	-1299
431.557	-183
431.631	-869
431.705	560
431.779	5231
431.853	26739
431.927	18291
432.000	1433
432.074	-765
432.148	-1635
432.222	-1534
432.295	-941
432.369	-1446
432.443	-1368
432.516	-1237
432.590	-100
432.664	-909
432.737	-1342
432.811	-1341
432.885	-829
432.958	-846
433.032	-1303
433.106	-1245
433.179	-921
433.253	-2389
433.326	-1006
433.400	-1217
433.473	-1117
433.547	-1136
433.620	-1345
433.694	-2241
433.767	-1119
433.841	-1978
433.914	-1293
433.988	-1164
434.061	-1613
434.134	-1973
434.208	-1517
434.281	-2006
434.355	-1812
434.428	-934
434.501	-1217
434.575	-2189
434.648	-1465
434.721	-1425
434.795	-1670
434.868	-1221
434.941	-1260
435.014	-1841
435.088	-801
435.161	-1251
435.234	-1059
435.307	-1231
435.381	-562
435.454	-852
435.527	361
435.600	1334
435.673	1272
435.746	-163
435.819	-238
435.892	-462
435.966	-970
436.039	-1394
436.112	-1060
436.185	-1008
436.258	-1288
436.331	-1541
436.404	-1390
436.477	-1789
436.550	-1968
436.623	-1656
436.696	-2277
436.769	-1348
436.842	-1147
436.915	-1019
436.987	-920
437.060	-1360
437.133	-1073
437.206	-1847
437.279	-651
437.352	-1565
437.425	-1999
437.498	-1809
437.570	-954
437.643	-2021
437.716	-1495
437.789	-1627
437.861	-753
437.934	-1602
438.007	-891
438.080	-1562
438.152	-1570
438.225	-1113
438.298	-467
438.370	1425
438.443	636
438.516	-1071
438.588	-2139
438.661	-1550
438.734	-683
438.806	-1838
438.879	-858
438.951	-1521
439.024	-1181
439.096	-2539
439.169	-1486
439.241	-1369
439.314	-941
439.386	-1520
439.459	-1893
439.531	-2062
439.604	-1197
439.676	-350
439.749	-885
439.821	-1715
439.893	-1078
439.966	-1290
440.038	-1276
440.110	-1321
440.183	-1521
440.255	-1717
440.327	-837
440.400	-1136
440.472	43
440.544	-1195
440.617	-1032
440.689	-1118
440.761	-966
440.833	-1649
440.905	-1321
440.978	-435
441.050	-1469
441.122	-976
441.194	-1576
441.266	-1498
441.338	-1068
441.411	-1977
441.483	-1041
441.555	-1074
441.627	-1096
441.699	-1234
441.771	-1038
441.843	-1434
441.915	-1873
441.987	-1050
442.059	-561
442.131	-751
442.203	-313
442.275	-270
442.347	772
442.419	3520
442.491	21244
442.563	51430
442.635	24577
442.706	3680
442.778	948
442.850	490
442.922	-433
442.994	174
443.066	-348
443.137	-685
443.209	494
443.281	2278
443.353	5833
443.425	24997
443.496	77528
443.568	86111
443.640	38410
443.711	7887
443.783	2214
443.855	1024
443.926	170
443.998	-374
444.070	235
444.141	-557
444.213	-248
444.285	-473
444.356	-827
444.428	-1024
444.499	-772
444.571	-553
444.642	-669
444.714	-1687
444.785	-469
444.857	-845
444.928	773
445.000	42
445.071	1175
445.143	747
445.214	1642
445.285	4302
445.357	14028
445.428	49801
445.500	100668
445.571	82225
445.642	55844
445.714	19290
445.785	6273
445.856	1067
445.928	845
445.999	7
446.070	-518
446.141	-265
446.213	-1020
446.284	-1270
446.355	-115
446.426	-787
446.497	-803
446.569	-1060
446.640	-1119
446.711	-557
446.782	-1189
446.853	-988
446.924	-734
446.995	-1718
447.066	-1453
447.138	-830
447.209	-1274
447.280	-2081
447.351	-1643
447.422	-1370
447.493	-1322
447.564	-1169
447.635	-1730
447.706	-1645
447.777	-958
447.847	-1843
447.918	-1239
447.989	-850
448.060	-904
448.131	-1354
448.202	-947
448.273	-1301
448.344	-1210
448.414	-1640
448.485	-1062
448.556	-1158
448.627	-314
448.698	-1131
448.768	-959
448.839	-1643
448.910	-1318
448.981	-1007
449.051	-808
449.122	-1187
449.193	-1439
449.263	-960
449.334	-826
449.405	-618
449.475	-453
449.546	-1201
449.616	-1066
449.687	-794
449.758	-1122
449.828	-1940
449.899	-1681
449.969	-2016
450.040	-1408
450.110	-1265
450.181	-1135
450.251	-2244
450.322	-900
450.392	-1094
450.463	-1424
450.533	-1181
450.604	-1644
450.674	-2024
450.744	-237
450.815	-1493
450.885	-630
450.955	-1340
451.026	-528
451.096	-1614
451.166	-1655
451.237	-1466
451.307	498
451.377	-365
451.447	-1068
451.518	-1257
451.588	-1207
451.658	-1347
451.728	-1288
451.799	-577
451.869	-72
451.939	-1480
452.009	-1529
452.079	-2000
452.149	-723
452.219	-1313
452.289	-185
452.360	-936
452.430	-755
452.500	-2150
452.570	-566
452.640	2181
452.710	6216
452.780	8585
452.850	4561
452.920	861
452.990	381
453.060	-282
453.129	-1383
453.199	-1494
453.269	248
453.339	2348
453.409	4448
453.479	3491
453.549	6391
453.619	6663
453.688	1676
453.758	-1137
453.828	-1446
453.898	-1756
453.968	-1213
454.037	-1140
454.087	-1021
454.107	-978
454.168	-1882
454.177	-2026
454.247	-803
454.249	-840
454.316	-2077
454.330	-1947
454.386	-1447
454.411	-1522
454.456	-1783
454.492	-1073
454.525	-420
454.574	-474
454.595	-511
454.655	-868
454.665	-933
454.734	-1511
454.736	-1483
454.804	-711
454.817	-487
454.873	249
454.898	9
454.943	-441
454.979	-804
455.013	-1168
455.060	-484
455.082	-129
455.141	-1009
455.152	-1166
455.221	259
455.222	290
455.291	1173
455.303	1497
455.360	2565
455.384	3994
455.430	5905
455.465	4235
455.499	2871
455.546	1248
455.569	516
455.627	242
455.638	178
455.707	-1406
455.708	-1394
455.777	-955
455.789	-973
455.846	-1055
455.869	-1093
455.916	-1263
455.950	-1211
455.985	-1211
456.031	-601
456.054	-234
456.112	-1232
456.124	-1441
456.193	-832
456.193	-840
456.262	-700
456.274	-670
456.332	-566
456.355	-654
456.401	-787
456.436	-681
456.470	-692
456.516	-833
456.540	-841
456.597	-1373
456.609	-1484
456.678	-996
456.678	-1004
456.747	-943
456.759	-1075
456.817	-1455
456.840	-1062
456.886	-486
456.920	-486
456.955	-464
457.001	-337
457.024	-338
457.082	-687
457.093	-724
457.162	-84
457.163	-76
457.232	-433
457.243	-496
457.301	-685
457.324	-667
457.370	-682
457.405	-608
457.439	-461
457.485	-316
457.508	-303
457.566	-121
457.577	-31
457.646	1086
457.647	1096
457.715	2781
457.727	3376
457.784	6903
457.808	9705
457.853	12961
457.889	16276
457.922	17773
457.969	12635
457.991	12332
458.050	12270
458.060	12418
458.129	22607
458.130	22948
458.198	26287
458.211	23939
458.267	15556
458.292	10714
458.336	5240
458.372	4624
458.405	6004
458.453	9249
458.474	11655
458.533	22190
458.543	22916
458.611	38255
458.614	38495
458.680	29047
458.694	23552
458.749	11188
458.775	7806
458.818	3227
458.855	1848
458.887	863
458.936	822
458.955	828
459.016	605
459.024	592
459.093	1285
459.097	1277
459.162	542
459.177	414
459.230	500
459.257	416
459.299	-30
459.338	348
459.368	747
459.418	838
459.437	809
459.499	61
459.505	-3
459.574	-33
459.579	16
459.643	256
459.659	151
459.711	392
459.740	532
459.780	320
459.820	175
459.849	135
459.900	156
459.917	234
459.981	505
459.986	500
460.054	512
460.061	503
460.123	282
460.141	267
460.191	427
460.222	446
460.260	443
460.302	335
460.328	164
460.382	398
460.397	483
460.462	218
460.465	264
460.534	2438
460.543	2571
460.602	6384
460.623	8077
460.671	13707
460.703	19284
460.739	17367
460.783	13400
460.808	12262
460.864	3439
460.876	2415
460.944	869
460.945	848
461.013	767
461.024	675
461.081	327
461.104	447
461.150	800
461.184	683
461.218	501
461.264	444
461.286	502
461.345	404
461.355	293
461.423	2
461.425	-1
461.491	231
461.505	280
461.559	825
461.585	922
461.628	1259
461.665	2022
461.696	2354
461.745	2343
461.764	2026
461.825	932
461.832	919
461.901	744
461.905	752
461.969	55
461.985	-103
462.037	660
462.065	983
462.105	561
462.145	288
462.173	728
462.225	1296
462.241	1294
462.305	1441
462.310	1418
462.378	1390
462.385	1304
462.446	603
462.465	565
462.514	881
462.545	889
462.582	584
462.625	296
462.650	356
462.705	556
462.718	556
462.785	923
462.786	938
462.854	1140
462.865	1224
462.922	1286
462.945	1267
462.990	829
463.025	608
463.058	913
463.104	1050
463.126	886
463.184	709
463.194	743
463.262	722
463.264	732
463.330	1070
463.344	1109
463.398	1291
463.424	1336
463.466	905
463.504	656
463.533	1005
463.583	1368
463.601	1315
463.663	1139
463.669	1092
463.737	768
463.743	703
463.805	1343
463.823	1629
463.873	2625
463.903	3140
463.940	2971
463.982	2937
464.008	2461
464.062	1132
464.076	1022
464.142	710
464.144	726
464.211	1031
464.221	1121
464.279	1072
464.301	873
464.347	890
464.381	1235
464.414	1483
464.461	1623
464.482	1559
464.540	1338
464.550	1330
464.617	1369
464.620	1356
464.685	1614
464.699	1762
464.753	1644
464.779	1481
464.820	1770
464.859	2006
464.888	1531
464.938	789
464.956	1047
465.018	1934
465.023	1920
465.091	1548
465.098	1516
465.158	1226
465.177	1198
465.226	1441
465.257	1423
465.293	1334
465.336	1337
465.361	1368
465.416	1364
465.428	1451
465.495	1895
465.496	1907
465.563	2905
465.575	3095
465.631	3630
465.654	3914
465.698	2726
465.734	1627
465.765	1754
465.813	1832
465.833	1858
465.893	2069
465.900	2063
465.968	1941
465.972	1931
466.035	763
466.052	434
466.102	1209
466.131	1632
466.170	1245
466.210	832
466.237	1195
466.290	1979
466.304	1937
466.369	1567
466.372	1560
466.439	1325
466.449	1280
466.506	1651
466.528	1798
466.573	2399
466.607	2758
466.641	3626
466.687	4950
466.708	5054
466.766	5281
466.775	4944
466.842	2322
466.845	2192
466.909	2340
466.925	2372
466.977	1839
467.004	1566
467.044	1784
467.083	1995
467.111	2357
467.163	3020
467.178	3042
467.242	3125
467.245	3131
467.312	3155
467.321	3155
467.379	2331
467.400	2023
467.446	2338
467.480	2563
467.559	3203
467.638	1633
467.717	2747
467.796	2243
467.875	1993
467.955	2445
468.034	3330
468.113	6589
468.192	8237
468.271	4515
468.350	5293
468.429	5746
468.508	8023
468.588	4193
468.667	3026
468.746	1313
468.825	2375
468.904	1956
468.983	2590
469.062	2160
469.141	3720
469.220	2249
469.299	2554
469.378	1551
469.456	3430
469.535	3017
469.614	2718
469.693	1477
469.772	2691
469.851	3515
469.930	2858
470.009	1382
470.088	2824
470.166	2678
470.245	3244
470.324	3085
470.403	2754
470.482	2387
470.560	2968
470.639	1371
470.718	3153
470.797	2276
470.875	2596
470.954	1840
471.033	3086
471.111	1200
471.190	2793
471.269	1810
471.347	1767
471.426	2158
471.505	1640
471.583	2330
471.662	2741
471.740	2442
471.819	2947
471.898	1921
471.976	2324
472.055	1500
472.133	2002
472.212	2354
472.290	3115
472.369	1396
472.447	2490
472.526	1241
472.604	2215
472.683	1158
472.761	2392
472.839	1201
472.918	1895
472.996	2179
473.075	2581
473.153	2794
473.231	1412
473.310	2352
473.388	1927
473.466	2489
473.545	1929
473.623	2137
473.701	2368
473.780	2178
473.858	1231
473.936	3621
474.014	2193
474.093	2637
474.171	2712
474.249	3711
474.327	2397
474.405	1135
474.484	1861
474.562	1901
474.640	1991
474.718	1614
474.796	1342
474.874	2144
474.952	1677
475.030	2006
475.108	1935
475.187	1668
475.265	1717
475.343	2267
475.421	2251
475.499	1808
475.577	1840
475.655	2576
475.733	2643
475.811	4167
475.889	4283
475.966	2255
476.044	1634
476.122	1862
476.200	1904
476.278	1757
476.356	1488
476.434	1740
476.512	1893
476.590	1824
476.667	1715
476.745	1663
476.823	1591
476.901	1696
476.979	1813
477.056	1619
477.134	1685
477.212	1560
477.290	1957
477.367	1916
477.445	1923
477.523	1218
477.601	1537
477.678	1615
477.756	2263
477.834	1572
477.911	1933
477.989	2084
478.066	1798
478.144	2637
478.222	1914
478.299	1617
478.377	1811
478.454	2497
478.532	1577
478.609	1344
478.687	1808
478.764	673
478.842	1697
478.919	1314
478.997	1570
479.074	796
479.152	2471
479.229	1534
479.307	1395
479.384	2473
479.461	1851
479.539	1802
479.616	1764
479.694	1446
479.771	1786
479.848	2291
479.926	1360
480.003	2532
480.080	1966
480.157	1374
480.235	1232
480.312	1602
480.389	1823
480.467	2187
480.544	2817
480.621	1621
480.698	2067
480.775	1274
480.853	1375
480.930	1539
481.007	1949
481.084	1161
481.161	2827
481.238	3114
481.315	1397
481.392	1334
481.470	1660
481.547	1522
481.624	1740
481.701	1455
481.778	1631
481.855	1385
481.932	3484
482.009	3769
482.086	1975
482.163	1952
482.240	2143
482.317	2379
482.393	2580
482.470	1706
482.547	1924
482.624	1097
482.701	2273
482.778	659
482.855	1104
482.932	1994
483.009	1770
483.085	1974
483.162	2470
483.239	2622
483.316	1252
483.393	2228
483.469	1931
483.546	1466
483.623	1655
483.699	1959
483.776	678
483.853	1215
483.930	2282
484.006	3611
484.083	7596
484.160	4868
484.236	7517
484.313	5678
484.389	3533
484.466	4986
484.543	5097
484.619	5094
484.696	5649
484.772	5023
484.849	4560
484.925	2687
485.002	2826
485.078	3707
485.155	3599
485.231	3299
485.308	3131
485.384	2849
485.461	3934
485.537	4543
485.614	5865
485.690	2728
485.766	2297
485.843	2399
485.919	3992
485.995	2189
486.072	2561
486.148	3906
486.224	1961
486.301	2692
486.377	3279
486.453	2095
486.530	3926
486.606	4351
486.682	4385
486.758	5062
486.835	5484
486.911	3266
486.987	6148
487.063	4629
487.139	3215
487.215	3529
487.292	5514
487.368	3871
487.444	5160
487.520	6461
487.596	9444
487.672	22611
487.748	70888
487.824	99515
487.900	24576
487.976	7604
488.052	4701
488.128	3419
488.204	3032
488.280	3721
488.356	3490
488.432	5137
488.508	6903
488.584	2710
488.660	2832
488.736	2316
488.812	2229
488.888	2560
488.964	3019
489.039	2307
489.115	3331
489.191	3000
489.267	2781
489.343	2240
489.418	2065
489.494	2446
489.570	1195
489.646	2965
489.722	2224
489.797	2584
489.873	2646
489.949	6281
490.024	5311
490.100	2390
490.176	2710
490.251	1465
490.327	3081
490.403	1658
490.478	2445
490.554	2015
490.629	2599
490.705	1649
490.781	3087
490.856	1610
490.932	2822
491.007	2338
491.083	1391
491.158	1014
491.234	1999
491.309	3863
491.385	3286
491.460	1548
491.536	2857
491.611	1244
491.686	1975
491.762	1547
491.837	2155
491.913	2739
491.988	3435
492.063	2123
492.139	3312
492.214	2937
492.289	1427
492.365	1099
492.440	1368
492.515	1216
492.590	2095
492.666	1160
492.741	1425
492.816	2049
492.891	1507
492.967	2003
493.042	1874
493.117	740
493.192	3148
493.267	5363
493.342	16655
493.418	21031
493.493	2639
493.568	1553
493.643	1658
493.718	1097
493.793	2367
493.868	1697
493.943	1084
494.018	1152
494.093	1685
494.168	1220
494.243	688
494.318	965
494.393	2237
494.468	1535
494.543	2029
494.618	485
494.693	1279
494.768	1150
494.842	1695
494.917	954
494.992	1393
495.067	414
495.142	1328
495.217	1367
495.292	965
495.366	1151
495.441	1218
495.516	2988
495.591	953
495.665	1518
495.740	2490
495.815	1947
495.890	1250
495.964	-453
496.039	3751
496.114	1180
496.188	2560
496.263	1801
496.338	738
496.412	1354
496.487	2376
496.561	1002
496.636	1405
496.710	1904
496.785	1920
496.860	1877
496.934	997
497.009	978
497.083	1573
497.158	1274
497.232	2096
497.307	2359
497.381	2798
497.455	1355
497.530	2782
497.604	1106
497.679	2736
497.753	2805
497.827	2863
497.902	2383
497.976	4326
498.050	9993
498.125	39403
498.199	31689
498.273	3445
498.348	1955
498.422	2148
498.496	1945
498.570	2747
498.645	1639
498.719	534
498.793	2770
498.867	3136
498.941	3983
499.016	15674
499.090	39044
499.164	9813
499.238	2417
499.312	1689
499.386	1892
499.460	2023
499.534	1008
499.609	3263
499.683	2411
499.757	3590
499.831	6582
499.905	26312
499.979	19603
500.053	2501
500.127	2787
500.201	1038
500.275	1786
500.349	2161
500.422	1308
500.496	2257
500.570	3040
500.644	13676
500.718	23079
500.792	4840
500.866	3108
500.940	1529
501.013	2222
501.087	1078
501.161	1038
501.235	1115
501.309	9065
501.382	21620
501.456	16438
501.530	4439
501.603	6184
501.677	1439
501.751	988
501.825	2207
501.898	3180
501.972	8996
502.046	3657
502.119	1369
502.193	4508
502.266	7938
502.340	3737
502.413	4256
502.487	7021
502.561	3384
502.634	1285
502.708	640
502.781	246
502.855	1273
502.928	898
503.002	1660
503.075	482
503.149	714
503.222	1255
503.295	1777
503.369	2346
503.442	1651
503.516	6954
503.589	15140
503.662	8467
503.736	4737
503.809	8553
503.882	6629
503.956	13277
504.029	16854
504.102	36910
504.175	51033
504.249	13640
504.322	5589
504.395	2283
504.468	2040
504.542	933
504.615	96
504.688	1684
504.761	-36
504.834	2758
504.907	637
504.980	1181
505.053	1232
505.127	-1448
505.200	3462
505.273	445
505.346	1655
505.419	-206
505.492	1768
505.565	-115
505.638	1009
505.711	-80
505.784	-278
505.857	1009
505.930	1395
506.003	-193
506.076	3056
506.149	255
506.221	167
506.294	2963
506.367	2379
506.440	11471
506.513	4985
506.586	1702
506.659	518
506.731	932
506.804	543
506.877	-1368
506.950	745
507.022	1365
507.095	-789
507.168	1041
507.241	1465
507.313	-71
507.386	-291
507.459	649
507.531	237
507.604	-384
507.677	1319
507.749	-659
507.822	1462
507.894	532
507.967	2254
508.040	1267
508.112	1618
508.185	674
508.257	-237
508.330	1880
508.402	405
508.475	425
508.547	1271
508.620	377
508.692	1873
508.765	1035
508.837	104
508.909	1445
508.982	516
509.054	1511
509.127	458
509.199	654
509.271	756
509.344	649
509.416	1240
509.488	550
509.560	1243
509.633	378
509.705	700
509.777	245
509.849	1176
509.922	-649
509.994	397
510.066	1961
510.138	-423
510.210	3849
510.283	1658
510.355	1875
510.427	1455
510.499	621
510.571	995
510.643	-290
510.715	2831
510.787	-1007
510.859	2531
510.931	404
511.003	1200
511.076	1157
511.148	282
511.219	315
511.291	2242
511.363	1891
511.435	166
511.507	-62
511.579	1724
511.651	1662
511.723	-26
511.795	393
511.867	1607
511.939	1179
512.010	1434
512.082	1870
512.154	-662
512.226	120
512.298	1668
512.369	1101
512.441	2895
512.513	968
512.585	-1015
512.656	1417
512.728	456
512.800	660
512.871	1791
512.943	1496
513.015	-581
513.086	1191
513.158	1351
513.230	-493
513.301	152
513.373	1244
513.444	791
513.516	768
513.588	829
513.659	454
513.731	1369
513.802	-191
513.874	2666
513.945	424
514.016	-133
514.088	1307
514.159	-228
514.231	657
514.302	1410
514.374	1162
514.445	-866
514.516	3303
514.588	531
514.659	533
514.730	1139
514.802	1757
514.873	-1147
514.944	3044
515.016	1392
515.087	645
515.158	1045
515.229	2940
515.301	629
515.372	1951
515.443	138
515.514	280
515.585	-616
515.656	1532
515.728	1664
515.799	103
515.870	1129
515.941	481
516.012	247
516.083	1688
516.154	-349
516.225	1338
516.296	2720
516.367	1305
516.438	1120
516.509	1258
516.580	3767
516.651	15307
516.722	39103
516.793	12379
516.864	2846
516.935	2835
517.006	4052
517.077	4858
517.148	14261
517.219	65485
517.289	79426
517.360	16008
517.431	5957
517.502	1562
517.573	2876
517.643	2124
517.714	2146
517.785	2224
517.856	1722
517.926	3817
517.997	4388
518.068	4429
518.138	7338
518.209	10056
518.280	46347
518.350	149127
518.421	38227
518.492	6525
518.562	5769
518.633	6015
518.703	8278
518.774	24796
518.845	66192
518.915	52962
518.986	11282
519.056	5631
519.127	3430
519.197	4252
519.268	10784
519.338	6819
519.408	1576
519.479	1590
519.549	1366
519.620	3076
519.690	1479
519.760	989
519.831	740
519.901	1142
519.971	1307
520.042	-99
520.112	50
520.182	1135
520.253	1499
520.323	460
520.393	323
520.463	2375
520.534	-1604
520.604	3876
520.674	2220
520.744	711
520.814	173
520.885	1640
520.955	3692
521.025	13325
521.095	3583
521.165	1231
521.235	245
521.305	-496
521.375	710
521.445	1108
521.515	52
521.585	1746
521.655	-436
521.725	1833
521.795	422
521.865	-1509
521.935	2892
522.005	-269
522.075	198
522.145	1170
522.215	-771
522.285	1572
522.355	1653
522.424	3219
522.494	1119
522.564	1671
522.634	801
522.704	1716
522.774	112
522.843	1186
522.913	515
522.983	536
523.053	-150
523.122	1093
523.192	112
523.262	700
523.331	-678
523.401	1462
523.471	711
523.540	994
523.610	-823
523.680	1037
523.749	326
523.819	1143
523.888	249
523.958	-157
524.027	949
524.097	781
524.166	744
524.236	-976
524.305	2047
524.375	-476
524.444	-731
524.514	2101
524.583	302
524.653	-301
524.722	1124
524.791	-247
524.861	1891
524.930	-737
524.999	-427
525.069	739
525.138	965
525.207	173
525.277	1266
525.346	415
525.415	2046
525.484	814
525.554	932
525.623	2233
525.692	2611
525.761	3858
525.830	5180
525.900	5555
525.969	10591
526.038	19683
526.107	47096
526.176	131677
526.245	87671
526.314	26950
526.383	67638
526.452	79812
526.522	143766
526.591	106597
526.660	13924
526.729	8149
526.797	12571
526.867	16175
526.935	60329
527.004	232031
527.073	108883
527.142	9778
527.211	4927
527.280	4369
527.349	2731
527.418	439
527.487	2477
527.555	80
527.624	777
527.693	-961
527.762	1462
527.831	167
527.899	1447
527.968	820
528.037	-832
528.106	1090
528.174	1090
528.243	946
528.312	1480
528.380	554
528.449	-534
528.518	2167
528.586	-774
528.655	1698
528.723	910
528.792	25
528.861	-101
528.929	-601
528.998	1488
529.066	28
529.135	1436
529.203	31
529.272	-76
529.340	965
529.409	3002
529.477	-155
529.545	11
529.614	3126
529.682	-414
529.751	367
529.819	3184
529.887	1325
529.956	458
530.024	1530
530.092	4
530.161	1525
530.229	1021
530.297	162
530.365	2855
530.434	1250
530.502	757
530.570	1364
530.638	-87
530.707	760
530.775	2734
530.843	438
530.911	335
530.979	1520
531.047	996
531.115	1825
531.183	517
531.252	673
531.320	1090
531.388	-166
531.456	1321
531.524	-1061
531.592	2279
531.660	2984
531.728	705
531.796	253
531.864	552
531.932	862
532.000	291
532.067	1168
532.135	1783
532.203	2160
532.271	550
532.339	2926
532.407	1795
532.475	2209
532.542	2012
532.610	1285
532.678	-259
532.746	2884
532.814	2883
532.881	2150
532.949	1636
533.017	806
533.084	1593
533.152	858
533.220	1392
533.287	315
533.355	1580
533.423	1366
533.490	1682
533.558	1541
533.625	2397
533.693	608
533.761	2058
533.828	2618
533.896	863
533.963	2468
534.031	3032
534.098	2573
534.166	2068
534.233	1973
534.300	3608
534.368	3140
534.435	1908
534.503	2928
534.570	2873
534.637	3569
534.705	4726
534.772	5363
534.840	12824
534.907	62387
534.974	60463
535.041	5972
535.109	3369
535.176	2003
535.243	2669
535.310	2356
535.378	1049
535.445	2401
535.512	1770
535.579	1701
535.646	1226
535.714	2836
535.781	2733
535.848	2481
535.915	3695
535.982	2715
536.049	2759
536.116	3582
536.183	1870
536.250	2215
536.317	2029
536.384	2384
536.451	2700
536.518	1807
536.585	788
536.652	4811
536.719	3737
536.786	780
536.853	2128
536.920	2459
536.987	2560
537.053	977
537.120	4019
537.187	3099
537.254	2218
537.321	2562
537.388	2885
537.454	1371
537.521	1710
537.588	2004
537.654	2973
537.721	2229
537.788	4159
537.855	1839
537.921	2493
537.988	2313
538.055	2736
538.121	1166
538.188	2596
538.254	1335
538.321	1685
538.388	3029
538.454	2286
538.521	3162
538.587	2594
538.654	2624
538.720	2159
538.787	3306
538.853	2846
538.920	2488
538.986	2230
539.053	1810
539.119	2372
539.185	2072
539.252	3217
539.318	2801
539.385	4900
539.451	777
539.517	2673
539.583	3256
539.650	2809
539.716	2528
539.782	2633
539.849	1670
539.915	2833
539.981	2042
540.047	1591
540.114	2021
540.180	3181
540.246	2475
540.312	1894
540.378	2050
540.444	3614
540.510	2249
540.576	3030
540.643	2453
540.709	2087
540.775	2618
540.841	2206
540.907	3041
540.973	3342
541.039	2429
541.105	2376
541.171	2086
541.237	2041
541.303	3702
541.369	4807
541.435	2522
541.500	3059
541.566	1779
541.632	2507
541.698	2395
541.764	3751
541.830	2066
541.896	1779
541.961	2188
542.027	1738
542.093	3192
542.159	3714
542.224	1169
542.290	3259
542.356	2321
542.421	3072
542.487	2950
542.553	1811
542.618	2623
542.684	2340
542.750	1521
542.815	2577
542.881	2292
542.947	2465
543.012	3385
543.078	2721
543.143	1905
543.209	2840
543.274	2112
543.340	2636
543.405	1826
543.471	2846
543.536	3022
543.602	2908
543.667	846
543.732	3431
543.798	2140
543.863	3237
543.928	1694
543.994	1606
544.059	2266
544.124	3140
544.190	1437
544.255	2404
544.320	3699
544.386	1730
544.451	3459
544.516	3087
544.581	2271
544.646	3101
544.712	3706
544.777	3559
544.842	3579
544.907	3422
544.972	2559
545.037	3430
545.102	2789
545.168	3271
545.233	3455
545.298	4147
545.363	2660
545.428	3374
545.493	4262
545.558	3406
545.623	3750
545.688	3636
545.753	4292
545.818	4291
545.883	5518
545.947	4312
546.012	4436
546.077	4940
546.142	6072
546.207	4896
546.272	5033
546.337	5860
546.401	5137
546.466	6069
546.531	5934
546.596	7650
546.661	6918
546.725	7958
546.790	8164
546.855	9675
546.919	8668
546.984	10844
547.049	12013
547.113	13444
547.178	14737
547.243	18171
547.307	20705
547.372	22210
547.436	20720
547.501	23426
547.565	24617
547.630	22896
547.695	21648
547.759	22998
547.823	20908
547.888	23140
547.952	23855
548.017	24587
548.081	24678
548.146	25300
548.210	25613
548.274	27817
548.339	26629
548.403	25718
548.468	21959
548.532	22298
548.596	22876
548.660	23782
548.725	25760
548.789	27759
548.853	26898
548.917	25213
548.982	24412
549.046	22908
549.110	21005
549.174	21899
549.238	25077
549.303	27640
549.367	29182
549.431	26707
549.495	24027
549.559	25309
549.623	29235
549.687	32201
549.751	32108
549.815	37921
549.879	38311
549.943	35835
550.007	38703
550.071	36849
550.135	34201
550.199	31085
550.263	31831
550.327	31165
550.391	30240
550.455	34580
550.519	36649
550.582	38901
550.646	43410
550.710	44411
550.774	43340
550.838	44044
550.901	45878
550.965	48007
551.029	50025
551.093	53218
551.156	58266
551.220	65178
551.284	69363
551.347	53819
551.411	49099
551.475	48158
551.538	48093
551.602	45082
551.666	41661
551.729	39522
551.793	40054
551.856	39357
551.920	36779
551.983	38681
552.047	35779
552.110	37200
552.174	36182
552.237	39048
552.301	35956
552.364	33279
552.428	32128
552.491	33246
552.554	35298
552.618	35297
552.681	36328
552.745	34083
552.808	36676
552.871	38541
552.934	36139
552.998	35029
553.061	35176
553.124	33185
553.187	33735
553.251	34764
553.314	34008
553.377	35167
553.440	40307
553.503	53395
553.567	57356
553.630	40049
553.693	39055
553.756	38973
553.819	36983
553.882	35784
553.945	36046
554.008	36571
554.071	36595
554.134	36133
554.197	33730
554.260	34289
554.323	35205
554.386	36097
554.449	36288
554.512	35922
554.575	33909
554.638	34664
554.701	33774
554.764	33646
554.827	33342
554.889	32111
554.952	29602
555.015	28544
555.078	30063
555.141	30281
555.203	29735
555.266	29399
555.329	29338
555.391	27870
555.454	26690
555.517	25601
555.580	25958
555.642	23902
555.705	23471
555.768	24001
555.830	23594
555.893	23019
555.955	22141
556.018	20544
556.080	20941
556.143	21539
556.206	21101
556.268	21455
556.330	20951
556.393	20056
556.455	20379
556.518	19385
556.580	19098
556.643	17162
556.705	17388
556.767	16489
556.830	18020
556.892	16343
556.955	16527
557.017	16074
557.079	16043
557.142	16205
557.204	15209
557.266	15500
557.328	14961
557.391	12820
557.453	13187
557.515	13434
557.577	13094
557.639	13990
557.701	13019
557.764	12773
557.826	13453
557.888	15388
557.950	14655
558.012	17171
558.074	21362
558.136	48081
558.198	93673
558.260	30487
558.322	14489
558.384	16322
558.446	17231
558.508	18664
558.570	21588
558.632	24149
558.694	32299
558.756	55989
558.818	160306
558.880	298839
558.942	97013
559.003	100993
559.065	42872
559.127	19835
559.189	20214
559.251	22725
559.312	35637
559.374	84932
559.436	222735
559.498	88770
559.559	22003
559.621	19471
559.683	24181
559.744	43125
559.806	122931
559.868	149019
559.929	29249
559.991	23448
560.052	37702
560.114	95519
560.176	53804
560.237	59378
560.299	77939
560.360	15565
560.422	7420
560.483	7536
560.545	6798
560.606	6477
560.667	5461
560.729	5156
560.790	5439
560.852	5251
560.913	4478
560.974	6034
561.036	4734
561.097	5234
561.158	4807
561.220	6124
561.281	4073
561.342	4425
561.403	4994
561.465	4100
561.526	5169
561.587	5812
561.648	3625
561.709	4051
561.771	4911
561.832	3591
561.893	3116
561.954	4159
562.015	3182
562.076	4552
562.137	3399
562.198	3544
562.259	3675
562.320	3307
562.381	3670
562.442	3482
562.503	3084
562.564	3820
562.625	3142
562.686	3236
562.747	3077
562.808	3171
562.869	2809
562.930	4396
562.991	2460
563.051	3408
563.112	3202
563.173	3204
563.234	2290
563.294	3828
563.355	2636
563.416	3044
563.477	3151
563.537	3374
563.598	2718
563.659	3314
563.720	2635
563.780	2879
563.841	3340
563.901	3936
563.962	2439
564.023	3138
564.083	3010
564.144	3201
564.204	2526
564.265	3035
564.325	2376
564.386	4233
564.446	2863
564.507	2690
564.567	2173
564.628	2684
564.688	1913
564.749	3288
564.809	2536
564.869	3012
564.930	2457
564.990	3533
565.050	2610
565.111	3599
565.171	1835
565.231	3405
565.292	3845
565.352	2112
565.412	2373
565.472	2944
565.532	2301
565.593	2519
565.653	2736
565.713	2431
565.773	3489
565.833	2990
565.893	2975
565.953	2079
566.013	3368
566.074	2631
566.134	3155
566.194	3081
566.254	2992
566.314	2923
566.374	1893
566.434	2614
566.494	2265
566.554	2921
566.614	2015
566.673	3425
566.733	2401
566.793	2719
566.853	2814
566.913	2598
566.973	3827
567.033	2894
567.092	3115
567.152	3338
567.212	3207
567.272	3432
567.331	2929
567.391	3380
567.451	3477
567.511	4301
567.570	3858
567.630	2830
567.690	3071
567.749	4004
567.809	3301
567.868	4546
567.928	3210
567.988	3470
568.047	4901
568.107	3750
568.166	4594
568.226	6399
568.285	6655
568.345	5700
568.404	5324
568.464	3991
568.523	4832
568.582	4873
568.642	4344
568.701	5225
568.761	7894
568.820	8950
568.879	9629
568.939	7787
568.998	5579
569.057	5238
569.116	4748
569.176	3925
569.235	4363
569.294	4237
569.353	2446
569.413	3556
569.472	2477
569.531	3620
569.590	2638
569.649	2770
569.708	2084
569.767	3850
569.827	3217
569.886	3209
569.945	2158
570.004	2883
570.063	2542
570.122	3162
570.181	3501
570.240	3157
570.299	2634
570.358	3193
570.417	3508
570.475	3528
570.534	3664
570.593	3077
570.652	3614
570.711	2703
570.770	2275
570.829	2740
570.887	1955
570.946	3105
571.005	3237
571.064	3048
571.122	3504
571.181	2785
571.240	3495
571.299	2882
571.357	2926
571.416	2662
571.475	2553
571.533	2675
571.592	4301
571.650	3256
571.709	2492
571.768	3836
571.826	3336
571.885	3545
571.943	3621
572.002	2473
572.060	2837
572.119	2562
572.177	3355
572.236	3756
572.294	2950
572.352	3283
572.411	3500
572.469	2678
572.528	2520
572.586	3132
572.644	3426
572.703	4129
572.761	2838
572.819	2913
572.877	2668
572.936	3485
572.994	3150
573.052	3839
573.110	2611
573.169	3233
573.227	2506
573.285	3617
573.343	3757
573.401	3155
573.459	2495
573.517	2579
573.576	2637
573.634	3356
573.692	3141
573.750	3528
573.808	1520
573.866	3500
573.924	2503
573.982	2789
574.040	1995
574.098	3191
574.155	2510
574.213	2781
574.271	3132
574.329	3049
574.387	2439
574.445	1829
574.503	2128
574.560	3292
574.618	3015
574.676	2853
574.734	1139
574.792	3086
574.849	2005
574.907	2111
574.965	815
575.022	873
575.080	1105
575.138	2239
575.195	886
575.253	1301
575.311	1450
575.368	2850
575.426	2134
575.483	2512
575.541	2416
575.598	1657
575.656	2193
575.713	2273
575.771	1266
575.828	2585
575.886	1709
575.943	2345
576.001	1344
576.058	1915
576.115	1905
576.173	2232
576.230	1668
576.287	1796
576.345	2055
576.402	2702
576.459	2524
576.517	2242
576.574	1662
576.631	1782
576.688	1362
576.746	1552
576.803	1895
576.860	1361
576.917	1374
576.974	2495
577.031	1840
577.089	2178
577.146	1097
577.203	1521
577.260	2546
577.317	2340
577.374	2419
577.431	2156
577.488	1062
577.545	1983
577.602	3028
577.659	1430
577.716	2451
577.773	2585
577.830	1997
577.886	1970
577.943	2283
578.000	1010
578.057	2230
578.114	2757
578.171	3433
578.227	3474
578.284	3680
578.341	3338
578.398	3171
578.454	3427
578.511	2373
578.568	2047
578.625	989
578.681	1934
578.738	1503
578.794	2550
578.851	2017
578.908	1812
578.964	1487
579.021	2683
579.077	1128
579.134	2345
579.190	2365
579.247	2417
579.303	1155
579.360	2696
579.416	1494
579.473	2646
579.529	1780
579.586	3003
579.642	1984
579.698	2077
579.755	2908
579.811	3160
579.867	2759
579.924	1475
579.980	2385
580.036	2071
580.093	4172
580.149	6329
580.205	6078
580.261	3704
580.317	4461
580.374	4142
580.430	3831
580.486	2707
580.542	2887
580.598	2653
580.619	2523
580.654	2293
580.692	1995
580.710	1846
580.765	2598
580.767	2619
580.823	2260
580.838	2181
580.879	1970
580.911	2888
580.935	3558
580.984	2570
580.991	2440
581.047	3579
581.057	3535
581.103	3299
581.130	3147
581.159	2976
581.203	3726
581.215	3924
581.270	3689
581.276	3531
581.326	1963
581.349	2549
581.382	3439
581.422	2970
581.438	2756
581.494	2985
581.494	2979
581.550	2249
581.567	2357
581.606	2597
581.640	2796
581.661	2903
581.713	4191
581.717	4286
581.773	3208
581.786	3168
581.829	3060
581.859	2866
581.885	2717
581.932	3376
581.940	3496
581.996	3185
582.004	3110
582.052	2579
582.077	2712
582.107	2962
582.150	3276
582.163	3326
582.219	3210
582.223	3191
582.274	3251
582.296	3295
582.330	3032
582.368	2937
582.386	3050
582.441	3769
582.441	3767
582.497	2843
582.514	3030
582.552	3655
582.587	3870
582.608	3868
582.659	3751
582.663	3750
582.719	3902
582.732	3924
582.774	4060
582.805	3603
582.830	3184
582.877	3888
582.885	4032
582.941	3949
582.950	4073
582.996	4597
583.023	4811
583.052	5134
583.095	5029
583.107	5005
583.162	6616
583.168	6625
583.218	6433
583.240	5987
583.273	5114
583.313	5133
583.328	5233
583.384	4697
583.385	4664
583.439	3707
583.458	4019
583.494	4579
583.531	4148
583.549	4035
583.603	4603
583.605	4611
583.660	4581
583.676	4633
583.715	4829
583.748	4638
583.770	4574
583.820	4590
583.825	4580
583.881	4537
583.893	4457
583.936	4272
583.965	4340
583.991	4366
584.038	4706
584.046	4791
584.101	4568
584.110	4630
584.156	4869
584.183	4837
584.211	4724
584.255	5002
584.266	5151
584.321	5077
584.328	5103
584.376	5166
584.400	5431
584.431	5832
584.472	5639
584.486	5547
584.541	5716
584.545	5760
584.596	6653
584.617	6403
584.651	6034
584.689	6825
584.706	7143
584.761	6407
584.762	6405
584.816	6807
584.834	6817
584.871	7147
584.906	7460
584.926	7408
584.978	7283
584.980	7311
585.035	8662
585.051	8915
585.090	9379
585.123	9807
585.145	10253
585.195	10386
585.200	10437
585.254	12937
585.267	13378
585.309	14844
585.340	15738
585.364	16487
585.412	19014
585.419	19448
585.473	23976
585.484	25161
585.528	32223
585.556	38492
585.583	51465
585.628	82100
585.637	93027
585.692	181742
585.700	195667
585.747	239652
585.772	209975
585.801	135990
585.845	52582
585.856	42827
585.910	23214
585.917	21337
585.965	17432
585.989	16024
586.019	15318
586.061	14048
586.074	13704
586.128	12763
586.133	12686
586.183	12279
586.205	11949
586.237	11663
586.277	11688
586.292	11841
586.346	11838
586.349	11823
586.401	11672
586.421	11849
586.455	12105
586.493	12029
586.509	12306
586.564	13174
586.565	13176
586.618	14065
586.637	14443
586.672	15321
586.709	15440
586.727	15613
586.781	17757
586.781	17785
586.835	14942
586.853	14275
586.889	13852
586.925	13344
586.944	13291
586.996	13813
586.998	13853
587.052	14079
587.068	14069
587.106	14272
587.140	14169
587.161	14127
587.212	14614
587.215	14670
587.269	14714
587.284	14782
587.323	15352
587.356	15530
587.377	15613
587.427	16463
587.431	16625
587.485	17881
587.499	17972
587.539	17571
587.571	18023
587.593	18722
587.643	19674
587.648	19807
587.702	20528
587.715	20741
587.755	21037
587.786	21015
587.810	21365
587.858	22089
587.864	22285
587.917	23409
587.930	23777
587.971	25178
588.001	25792
588.025	26313
588.073	27595
588.079	27908
588.133	29860
588.145	30348
588.187	32362
588.217	33503
588.241	35147
588.288	38347
588.295	38915
588.348	43171
588.360	44009
588.402	48412
588.431	51354
588.456	54458
588.503	60796
588.510	62150
588.564	72264
588.575	74441
588.617	87393
588.646	96668
588.671	109240
588.718	134663
588.725	142247
588.778	202542
588.789	215790
588.832	312310
588.861	380883
588.886	444427
588.932	565256
588.939	568487
588.993	553556
589.004	545419
589.047	476266
589.075	422460
589.100	349072
589.147	220656
589.154	213163
589.207	157385
589.218	146383
589.261	137256
589.290	131649
589.314	137711
589.361	151070
589.368	158516
589.421	220354
589.433	234203
589.475	343744
589.504	424011
589.528	468485
589.576	540690
589.582	533285
589.635	424847
589.647	399039
589.689	265484
589.718	176808
589.742	148701
589.790	95129
589.795	93056
589.849	73166
589.861	68513
589.902	60676
589.932	54594
589.955	51938
590.004	46367
590.009	46134
590.062	42237
590.075	41074
590.115	38907
590.146	37057
590.168	36465
590.218	35234
590.222	35255
590.275	33746
590.289	33254
590.328	33000
590.360	32814
590.381	32829
590.431	32301
590.435	32371
590.488	31597
590.503	31335
590.541	30973
590.574	30366
590.594	30509
590.645	31126
590.647	31288
590.700	32414
590.716	32692
590.753	32492
590.787	32009
590.806	32090
590.859	32378
590.859	32484
590.912	32179
590.930	32042
590.965	32204
591.001	32231
591.018	32315
591.071	32083
591.072	31970
591.124	31377
591.143	31057
591.177	31925
591.214	32484
591.230	32616
591.283	33079
591.285	32966
591.336	32186
591.356	31804
591.389	32183
591.427	32466
591.442	32417
591.495	31536
591.498	31361
591.547	31731
591.569	31860
591.600	32164
591.640	32159
591.653	32275
591.706	32297
591.711	32186
591.759	32950
591.782	33204
591.811	34356
591.853	35757
591.864	35823
591.917	35387
591.924	35220
591.969	35656
591.995	35673
592.022	35546
592.066	35012
592.075	35452
592.127	37406
592.137	37642
592.180	37659
592.208	37454
592.233	37975
592.279	38565
592.285	38826
592.338	39891
592.350	39993
592.390	40193
592.421	40089
592.443	40220
592.491	40077
592.495	40324
592.548	41778
592.562	42027
592.600	41604
592.633	40981
592.653	41193
592.704	41137
592.705	41394
592.775	42371
592.846	43690
592.916	43365
592.987	43995
593.058	44461
593.128	45329
593.199	45360
593.270	45715
593.341	46594
593.411	47702
593.482	49096
593.553	50770
593.623	51026
593.694	51777
593.764	54000
593.835	52146
593.906	52154
593.976	55148
594.047	55926
594.117	58962
594.188	59184
594.258	58900
594.329	58762
594.399	60968
594.470	61989
594.540	64671
594.611	65872
594.681	64895
594.751	64798
594.822	69409
594.892	70892
594.963	72355
595.033	74154
595.103	76095
595.174	76941
595.244	79476
595.314	80959
595.384	83681
595.455	84734
595.525	88731
595.595	91255
595.665	90951
595.736	87445
595.806	91877
595.876	92093
595.946	92443
596.016	97186
596.087	98946
596.157	99283
596.227	99209
596.297	105786
596.367	112478
596.437	119932
596.507	118430
596.577	118206
596.647	121566
596.717	128803
596.787	129623
596.857	130371
596.927	129893
596.997	130945
597.067	132023
597.137	136617
597.207	136394
597.277	136717
597.347	131111
597.417	127741
597.487	126727
597.557	129850
597.626	134416
597.696	134561
597.766	135508
597.836	126697
597.906	120438
597.975	118502
598.045	120309
598.115	125041
598.185	135887
598.254	151370
598.324	163208
598.394	165722
598.464	161223
598.533	158281
598.603	147231
598.672	142473
598.742	147266
598.812	147847
598.881	151593
598.951	150642
599.020	154121
599.090	159574
599.159	161132
599.229	155029
599.299	152921
599.368	157120
599.437	152634
599.507	145137
599.576	138497
599.646	136122
599.715	135770
599.785	132726
599.854	128026
599.924	129390
599.993	127980
600.062	130740
600.132	133828
600.201	141951
600.270	164984
600.340	172377
600.409	170871
600.478	168721
600.547	174787
600.617	156958
600.686	125349
600.755	115047
600.824	110410
600.894	107235
600.963	108360
601.032	107803
601.101	105462
601.170	100067
601.239	96540
601.308	96952
601.378	99117
601.447	98721
601.516	99621
601.585	100801
601.654	102001
601.723	104110
601.792	106865
601.861	111394
601.930	115471
601.999	115876
602.068	113635
602.137	115612
602.206	118533
602.275	120591
602.343	120713
602.412	121615
602.481	122558
602.550	125842
602.619	127730
602.688	128352
602.756	130208
602.825	131685
602.894	135351
602.963	138366
603.032	138916
603.100	136849
603.169	140349
603.238	140552
603.307	138445
603.375	140780
603.444	145520
603.513	144332
603.581	147862
603.650	149982
603.719	142940
603.787	145981
603.856	150204
603.924	152033
603.993	159642
604.061	164456
604.130	172742
604.198	175423
604.267	178839
604.335	182942
604.404	184514
604.472	187201
604.541	188044
604.609	190709
604.678	191780
604.746	191135
604.815	199247
604.883	201348
604.951	200027
605.020	204338
605.088	207031
605.156	208065
605.225	211977
605.293	210974
605.361	213099
605.429	214058
605.498	217636
605.566	222621
605.634	233914
605.702	242062
605.771	250572
605.839	250739
605.907	245970
605.975	237323
606.043	233437
606.111	232778
606.180	235292
606.248	230120
606.316	230045
606.384	229181
606.452	225779
606.520	228724
606.588	236846
606.656	235743
606.724	233874
606.792	219740
606.860	199229
606.928	180722
606.996	173159
607.064	171737
607.132	175723
607.200	187873
607.267	192088
607.335	198210
607.403	202151
607.471	193776
607.539	189061
607.607	189643
607.674	165696
607.742	166894
607.810	162848
607.878	162842
607.946	166708
608.013	176492
608.081	178672
608.149	181543
608.216	188289
608.284	193511
608.352	194013
608.419	191077
608.487	187638
608.555	184409
608.622	189858
608.690	203329
608.757	222312
608.825	227256
608.893	222023
608.960	207027
609.028	199706
609.095	200671
609.163	199199
609.230	178302
609.298	163586
609.365	171407
609.432	185513
609.500	202933
609.567	233319
609.635	266876
609.702	280620
609.769	265470
609.837	203511
609.904	172935
609.971	175234
610.039	186403
610.106	215554
610.173	315108
610.241	560124
610.308	366503
610.375	209287
610.442	189204
610.509	179959
610.577	184183
610.644	184571
610.711	193123
610.778	197894
610.845	205321
610.912	220036
610.980	227164
611.047	230873
611.114	224332
611.181	215494
611.248	217222
611.315	229008
611.382	236356
611.449	241759
611.516	245777
611.583	241952
611.650	244791
611.717	246062
611.784	249108
611.851	256042
611.918	260029
611.984	283697
612.051	336795
612.118	493288
612.185	853777
612.252	620130
612.319	336003
612.386	307386
612.452	287355
612.519	273799
612.586	271375
612.653	276941
612.719	287224
612.786	279353
612.853	256249
612.919	253344
612.986	257854
613.053	243949
613.120	228889
613.186	219776
613.253	224193
613.319	221076
613.386	224942
613.453	228846
613.519	229834
613.586	224952
613.652	226413
613.719	223032
613.785	228658
613.852	232010
613.918	228884
613.985	232439
614.051	242364
614.118	246733
614.184	233130
614.250	230509
614.317	235043
614.383	231151
614.449	238040
614.516	235449
614.582	237004
614.648	235409
614.715	230413
614.781	226342
614.847	227665
614.914	224434
614.980	218789
615.046	220935
615.112	227458
615.179	225645
615.245	231453
615.311	228684
615.377	232773
615.443	233836
615.509	235625
615.575	240524
615.642	237458
615.708	240958
615.774	248851
615.840	259112
615.906	261774
615.972	284153
616.038	356604
616.104	554728
616.170	933585
616.236	797863
616.302	397559
616.368	336818
616.434	279294
616.500	263027
616.565	277091
616.631	310967
616.697	282307
616.763	283551
616.829	352753
616.895	511830
616.961	488422
617.026	294528
617.092	246203
617.158	240032
617.224	236776
617.289	222553
617.355	210093
617.421	211195
617.487	211067
617.552	202083
617.618	199813
617.684	200824
617.749	203606
617.815	196088
617.880	189674
617.946	189427
618.012	194330
618.077	200186
618.143	189769
618.208	192023
618.274	208109
618.339	207696
618.405	172320
618.470	173764
618.536	171728
618.601	169037
618.667	158935
618.732	150787
618.798	149638
618.863	149574
618.928	148033
618.994	149373
619.059	147657
619.124	149420
619.190	147418
619.255	147816
619.320	149123
619.386	148124
619.451	147747
619.516	143017
619.581	145615
619.647	150216
619.712	151790
619.777	145424
619.842	147002
619.907	148476
619.972	151829
620.038	149174
620.103	145794
620.168	146326
620.233	148122
620.298	148920
620.363	151487
620.428	155462
620.493	159718
620.558	158780
620.623	163170
620.688	162550
620.753	160752
620.818	163471
620.883	165378
620.948	164177
621.013	161516
621.078	159666
621.143	160336
621.207	163468
621.272	158213
621.337	155291
621.402	154170
621.467	152405
621.532	153401
621.596	153870
621.661	151253
621.726	148183
621.791	151460
621.855	151309
621.920	148067
621.985	150364
622.049	155477
622.114	153777
622.179	156173
622.243	159970
622.308	163035
622.373	168250
622.437	166894
622.502	158579
622.566	157736
622.631	154369
622.695	159320
622.760	157948
622.824	158045
622.889	159399
622.953	157889
623.018	167489
623.082	169603
623.147	168349
623.211	162949
623.276	163285
623.340	157009
623.404	153815
623.469	153689
623.533	155387
623.597	150546
623.662	150288
623.726	141199
623.790	133746
623.854	129177
623.919	132125
623.983	133011
624.047	134300
624.111	135654
624.176	138395
624.240	139869
624.304	144324
624.368	138290
624.432	138235
624.496	140433
624.560	148397
624.625	148863
624.689	148721
624.753	156763
624.817	149337
624.881	143959
624.945	130237
625.009	127242
625.073	129546
625.137	132023
625.201	137379
625.265	139280
625.329	133247
625.393	136260
625.456	136040
625.520	138586
625.584	141033
625.648	144240
625.712	149511
625.776	148288
625.839	142417
625.903	118358
625.967	111506
626.031	119935
626.095	140831
626.158	129929
626.222	102453
626.286	97739
626.349	93481
626.413	86704
626.477	86652
626.540	87059
626.604	86140
626.668	86181
626.731	83507
626.795	82864
626.858	83519
626.922	81910
626.986	80678
627.049	81781
627.113	85566
627.176	81866
627.240	79328
627.303	81144
627.366	79321
627.430	80685
627.493	78236
627.557	76596
627.620	80049
627.684	82133
627.747	83015
627.810	72830
627.874	68292
627.937	64741
628.000	68919
628.064	66386
628.127	58707
628.190	59067
628.253	56985
628.317	54846
628.380	53497
628.443	51491
628.506	50125
628.569	49317
628.632	46152
628.696	47745
628.759	46940
628.822	44646
628.885	43449
628.948	42654
629.011	42591
629.074	41556
629.137	38970
629.200	39148
629.263	39696
629.326	37791
629.389	38086
629.452	37707
629.515	37105
629.578	36017
629.641	37652
629.704	37392
629.767	36009
629.830	36369
629.892	35470
629.955	33675
630.018	36444
630.081	34019
630.144	35594
630.207	32963
630.269	35737
630.332	33059
630.395	32008
630.458	32638
630.520	30637
630.583	32728
630.646	32347
630.708	32284
630.771	32413
630.834	34700
630.896	33027
630.959	32672
631.021	31308
631.084	32814
631.146	31877
631.209	32316
631.272	31847
631.334	32023
631.397	31708
631.459	31538
631.522	33850
631.584	32974
631.646	34747
631.709	34524
631.771	34298
631.834	33490
631.896	33109
631.958	31587
632.021	32484
632.083	29602
632.145	30800
632.208	29428
632.270	30274
632.332	29578
632.395	29759
632.457	31024
632.519	30052
632.581	30903
632.643	28672
632.706	30085
632.768	28425
632.830	30194
632.892	31204
632.954	30593
633.016	32252
633.078	29475
633.141	30073
633.203	30152
633.265	29446
633.327	30212
633.389	29347
633.451	30910
633.513	29632
633.575	30563
633.637	29151
633.698	30501
633.760	32152
633.822	31821
633.884	32727
633.946	32415
634.008	33997
634.070	32536
634.132	34063
634.193	34867
634.255	36028
634.317	36635
634.379	36949
634.441	33626
634.502	32237
634.564	31467
634.626	28966
634.687	28760
634.749	28060
634.811	28845
634.873	27795
634.934	28521
634.996	30182
635.057	27384
635.119	28292
635.181	28721
635.242	28375
635.304	26212
635.365	31149
635.427	28230
635.488	28095
635.550	27071
635.611	27397
635.673	26469
635.734	29565
635.796	28797
635.857	31765
635.918	31173
635.980	33903
636.041	31548
636.102	35780
636.164	35094
636.225	34446
636.286	29654
636.348	29134
636.409	28120
636.470	27388
636.531	27666
636.593	26140
636.654	26455
636.715	26781
636.776	26352
636.838	25910
636.899	26315
636.960	25358
637.021	25767
637.082	24605
637.143	24095
637.204	23331
637.265	23357
637.326	24465
637.387	24844
637.448	23282
637.509	24036
637.570	25213
637.631	25681
637.692	22613
637.753	22085
637.814	23019
637.875	23457
637.936	23251
637.997	22718
638.058	23562
638.119	22883
638.179	22820
638.240	23321
638.301	22153
638.362	22012
638.423	22231
638.483	22934
638.544	21113
638.605	22669
638.666	20981
638.726	22530
638.787	22628
638.848	21270
638.908	21694
638.969	21658
639.030	19528
639.090	20025
639.151	20293
639.211	21831
639.272	21699
639.332	21038
639.393	22036
639.453	21321
639.514	21939
639.574	20886
639.635	18991
639.695	21399
639.756	19095
639.816	19766
639.877	19594
639.937	20207
639.997	20082
640.058	17658
640.118	19194
640.178	19832
640.239	19065
640.299	19179
640.359	18655
640.420	19894
640.480	21958
640.540	22448
640.600	21783
640.661	21478
640.721	20306
640.781	22325
640.841	19226
640.901	19395
640.961	20345
641.021	20099
641.082	19630
641.142	18430
641.202	20344
641.262	18123
641.322	19667
641.382	18163
641.442	19226
641.502	17571
641.562	18996
641.622	17924
641.682	19362
641.742	20304
641.802	20012
641.861	17978
641.921	17478
641.981	17505
642.041	17621
642.101	16313
642.161	15953
642.221	17310
642.280	16363
642.340	17714
642.400	16560
642.460	18012
642.519	17720
642.579	17578
642.639	18426
642.698	14640
642.758	19480
642.818	18013
642.877	17858
642.937	17311
642.997	17618
643.056	17329
643.116	16629
643.175	19315
643.235	18309
643.294	18640
643.354	19328
643.414	19770
643.473	21773
643.532	22908
643.592	28181
643.651	39526
643.711	62727
643.770	111406
643.830	251865
643.889	444611
643.948	131455
644.008	37309
644.067	26447
644.126	22146
644.186	19447
644.245	19446
644.304	16500
644.363	19448
644.423	16511
644.482	16680
644.541	18241
644.600	16790
644.659	21140
644.719	21962
644.778	30612
644.837	47557
644.896	91916
644.955	187538
645.014	64202
645.073	24692
645.132	19828
645.191	18511
645.250	17768
645.309	19643
645.368	19349
645.427	23954
645.486	34595
645.545	54834
645.604	21031
645.663	16858
645.722	16986
645.781	17915
645.840	18786
645.898	20494
645.957	27033
646.016	35740
646.075	59427
646.134	106298
646.192	264737
646.251	339017
646.310	69800
646.369	28181
646.427	24917
646.486	19568
646.545	17847
646.603	16792
646.662	16089
646.721	14935
646.779	14473
646.838	14428
646.896	17274
646.955	22226
647.014	31519
647.072	53629
647.131	135049
647.189	61999
647.248	16253
647.306	15267
647.365	13462
647.423	11932
647.481	13718
647.540	11281
647.598	12875
647.657	12297
647.715	12727
647.773	12189
647.832	12545
647.890	10084
647.948	11068
648.007	11843
648.065	10054
648.123	10532
648.181	12106
648.240	11754
648.298	10320
648.356	9888
648.414	10938
648.472	10303
648.531	9551
648.589	10085
648.647	9342
648.705	9658
648.763	9968
648.821	10364
648.879	9866
648.937	10186
648.995	11679
649.053	13077
649.111	19439
649.169	28550
649.227	48556
649.285	97289
649.343	246267
649.401	112203
649.459	21844
649.516	14823
649.574	12183
649.632	16031
649.690	17271
649.748	17214
649.806	23116
649.863	40750
649.921	96394
649.979	59374
650.037	13496
650.094	7955
650.152	8887
650.210	7987
650.268	8766
650.325	8086
650.383	8528
650.440	6652
650.498	7254
650.556	7219
650.613	6480
650.671	7930
650.728	7994
650.786	6847
650.843	9901
650.901	6256
650.958	7949
651.016	6614
651.073	6218
651.131	6262
651.188	5893
651.246	6209
651.303	4925
651.360	6442
651.418	5456
651.475	5856
651.532	4816
651.590	6004
651.647	5208
651.704	5873
651.762	4933
651.819	5580
651.876	5765
651.933	5079
651.990	6652
652.048	4378
652.105	5990
652.162	5095
652.219	5451
652.276	5064
652.333	5941
652.390	4794
652.448	5092
652.505	4904
652.562	4572
652.619	5698
652.676	6998
652.733	7478
652.790	4769
652.847	3315
652.904	4405
652.961	3362
653.017	3618
653.074	5139
653.131	4273
653.188	4017
653.245	4555
653.302	3952
653.359	3930
653.415	4634
653.472	3160
653.529	4753
653.586	4005
653.642	4388
653.699	4933
653.756	3830
653.813	3699
653.869	5567
653.926	4645
653.983	4191
654.039	4992
654.096	4178
654.152	4776
654.209	3454
654.266	3790
654.322	2895
654.379	3814
654.435	5084
654.492	4099
654.548	4872
654.605	3264
654.661	4968
654.717	4143
654.774	4198
654.830	4103
654.887	4035
654.943	3905
655.000	5492
655.056	3444
655.112	4391
655.168	3850
655.225	3951
655.281	4952
655.337	4074
655.394	4364
655.450	4451
655.506	3415
655.562	3642
655.618	4989
655.675	3387
655.731	3877
655.787	3031
655.843	4853
655.899	3736
655.955	3852
656.011	3511
656.067	3229
656.123	3619
656.179	4086
656.235	5005
656.291	2622
656.347	4803
656.403	3593
656.459	3126
656.515	4130
656.571	3405
656.627	3190
656.683	4086
656.739	3640
656.795	3803
656.850	3873
656.906	3881
656.962	4582
657.018	4373
657.074	5567
657.129	6280
657.185	10624
657.241	22623
657.297	11540
657.352	4546
657.408	4418
657.464	3731
657.519	2686
657.575	2422
657.630	3537
657.686	3531
657.742	3244
657.797	3191
657.853	3577
657.908	4271
657.964	2824
658.019	3916
658.075	3790
658.130	2702
658.186	2644
658.241	4065
658.297	2551
658.352	3313
658.407	4180
658.463	2899
658.518	2957
658.573	3381
658.629	2680
658.684	2868
658.739	4265
658.795	3163
658.850	2813
658.905	2628
658.960	3005
659.016	2181
659.071	3167
659.126	3042
659.181	2378
659.236	3968
659.291	4162
659.346	3067
659.401	3141
659.457	3930
659.512	3696
659.567	3718
659.622	3036
659.677	2841
659.732	2325
659.787	3050
659.842	2164
659.897	3502
659.952	3011
660.007	2834
660.061	3402
660.116	2564
660.171	2667
660.226	2787
660.281	3460
660.336	3042
660.391	3894
660.445	2624
660.500	2665
660.555	3196
660.610	1870
660.664	3327
660.719	3278
660.774	2734
660.828	3245
660.883	3272
660.938	3732
660.992	2259
661.047	2908
661.101	3424
661.156	2360
661.211	2335
661.265	2543
661.320	2132
661.374	2598
661.429	3244
661.483	2709
661.538	1546
661.592	2740
661.647	2619
661.701	3116
661.755	2369
661.810	3129
661.864	2315
661.919	1689
661.973	3465
662.027	2839
662.081	2079
662.136	2327
662.190	2405
662.244	2267
662.299	2871
662.353	2972
662.407	2032
662.461	3186
662.515	2171
662.569	2718
662.624	3040
662.678	2144
662.732	2125
662.786	2059
662.840	2361
662.894	2403
662.948	2930
663.002	2663
663.056	3276
663.110	2941
663.164	2997
663.218	2789
663.272	2487
663.326	3433
663.380	2417
663.434	3153
663.488	1309
663.542	2488
663.595	2420
663.649	2708
663.703	2784
663.757	2099
663.811	2015
663.864	2428
663.918	3004
663.972	2128
664.026	2632
664.079	2363
664.133	2684
664.187	2701
664.240	2600
664.294	2482
664.348	2627
664.401	3394
664.455	2459
664.508	2591
664.562	2133
664.615	2413
664.669	1809
664.722	3260
664.776	2084
664.829	2518
664.883	2695
664.936	2330
664.990	2146
665.043	2549
665.097	1982
665.150	3434
665.203	1531
665.257	2294
665.310	2937
665.363	2442
665.417	2338
665.470	2023
665.523	2015
665.576	2643
665.630	2224
665.683	2603
665.736	2356
665.789	3627
665.842	1507
665.895	2556
665.949	2428
666.002	2606
666.055	2460
666.108	3441
666.161	3213
666.214	2237
666.267	2983
666.320	2867
666.373	2383
666.426	3355
666.479	2604
666.532	2446
666.585	3299
666.638	3019
666.691	1836
666.744	3442
666.796	2804
666.849	2899
666.902	3062
666.955	2970
667.008	2701
667.060	2145
667.113	2756
667.166	2494
667.219	3167
667.271	3016
667.324	2678
667.377	4130
667.430	2811
667.482	3259
667.535	3483
667.587	2677
667.640	1830
667.693	2322
667.745	2257
667.798	3822
667.850	2339
667.903	3284
667.955	3228
668.008	1972
668.060	2895
668.113	2643
668.165	2729
668.218	3260
668.270	3283
668.322	3096
668.375	2771
668.427	3539
668.479	2337
668.532	2712
668.584	2876
668.636	2966
668.689	3622
668.741	2667
668.793	3130
668.845	2342
668.898	2095
668.950	3041
669.002	2430
669.054	3048
669.106	2481
669.158	3104
669.211	3434
669.263	2612
669.315	3024
669.367	2754
669.419	2367
669.471	2680
669.523	2034
669.575	2509
669.627	1900
669.679	2252
669.731	2850
669.783	3084
669.835	3033
669.886	2646
669.938	2833
669.990	2565
670.042	1729
670.094	2112
670.146	1773
670.197	2358
670.249	2935
670.301	2133
670.353	2957
670.404	3290
670.456	3655
670.508	4963
670.560	7936
670.611	11883
670.663	19595
670.715	46965
670.766	64907
670.818	14553
670.869	5002
670.921	3667
670.972	3508
671.024	3117
671.075	1952
671.127	2715
671.178	2616
671.230	3096
671.281	2879
671.333	3208
671.384	3018
671.436	4389
671.487	5902
671.538	7234
671.590	12847
671.641	20205
671.692	36557
671.744	66919
671.795	42169
671.846	15560
671.897	7175
671.949	4951
672.000	3518
672.051	3555
672.102	3804
672.153	2054
672.204	2344
672.256	3190
672.307	2918
672.358	2215
672.409	1195
672.460	2195
672.511	1811
672.562	1065
672.613	1259
672.664	971
672.715	1055
672.766	1802
672.817	1732
672.868	1587
672.919	2239
672.970	778
673.021	1237
673.071	1163
673.122	2287
673.173	1753
673.224	1592
673.275	2229
673.326	1158
673.376	1789
673.427	1379
673.478	1506
673.528	1012
673.579	1894
673.630	1431
673.680	2797
673.731	1913
673.782	1899
673.832	1315
673.883	1554
673.934	1158
673.984	1287
674.035	1596
674.085	2071
674.136	1607
674.186	2431
674.237	1528
674.287	1345
674.338	1396
674.388	1007
674.438	1522
674.489	2384
674.539	1917
674.589	1147
674.640	882
674.690	1680
674.740	1118
674.791	2026
674.841	1230
674.891	1215
674.942	1331
674.992	1488
675.042	1124
675.092	899
675.142	943
675.193	826
675.243	875
675.293	1460
675.343	860
675.393	1373
675.443	1436
675.493	1994
675.543	952
675.593	1269
675.643	2093
675.693	1550
675.743	1461
675.793	836
675.843	734
675.893	1189
675.943	1923
675.993	1656
676.043	1400
676.093	1451
676.142	812
676.192	1041
676.242	1780
676.292	923
676.341	877
676.391	676
676.441	415
676.491	2027
676.540	767
676.590	1431
676.640	1220
676.689	1006
676.739	374
676.789	749
676.838	1191
676.888	644
676.937	689
676.987	1161
677.037	660
677.086	95
677.136	816
677.185	1037
677.235	579
677.284	1530
677.333	604
677.383	1498
677.432	555
677.482	1009
677.531	575
677.580	605
677.630	478
677.679	821
677.728	96
677.778	760
677.827	200
677.876	1596
677.925	664
677.975	877
678.024	543
678.073	549
678.122	1373
678.171	1205
678.220	1312
678.269	484
678.319	675
678.368	1375
678.417	1820
678.466	1298
678.515	916
678.564	706
678.613	450
678.662	273
678.711	732
678.760	465
678.809	1162
678.857	589
678.906	372
678.955	653
679.004	997
679.053	1076
679.102	548
679.151	1514
679.199	339
679.248	913
679.297	1176
679.346	552
679.394	1283
679.443	614
679.492	565
679.540	1018
679.589	824
679.638	845
679.686	1131
679.735	1024
679.784	1167
679.832	584
679.881	386
679.929	420
679.978	-74
680.026	718
680.075	1489
680.123	-207
680.172	498
680.220	1206
680.268	1044
680.317	422
680.365	149
680.414	86
680.462	109
680.510	733
680.559	508
680.607	1030
680.655	471
680.703	751
680.752	-122
680.800	473
680.848	1155
680.896	186
680.945	-245
680.993	-338
681.041	573
681.089	783
681.137	658
681.185	-132
681.233	541
681.258	894
681.281	1197
681.329	94
681.377	49
681.380	87
681.425	136
681.473	931
681.502	413
681.521	-10
681.569	1190
681.617	466
681.624	632
681.665	1440
681.713	691
681.745	1304
681.761	1556
681.809	1544
681.857	1352
681.867	1388
681.904	1371
681.952	877
681.989	1120
682.000	1147
682.048	772
682.096	1353
682.111	1498
682.143	1688
682.191	1727
682.233	2270
682.239	2327
682.286	1519
682.334	1440
682.354	1665
682.382	1860
682.430	2046
682.476	1780
682.477	1743
682.525	1403
682.572	2258
682.598	2063
682.620	1858
682.667	1651
682.715	3401
682.720	3349
682.763	2602
682.810	2414
682.841	2752
682.857	2866
682.905	2321
682.952	3722
682.963	3698
683.000	3496
683.047	3411
683.085	4420
683.095	4668
683.142	3657
683.190	3500
683.206	3255
683.237	2711
683.284	3540
683.328	3069
683.332	3004
683.379	3630
683.426	2826
683.449	3233
683.473	3630
683.521	3725
683.568	3317
683.571	3366
683.615	3633
683.662	4060
683.693	3747
683.709	3519
683.757	3592
683.804	4179
683.814	4016
683.851	3399
683.898	4216
683.936	4118
683.945	4069
683.992	4443
684.039	3877
684.057	4200
684.086	4652
684.133	4300
684.179	3957
684.180	3925
684.227	4266
684.274	4558
684.300	4342
684.321	4174
684.368	4661
684.415	4509
684.422	4534
684.462	4600
684.509	4323
684.543	4810
684.556	4943
684.603	4706
684.649	5529
684.665	5611
684.696	5741
684.743	5464
684.786	5394
684.790	5365
684.837	5601
684.883	5295
684.908	5383
684.930	5526
684.977	6072
685.023	6030
685.029	6046
685.070	5808
685.117	5978
685.150	5935
685.164	5949
685.210	6498
685.257	6109
685.272	6209
685.303	6320
685.350	6264
685.393	6525
685.396	6531
685.443	6010
685.490	6704
685.514	6373
685.536	6070
685.583	6462
685.629	6730
685.636	6745
685.675	6816
685.722	6636
685.757	6194
685.768	6017
685.815	6532
685.861	6950
685.878	6865
685.908	6741
685.954	6484
686.000	6674
686.000	6672
686.047	7146
686.093	6796
686.121	7287
686.139	7503
686.185	7824
686.232	7438
686.242	7452
686.278	7491
686.324	7390
686.363	7146
686.370	7106
686.416	7268
686.463	7461
686.484	7333
686.509	7236
686.555	7791
686.601	7922
686.606	7979
686.647	8349
686.693	8214
686.727	7931
686.739	7798
686.785	7978
686.831	7698
686.848	7732
686.877	7898
686.923	8019
686.969	7938
686.969	7936
687.015	8184
687.061	8788
687.090	8656
687.107	8492
687.153	9036
687.199	9087
687.211	8950
687.245	8610
687.291	8857
687.332	8696
687.336	8702
687.382	8905
687.428	8843
687.453	9093
687.474	9158
687.520	9572
687.565	8750
687.574	8692
687.611	8869
687.657	9560
687.695	10061
687.702	10147
687.748	10503
687.794	10737
687.816	10861
687.839	10640
687.885	10321
687.931	9870
687.937	9769
687.976	9475
688.022	10066
688.058	10239
688.067	10297
688.113	9962
688.158	9622
688.179	9583
688.204	9613
688.249	9988
688.295	9763
688.300	9773
688.340	9865
688.386	10527
688.421	10394
688.431	10369
688.477	10209
688.522	10375
688.542	10493
688.567	10810
688.613	11039
688.658	11303
688.663	11349
688.703	11291
688.749	11230
688.784	10989
688.794	11002
688.839	11110
688.884	11226
688.905	11166
688.930	10967
688.975	11166
689.020	10722
689.026	10682
689.065	10830
689.110	11015
689.146	11151
689.155	11144
689.201	10924
689.246	11087
689.267	10981
689.291	11010
689.336	11356
689.381	11389
689.388	11389
689.426	11348
689.471	11492
689.509	11353
689.516	11374
689.561	11882
689.606	12034
689.630	12224
689.651	12268
689.696	11524
689.741	11664
689.750	11715
689.785	12164
689.830	11895
689.871	11734
689.875	11731
689.920	12112
689.965	12018
689.992	12102
690.010	12088
690.054	12028
690.099	11618
690.112	11704
690.144	12201
690.189	12080
690.233	12079
690.233	12097
690.278	12182
690.323	12153
690.354	12340
690.367	12530
690.412	12581
690.457	13111
690.474	13178
690.501	13289
690.546	13502
690.590	13893
690.595	13870
690.635	13925
690.680	14315
690.716	14301
690.724	14521
690.769	16165
690.813	17993
690.836	18411
690.857	20489
690.902	26107
690.946	31078
690.957	32355
690.991	43171
691.035	58092
691.077	71027
691.080	70847
691.124	63449
691.168	56675
691.198	52294
691.213	48677
691.257	38029
691.301	27097
691.318	22869
691.346	21332
691.390	19015
691.434	16198
691.439	15885
691.478	15412
691.522	15225
691.559	14541
691.567	14544
691.611	14648
691.655	14984
691.680	14918
691.699	14838
691.743	15031
691.787	14526
691.800	14514
691.831	14521
691.875	14561
691.919	14282
691.921	14251
691.964	14294
692.008	14252
692.041	13921
692.052	13915
692.096	14187
692.139	14680
692.162	14592
692.183	14436
692.227	14817
692.271	14358
692.282	14374
692.315	14561
692.359	14499
692.402	14518
692.403	14545
692.447	14160
692.490	13821
692.523	13598
692.534	13673
692.578	13550
692.622	13767
692.643	13822
692.666	14078
692.709	14567
692.753	14663
692.763	14657
692.797	14497
692.840	14714
692.884	14784
692.884	14819
692.928	15109
692.971	15471
693.004	15696
693.015	15705
693.059	15359
693.102	15452
693.124	15253
693.146	15472
693.189	16145
693.233	16728
693.245	16856
693.276	17400
693.320	18325
693.363	18509
693.365	18501
693.407	20057
693.450	21287
693.485	22220
693.493	22942
693.537	26800
693.580	30536
693.605	32668
693.624	37276
693.667	47978
693.710	59133
693.725	62927
693.753	83254
693.797	115561
693.840	147532
693.845	150829
693.883	136953
693.926	121706
693.966	108225
693.970	106011
694.013	80542
694.056	55339
694.086	37935
694.099	36383
694.142	30775
694.185	25508
694.206	22857
694.229	22208
694.272	21054
694.315	19965
694.326	19560
694.358	19077
694.401	18566
694.444	18035
694.446	17959
694.487	17738
694.530	17706
694.566	17467
694.573	17447
694.616	16876
694.659	16917
694.686	16528
694.702	16516
694.745	16895
694.787	16919
694.806	16889
694.830	16920
694.873	16805
694.916	17032
694.926	16962
694.959	16844
695.002	16829
695.044	16702
695.046	16665
695.087	17261
695.130	17560
695.166	17903
695.172	17962
695.215	18010
695.258	17954
695.286	18032
695.301	18238
695.343	18468
695.386	18728
695.406	18874
695.428	19287
695.471	19816
695.514	20414
695.526	20595
695.556	21963
695.599	23606
695.641	25341
695.646	25478
695.684	24612
695.726	23475
695.766	22109
695.769	22110
695.811	21663
695.854	21190
695.886	20758
695.896	20932
695.938	21254
695.981	21679
696.005	21859
696.023	22201
696.065	22937
696.108	23765
696.125	23975
696.150	24243
696.192	24830
696.235	25172
696.245	25212
696.277	25461
696.319	25618
696.361	26091
696.365	26034
696.404	26103
696.446	26306
696.485	26356
696.488	26380
696.530	25776
696.572	25195
696.604	24796
696.614	24931
696.656	25089
696.698	25259
696.724	25289
696.740	25397
696.783	25609
696.825	25810
696.844	25780
696.867	25729
696.909	25560
696.951	25339
696.964	25204
696.992	25442
697.034	25814
697.076	26060
697.083	26043
697.118	26636
697.160	27296
697.202	27890
697.203	27834
697.244	27475
697.286	27004
697.323	26413
697.327	26450
697.369	26336
697.411	26028
697.442	25805
697.453	25982
697.494	26377
697.536	26783
697.562	26996
697.578	27003
697.620	26825
697.661	26569
697.682	26395
697.703	26977
697.744	27989
697.786	29058
697.801	29326
697.828	29217
697.869	28999
697.911	28757
697.921	28631
697.952	28651
697.994	28523
698.035	28418
698.040	28329
698.077	28413
698.118	28442
698.160	28438
698.160	28362
698.201	29327
698.243	30240
698.279	31002
698.284	31105
698.325	31230
698.367	31411
698.399	31450
698.408	31631
698.449	32083
698.491	32527
698.518	32749
698.532	32823
698.573	32746
698.614	32699
698.638	32580
698.656	32751
698.697	32937
698.738	33133
698.757	33131
698.779	32975
698.820	32518
698.862	32062
698.877	31803
698.903	31901
698.944	31923
698.985	31945
698.996	31866
699.026	32369
699.067	32948
699.116	33550
699.235	32250
699.354	31208
699.474	30506
699.593	29751
699.713	30845
699.832	30397
699.951	31693
700.070	30889
700.190	28791
700.309	27849
700.428	27910
700.547	28437
700.667	27765
700.786	28358
700.905	27283
701.024	27318
701.143	26685
701.262	28870
701.381	28800
701.500	27897
701.619	28853
701.738	28418
701.857	28412
701.976	26477
702.095	27414
702.214	28539
702.333	27205
702.452	27465
702.571	28566
702.690	27918
702.809	27070
702.928	26736
703.047	25309
703.165	25894
703.284	26364
703.403	24936
703.522	25506
703.640	24079
703.759	25269
703.878	24177
703.997	23984
704.115	23550
704.234	24969
704.353	25182
704.471	23245
704.590	21804
704.708	22702
704.827	22475
704.946	22320
705.064	23023
705.183	22587
705.301	23287
705.420	24555
705.538	22644
705.656	22079
705.775	20490
705.893	27846
706.012	28903
706.130	22062
706.249	22555
706.367	21697
706.485	22035
706.604	21011
706.722	20385
706.840	22374
706.958	24380
707.077	20851
707.195	20491
707.313	20902
707.431	19498
707.549	19338
707.668	18619
707.786	20764
707.904	19385
708.022	20054
708.140	18407
708.258	17754
708.376	19953
708.494	18042
708.612	20220
708.730	20374
708.848	20377
708.966	19602
709.084	19205
709.202	19660
709.320	17714
709.438	18939
709.556	18909
709.674	16988
709.791	17279
709.909	17680
710.027	17375
710.145	16347
710.263	18065
710.380	17710
710.498	17121
710.616	17493
710.733	16351
710.851	16747
710.969	16689
711.086	16529
711.204	17334
711.322	16889
711.439	16891
711.557	16212
711.674	15699
711.792	16431
711.909	16194
712.027	16468
712.144	16247
712.262	16166
712.379	16190
712.497	16963
712.614	16533
712.732	17566
712.849	15859
712.966	16303
713.084	16906
713.201	16128
713.318	16343
713.436	17728
713.553	15932
713.670	16762
713.787	17359
713.905	15590
714.022	17070
714.139	17628
714.256	19696
714.373	25766
714.490	44034
714.608	105055
714.725	393294
714.842	371990
714.959	45162
715.076	22766
715.193	18913
715.310	18428
715.427	15200
715.544	16464
715.661	15266
715.778	15615
715.895	14780
716.011	14410
716.128	14096
716.245	14969
716.362	14209
716.479	12704
716.596	13944
716.713	14189
716.829	13428
716.946	13180
717.063	13116
717.180	12221
717.296	12620
717.413	12258
717.530	12331
717.646	12064
717.763	12571
717.880	11208
717.996	12602
718.113	11423
718.229	11572
718.346	10781
718.462	11150
718.579	12870
718.695	12347
718.812	11593
718.928	11771
719.045	11886
719.161	11625
719.277	12136
719.394	12670
719.510	12590
719.626	13203
719.743	14741
719.859	21144
719.975	38852
720.092	144668
720.208	306234
720.324	41995
720.440	16195
720.557	13006
720.673	12646
720.789	13438
720.905	13925
721.021	11639
721.137	10542
721.253	10746
721.369	10829
721.486	10853
721.602	10625
721.718	10850
721.834	10373
721.950	9796
722.066	9509
722.181	9847
722.297	10337
722.413	9768
722.529	10027
722.645	9019
722.761	9360
722.877	9771
722.993	10583
723.108	11374
723.224	10735
723.340	9323
723.456	9209
723.571	8685
723.687	8768
723.803	9651
723.918	9432
724.034	9041
724.150	9081
724.265	9475
724.381	9880
724.497	10769
724.612	8899
724.728	9032
724.843	8893
724.959	10061
725.074	10116
725.190	10514
725.305	8274
725.421	8400
725.536	8734
725.651	8886
725.767	8880
725.882	8368
725.997	8385
726.113	8706
726.228	8895
726.343	8426
726.459	8679
726.574	8971
726.689	8192
726.804	9185
726.920	8565
727.035	8312
727.150	8012
727.265	7438
727.380	8342
727.495	9158
727.610	7962
727.725	8007
727.841	8363
727.956	12444
728.071	10146
728.186	8010
728.301	7568
728.416	8260
728.531	8221
728.645	7432
728.760	8211
728.875	8597
728.990	7665
729.105	7308
729.220	7394
729.335	8422
729.449	7566
729.564	8128
729.679	8069
729.794	7635
729.908	8064
730.023	7726
730.138	7936
730.253	7623
730.367	7959
730.482	8670
730.596	7853
730.711	8189
730.826	11220
730.940	10762
731.055	9981
731.169	9014
731.284	9997
731.398	9142
731.513	10003
731.627	10695
731.742	13729
731.856	15627
731.970	15180
732.085	18500
732.199	24953
732.313	40063
732.428	99210
732.542	266457
732.656	150253
732.771	36317
732.885	22171
732.999	19996
733.113	20778
733.227	19890
733.342	18230
733.456	18877
733.570	18708
733.684	17456
733.798	16675
733.912	16989
734.026	16811
734.140	16856
734.254	15975
734.368	16916
734.482	17765
734.596	16103
734.710	15524
734.824	15379
734.938	15042
735.052	15938
735.166	15524
735.280	15147
735.393	15078
735.507	15387
735.621	14651
735.735	13871
735.849	16218
735.962	14645
736.076	14608
736.190	14488
736.303	15196
736.417	14519
736.531	13553
736.644	14085
736.758	12816
736.872	13013
736.985	13755
737.099	13896
737.212	13064
737.326	12554
737.439	13993
737.553	12862
737.666	12561
737.780	11981
737.893	13024
738.007	11963
738.120	13020
738.233	11551
738.347	13559
738.460	12680
738.573	12801
738.687	11582
738.800	12711
738.913	13379
739.026	12835
739.140	11679
739.253	13395
739.366	10874
739.479	12498
739.592	12432
739.705	10513
739.818	13227
739.932	11079
740.045	12506
740.158	10275
740.271	12266
740.384	12880
740.497	10406
740.610	11915
740.723	10607
740.836	11172
740.949	11206
741.062	12296
741.174	11773
741.287	11151
741.400	11140
741.513	10809
741.626	10760
741.739	11568
741.851	11051
741.964	11115
742.077	11207
742.189	9885
742.302	10745
742.415	10123
742.527	10315
742.640	11320
742.753	9549
742.865	9808
742.978	10059
743.090	9551
743.203	10953
743.316	10442
743.428	10127
743.541	10323
743.653	8339
743.766	10045
743.878	9696
743.990	9578
744.103	10513
744.215	9168
744.327	8536
744.440	11679
744.552	9111
744.664	8888
744.777	9686
744.889	8990
745.001	9514
745.113	9617
745.226	9430
745.338	8343
745.450	10687
745.562	8972
745.674	8693
745.786	10341
745.898	8962
746.010	9022
746.122	9087
746.234	9576
746.347	9719
746.459	9161
746.570	8310
746.682	9130
746.794	9912
746.906	8008
747.018	7719
747.130	9246
747.242	8727
747.354	8297
747.466	9190
747.577	7891
747.689	8958
747.801	8889
747.913	8714
748.024	7846
748.136	8176
748.248	7856
748.359	7866
748.471	8857
748.583	7206
748.694	7126
748.806	8535
748.918	8014
749.029	8464
749.141	8543
749.252	8039
749.364	7066
749.475	7185
749.587	7260
749.698	7353
749.809	7786
749.921	7226
750.032	7878
750.144	7801
750.255	7747
750.366	7477
750.478	7500
750.589	7847
750.700	6920
750.811	7946
750.923	7411
751.034	7194
751.145	8076
751.256	7630
751.367	6784
751.479	7368
751.590	7878
751.701	7333
751.812	6242
751.923	7092
752.034	7767
752.145	7717
752.256	7527
752.367	7090
752.478	7041
752.589	6897
752.700	7489
752.811	7697
752.922	6823
753.032	7934
753.143	7857
753.254	7202
753.365	8386
753.476	7918
753.586	7352
753.697	7511
753.808	7992
753.919	7472
754.029	8200
754.140	7387
754.251	7028
754.361	7084
754.472	8146
754.582	7301
754.693	7637
754.804	7885
754.914	6660
755.025	7046
755.135	7847
755.246	7868
755.356	7418
755.466	6045
755.577	7566
755.687	7225
755.798	7010
755.908	7555
756.018	7892
756.129	7831
756.239	8180
756.349	8900
756.460	7091
756.570	8229
756.680	7664
756.790	8376
756.900	8659
757.011	8483
757.121	8147
757.231	8149
757.341	7661
757.451	7683
757.561	7468
757.671	7002
757.781	7734
757.891	8366
758.001	7432
758.111	8039
758.221	8613
758.331	8737
758.441	8491
758.551	8435
758.661	9261
758.771	9782
758.880	8090
758.990	8313
759.100	8448
759.210	8103
759.320	9470
759.429	9969
759.539	10097
759.649	9314
759.758	10898
759.868	11004
759.978	10975
760.087	11593
760.197	11261
760.307	10888
760.416	10362
760.526	10299
760.635	11163
760.745	11883
760.854	12500
760.964	12850
761.073	13902
761.182	12589
761.292	12781
761.401	12478
761.511	12468
761.620	11759
761.729	11637
761.839	12713
761.948	12038
762.057	12282
762.166	13291
762.276	12923
762.385	13833
762.494	14201
762.603	14683
762.712	14781
762.822	16081
762.931	15092
763.040	15575
763.149	16145
763.258	16331
763.367	17963
763.476	18813
763.585	19459
763.694	20525
763.803	20780
763.912	22727
764.021	24482
764.130	25085
764.238	26993
764.347	28457
764.456	31003
764.565	33548
764.674	35569
764.783	39179
764.891	43666
765.000	49180
765.109	55778
765.217	63288
765.326	72885
765.435	86098
765.543	102840
765.652	126669
765.761	159318
765.869	207610
765.978	274456
766.086	364714
766.195	467661
766.303	515760
766.412	358625
766.520	345343
766.629	499796
766.737	457525
766.846	350768
766.954	262917
767.062	198702
767.171	154856
767.279	124242
767.387	100055
767.496	84977
767.604	72746
767.712	63203
767.820	56170
767.928	52746
768.037	47802
768.145	44776
768.253	44506
768.361	41125
768.469	42046
768.577	42639
768.685	44860
768.793	47869
768.901	51904
769.009	61298
769.117	73126
769.225	90985
769.333	121299
769.441	172985
769.549	260188
769.657	391759
769.765	463759
769.873	327803
769.981	432160
770.088	383632
770.196	264225
770.304	182970
770.412	133395
770.519	103220
770.627	83178
770.735	69773
770.842	58166
770.950	49905
771.058	44631
771.165	40505
771.273	37385
771.380	33906
771.488	33419
771.595	32597
771.703	29177
771.810	27637
771.918	26235
772.025	26962
772.133	27960
772.240	23933
772.348	26577
772.455	23917
772.562	22812
772.670	21644
772.777	22483
772.884	20633
772.991	20412
773.099	19698
773.206	18822
773.313	18691
773.420	18018
773.528	17643
773.635	17070
773.742	18213
773.849	16798
773.956	17404
774.063	15939
774.170	16000
774.277	16166
774.384	15043
774.491	16089
774.598	15804
774.705	14783
774.812	14503
774.919	15033
775.026	14895
775.133	13560
775.239	13573
775.346	13444
775.453	13353
775.560	12913
775.667	14361
775.773	12138
775.880	13601
775.987	12307
776.093	12419
776.200	13561
776.307	10428
776.413	12508
776.520	12910
776.627	11374
776.733	11202
776.840	8903
776.946	13116
777.053	12012
777.159	10114
777.266	10695
777.372	12128
777.478	12015
777.585	11506
777.691	9473
777.798	10295
777.904	10142
778.010	10699
778.117	10993
778.223	9700
778.329	10220
778.435	8167
778.542	10962
778.648	9355
778.754	8091
778.860	9125
778.966	9558
779.072	8304
779.178	10145
779.284	7958
779.391	8246
779.497	9467
779.603	11663
779.708	9696
779.815	16117
779.920	41777
780.026	79881
780.132	16594
780.238	9404
780.344	7990
780.450	11178
780.556	8366
780.661	7605
780.767	8932
780.873	6080
780.979	7585
781.085	8026
781.190	7433
781.296	7735
781.402	7819
781.507	7440
781.613	6490
781.719	6904
781.824	8140
781.930	7475
782.035	6948
782.141	8324
782.246	6186
782.352	7103
782.457	7203
782.563	7333
782.668	6761
782.773	6850
782.879	5408
782.984	7233
783.090	6806
783.195	6974
783.300	8006
783.405	6164
783.511	5337
783.616	6574
783.721	6449
783.826	5387
783.932	6239
784.037	6291
784.142	6736
784.247	5421
784.352	6638
784.457	5688
784.562	6429
784.667	6525
784.772	5151
784.877	4255
784.982	6608
785.087	6867
785.192	4905
785.297	5962
785.402	5818
785.507	6342
785.611	5097
785.716	5486
785.821	5515
785.926	5454
786.031	5119
786.135	5764
786.240	6351
786.345	4622
786.450	4809
786.554	4882
786.659	3973
786.763	4448
786.868	5790
786.973	5705
787.077	5259
787.182	4076
787.286	5465
787.391	5762
787.495	3826
787.600	4244
787.704	4213
787.809	5889
787.913	4847
788.017	4948
788.122	5387
788.226	4313
788.330	3551
788.435	4561
788.539	6089
788.643	3755
788.747	3219
788.852	4489
788.956	4359
789.060	5159
789.164	4266
789.268	3880
789.372	5055
789.476	4290
789.580	3382
789.684	3215
789.788	5748
789.892	4795
789.996	4129
790.100	3899
790.204	4031
790.308	4871
790.412	4190
790.516	3578
790.620	3439
790.724	5474
790.828	4206
790.931	2372
791.035	4592
791.139	3988
791.242	3832
791.346	4050
791.450	3473
791.554	4181
791.657	2820
791.761	4198
791.864	4162
791.968	4214
792.072	3738
792.175	3273
792.279	3360
792.382	3755
792.486	3658
792.589	3502
792.693	4251
792.796	2371
792.899	4642
793.003	3678
793.106	2206
793.209	2903
793.313	3826
793.416	1574
793.519	4072
793.623	3808
793.726	4163
793.829	2803
793.932	3338
794.035	2245
794.138	4395
794.242	4280
794.345	2818
794.448	3217
794.551	6222
794.654	20949
794.757	45449
794.860	9406
794.963	4148
795.066	3029
795.169	3986
795.272	3145
795.375	4501
795.477	2705
795.580	2760
795.683	2316
795.786	3363
795.889	2896
795.991	3437
796.094	3675
796.197	2278
796.300	4050
796.402	2984
796.505	2906
796.608	1749
796.710	2820
796.813	3810
796.915	2915
797.018	3262
797.120	3194
797.223	1909
797.326	4964
797.428	2106
797.530	2089
797.633	2344
797.735	3649
797.838	2581
797.940	3895
798.042	2410
798.145	2558
798.247	3225
798.349	836
798.452	3538
798.554	3063
798.656	1859
798.758	3948
798.860	2903
798.962	2376
799.065	2130
799.167	1994
799.269	3076
799.371	3202
799.473	3176
799.575	1724
799.677	2158
799.779	3362
799.881	1304
799.983	4257
800.085	2892
800.187	2701
800.289	971
800.390	2001
800.492	3386
800.594	3380
800.696	1722
800.798	2340
800.899	2549
801.001	3124
801.103	2996
801.205	2507
801.306	2732
801.408	1893
801.509	3126
801.611	2800
801.713	2546
801.814	2360
801.916	2258
802.017	1438
802.119	982
802.220	1733
802.322	450
802.423	2911
802.525	1012
802.626	2275
802.727	3139
802.829	3829
802.930	-193
803.031	3316
803.133	2049
803.234	1622
803.335	3134
803.436	1766
803.538	1614
803.639	1029
803.740	2447
803.841	1640
803.942	2691
804.043	2654
804.144	448
804.245	1762
804.346	902
804.447	1923
804.548	2026
804.649	2789
804.750	829
804.851	1715
804.952	1562
805.053	1795
805.154	1244
805.255	2401
805.355	1802
805.456	1363
805.557	1900
805.658	1047
805.758	3054
805.859	1931
805.960	2165
806.061	2158
806.161	1462
806.262	1581
806.362	1990
806.463	1649
806.564	2024
806.664	1231
806.765	1342
806.865	1283
806.966	1230
807.066	905
807.166	2441
807.267	3126
807.367	997
807.468	2393
807.568	311
807.668	2225
807.769	2431
807.869	2049
807.969	1835
808.069	1787
808.170	2306
808.270	1726
808.370	2051
808.470	2462
808.570	862
808.670	1845
808.770	2285
808.870	909
808.970	1437
809.070	1123
809.170	659
809.271	1633
809.370	1940
809.470	1702
809.570	264
809.670	1386
809.770	741
809.870	1772
809.970	1544
810.070	1682
810.169	2218
810.269	776
810.369	2585
810.469	991
810.568	1154
810.668	712
810.768	1000
810.867	1054
810.967	1059
811.066	765
811.166	1302
811.265	2484
811.365	1112
811.464	1710
811.564	1921
811.663	1737
811.763	475
811.862	1682
811.962	2249
812.061	1794
812.160	768
812.260	1583
812.359	1348
812.458	978
812.557	2155
812.657	1265
812.756	2176
812.855	1963
812.954	1313
813.053	2246
813.153	1661
813.252	1009
813.351	1318
813.450	1591
813.549	1253
813.648	1838
813.747	543
813.846	2233
813.945	1283
814.044	1541
814.143	2558
814.242	2273
814.341	1008
814.439	1884
814.538	2508
814.637	2180
814.736	2280
814.835	2663
814.933	1826
815.032	3102
815.131	3316
815.229	6472
815.328	9390
815.427	7074
815.525	6802
815.624	5976
815.722	4838
815.821	6598
815.919	5942
816.018	5764
816.116	7121
816.215	5956
816.313	6771
816.412	8294
816.510	8197
816.609	8280
816.707	9991
816.805	8080
816.904	7596
817.002	8731
817.100	9340
817.198	9472
817.296	7467
817.395	8100
817.493	8366
817.591	7722
817.689	8452
817.787	8768
817.885	10104
817.983	11982
818.081	19576
818.179	37716
818.277	90593
818.375	78350
818.473	24647
818.571	11969
818.669	10535
818.767	10833
818.865	9877
818.963	9767
819.061	12726
819.158	17316
819.256	33206
819.354	67300
819.452	146926
819.549	95900
819.647	30206
819.745	14187
819.842	11882
819.940	10520
820.038	7950
820.135	7394
820.233	8454
820.330	7272
820.428	5671
820.525	8282
820.623	5809
820.720	5616
820.818	7333
820.915	7020
821.012	6184
821.110	4786
821.207	5779
821.304	4691
821.402	5609
821.499	6290
821.596	5388
821.693	6344
821.791	5914
821.888	5411
821.985	7000
822.082	4954
822.179	5577
822.276	5020
822.373	4920
822.470	5568
822.567	5503
822.664	3972
822.761	4717
822.858	5497
822.955	4803
823.052	3879
823.149	4598
823.246	4945
823.343	3759
823.440	4317
823.536	4765
823.633	5253
823.730	4641
823.827	5201
823.923	4552
824.020	4003
824.117	4882
824.213	4776
824.310	4376
824.407	3336
824.503	5170
824.600	4843
824.696	3407
824.793	5312
824.889	4523
824.986	4494
825.082	3431
825.179	4236
825.275	4933
825.371	5756
825.468	4554
825.564	1363
825.660	4652
825.757	6094
825.853	4580
825.949	3608
826.045	4411
826.142	4208
826.238	4035
826.334	4442
826.430	3639
826.526	3252
826.622	2484
826.718	4695
826.814	4101
826.910	5084
827.006	1962
827.102	1785
827.198	4217
827.294	4623
827.390	3451
827.486	4113
827.582	1516
827.678	2210
827.774	5058
827.869	2392
827.965	3171
828.061	2460
828.157	4681
828.252	4372
828.348	3213
828.444	3317
828.539	2093
828.635	3715
828.731	4070
828.826	1946
828.922	2891
829.017	3248
829.113	3977
829.208	2104
829.304	2839
829.399	5071
829.495	3002
829.590	3130
829.685	2607
829.781	3503
829.876	4031
829.971	1556
830.066	1011
830.162	3522
830.257	3789
830.352	2881
830.447	2541
830.543	2070
830.638	2081
830.733	3878
830.828	2525
830.923	3521
831.018	2678
831.113	4214
831.208	2531
831.303	1943
831.398	2415
831.493	2768
831.588	4288
831.683	2621
831.778	1726
831.873	1931
831.967	3519
832.062	2469
832.157	1864
832.252	3043
832.346	1953
832.441	3486
832.536	2983
832.631	3185
832.725	3244
832.820	2021
832.914	3087
833.009	1284
833.104	1526
833.198	2067
833.293	2114
833.387	3267
833.482	2417
833.576	2493
833.670	2191
833.765	2094
833.859	2542
833.954	3077
834.048	3608
834.142	2229
834.237	1441
834.331	2196
834.425	2098
834.519	1768
834.613	1762
834.708	2290
834.802	2224
834.896	1320
834.990	2460
835.084	1600
835.178	803
835.272	2000
835.366	2920
835.460	3567
835.554	2846
835.648	1195
835.742	402
835.836	1635
835.930	1347
836.024	2202
836.117	1790
836.211	1669
836.305	1412
836.399	2326
836.493	853
836.586	3187
836.680	1740
836.774	1714
836.867	2394
836.961	358
837.055	1594
837.148	1564
837.242	1497
837.335	2598
837.429	1440
837.522	888
837.616	1350
837.709	2113
837.803	1231
837.896	2573
837.989	1856
838.083	1496
838.176	481
838.269	506
838.363	3090
838.456	1428
838.549	2258
838.642	753
838.735	1012
838.829	2065
838.922	729
839.015	1812
839.108	1442
839.201	2316
839.294	1919
839.387	2098
839.480	1022
839.573	767
839.666	488
839.759	1367
839.852	1283
839.945	1991
840.038	1823
840.131	875
840.223	1396
840.316	2324
840.409	1058
840.502	1191
840.594	2140
840.687	-241
840.780	930
840.873	-251
840.965	1012
841.058	2296
841.150	2349
841.243	719
841.336	1287
841.428	1348
841.521	854
841.613	966
841.706	-126
841.798	831
841.890	1320
841.983	483
842.075	1116
842.167	1508
842.260	931
842.352	2409
842.444	1481
842.537	1143
842.629	1606
842.721	1103
842.813	767
842.905	641
842.997	1409
843.090	930
843.182	992
843.274	451
843.366	1849
843.458	2235
843.550	1817
843.642	1427
843.734	1242
843.826	571
843.918	1190
844.009	1317
844.101	581
844.193	1686
844.285	1386
844.377	2025
844.469	1111
844.560	-174
844.652	619
844.744	1248
844.835	944
844.927	1465
845.019	1502
845.110	1123
845.202	1773
845.293	662
845.385	-153
845.476	493
845.568	1176
845.659	618
845.751	981
845.842	744
845.934	1129
846.025	483
846.116	746
846.208	1124
846.299	707
846.390	702
846.482	1139
846.573	106
846.664	346
846.755	1045
846.846	1334
846.937	-442
847.029	98
847.120	407
847.211	564
847.302	3024
847.393	538
847.484	1248
847.575	-230
847.666	403
847.757	368
847.847	1646
847.938	1985
848.029	132
848.120	892
848.211	863
848.302	576
848.392	178
848.483	1299
848.574	329
848.664	424
848.755	584
848.846	1392
848.936	854
849.027	233
849.118	1187
849.208	616
849.299	652
849.389	1943
849.480	4634
849.570	6862
849.661	14383
849.751	22858
849.841	9088
849.932	1888
850.022	400
850.112	1328
850.203	1154
850.293	390
850.383	578
850.474	-190
850.564	865
850.654	1348
850.744	765
850.834	771
850.924	1114
851.014	1419
851.104	1195
851.194	268
851.284	553
851.374	966
851.464	660
851.554	502
851.644	432
851.734	1466
851.824	458
851.914	765
852.004	1418
852.094	1216
852.183	854
852.273	922
852.363	848
852.452	518
852.542	983
852.632	1258
852.721	949
852.811	644
852.901	1200
852.990	1192
853.080	1020
853.169	812
853.259	512
853.348	325
853.438	1488
853.527	2697
853.617	2154
853.706	4946
853.795	7720
853.885	17793
853.974	31982
854.063	55906
854.152	81421
854.242	34542
854.331	9224
854.420	3758
854.509	2379
854.598	3378
854.687	2449
854.777	1149
854.866	702
854.955	1399
855.044	418
855.133	1548
855.222	514
855.311	911
855.400	94
855.488	759
855.577	229
855.666	660
855.755	1181
855.844	1299
855.933	542
856.021	756
856.110	682
856.199	-134
856.288	-122
856.376	367
856.465	29
856.554	716
856.642	593
856.731	698
856.819	996
856.908	734
856.996	1117
857.085	688
857.173	547
857.262	-299
857.350	130
857.438	-153
857.527	1156
857.615	916
857.703	1426
857.792	674
857.880	-308
857.968	1427
858.056	393
858.145	262
858.233	984
858.321	403
858.409	617
858.497	458
858.585	132
858.673	455
858.761	-206
858.849	983
858.937	89
859.025	186
859.113	1085
859.201	508
859.289	1192
859.377	1122
859.465	605
859.552	124
859.640	-425
859.728	404
859.816	334
859.903	489
859.991	-25
860.079	680
860.166	957
860.254	784
860.342	503
860.429	610
860.517	373
860.604	992
860.692	682
860.779	847
860.867	508
860.954	396
861.042	832
861.129	825
861.216	68
861.304	1153
861.391	915
861.478	570
861.565	931
861.653	831
861.740	-4
861.827	330
861.914	345
862.001	-438
862.089	66
862.176	889
862.263	-425
862.350	331
862.437	853
862.524	47
862.611	432
862.698	492
862.785	966
862.871	1514
862.958	1965
863.045	549
863.132	1068
863.219	1197
863.306	-500
863.392	-104
863.479	-222
863.566	462
863.652	856
863.739	501
863.826	1324
863.912	1258
863.999	138
864.086	694
864.172	713
864.259	1583
864.345	1756
864.432	1304
864.518	1317
864.604	781
864.691	675
864.777	690
864.863	2541
864.950	3559
865.036	3918
865.122	8524
865.209	9213
865.295	7242
865.381	7151
865.467	6576
865.553	6916
865.639	7351
865.726	9700
865.812	14134
865.898	21745
865.984	30202
866.070	51065
866.156	53991
866.242	19694
866.328	9667
866.414	6462
866.499	7289
866.585	6277
866.671	6601
866.757	6622
866.843	5948
866.928	5682
867.014	5735
867.100	5712
867.186	5720
867.271	5561
867.357	5179
867.442	5080
867.528	5926
867.614	4992
867.699	5088
867.785	4536
867.870	5110
867.956	5311
868.041	6232
868.127	5130
868.212	4996
868.297	5111
868.383	5135
868.468	4904
868.553	6121
868.639	5205
868.724	4389
868.809	5549
868.894	4509
868.979	4298
869.065	5506
869.150	4518
869.235	4645
869.320	4336
869.405	4183
869.490	5173
869.575	4746
869.660	4252
869.745	4750
869.830	5127
869.915	4210
870.000	3916
870.085	2855
870.169	5373
870.254	5577
870.339	3654
870.424	3706
870.509	4732
870.593	4723
870.678	4696
870.763	3824
870.847	3985
870.932	4519
871.016	4619
871.101	2265
871.186	3992
871.270	5885
871.355	3648
871.439	4426
871.523	4577
871.608	3499
871.692	3797
871.777	5472
871.861	4334
871.945	4180
872.030	4907
872.114	3591
872.198	3171
872.282	2955
872.367	3631
872.451	3517
872.535	3802
872.619	4014
872.703	3542
872.787	4075
872.871	3987
872.955	2684
873.039	2917
873.123	3110
873.207	4717
873.291	2312
873.375	3046
873.459	3425
873.543	2789
873.627	3217
873.711	2989
873.794	3991
873.878	2989
873.962	2269
874.045	2735
874.129	2216
874.137	2350
874.213	3693
874.245	3339
874.296	2767
874.352	2185
874.380	1898
874.460	3035
874.464	3082
874.547	2542
874.568	2805
874.631	3582
874.676	3436
874.714	3306
874.784	3830
874.798	3943
874.881	3771
874.892	3599
874.965	2360
874.999	2396
875.048	2451
875.107	2572
875.131	2625
875.215	2431
875.215	2430
875.298	1886
875.323	2096
875.381	2574
875.430	3075
875.465	3454
875.538	2632
875.548	2518
875.631	1758
875.646	1704
875.714	1406
875.753	1722
875.798	2117
875.861	2874
875.881	3090
875.964	2964
875.968	2869
876.047	1315
876.076	1683
876.130	2300
876.183	2495
876.213	2630
876.291	2894
876.296	2903
876.379	2070
876.398	2055
876.462	2028
876.506	1708
876.545	1455
876.613	1873
876.628	1955
876.711	1823
876.721	1937
876.794	2838
876.828	2525
876.877	2053
876.935	1576
876.960	1442
877.043	2083
877.043	2085
877.125	2068
877.150	2246
877.208	2733
877.258	2297
877.291	2005
877.365	1683
877.374	1649
877.456	1745
877.472	1744
877.539	1545
877.579	1688
877.622	1999
877.687	2298
877.704	2339
877.787	1741
877.794	1754
877.869	1965
877.901	1968
877.952	1919
878.008	1650
878.034	1555
878.115	1503
878.117	1501
878.199	1399
878.222	1696
878.282	2419
878.329	2551
878.364	2665
878.437	2639
878.447	2621
878.529	1605
878.544	1546
878.611	1217
878.651	1249
878.694	1360
878.758	2013
878.776	2227
878.858	1657
878.865	1651
878.941	1337
878.972	1113
879.023	782
879.078	1008
879.105	1144
879.185	1861
879.187	1872
879.269	1691
879.292	1623
879.351	1481
879.399	1092
879.433	888
879.506	1660
879.516	1729
879.598	1169
879.613	1114
879.680	908
879.720	970
879.762	1011
879.827	901
879.844	946
879.926	970
879.933	1052
880.007	1425
880.040	1310
880.089	1472
880.147	1886
880.171	1892
880.253	2056
880.254	2055
880.335	1581
880.360	1826
880.417	2477
880.467	2946
880.499	3251
880.574	4008
880.580	4023
880.662	2212
880.680	1930
880.744	1017
880.787	899
880.825	901
880.893	894
880.907	913
880.989	1238
881.000	1190
881.070	774
881.106	905
881.152	1100
881.213	923
881.233	803
881.315	856
881.319	851
881.396	945
881.426	1030
881.478	1277
881.532	1542
881.559	1604
881.639	998
881.641	983
881.722	1384
881.745	1327
881.803	1120
881.852	1070
881.885	1040
881.958	1000
881.966	1007
882.047	1022
882.064	1045
882.129	977
882.171	564
882.210	30
882.277	-84
882.291	11
882.372	814
882.383	859
882.454	1160
882.489	1137
882.535	879
882.596	1142
882.616	1273
882.697	1235
882.702	1216
882.778	868
882.808	953
882.859	820
882.914	443
882.940	437
883.020	325
883.021	325
883.102	1006
883.127	1267
883.183	1764
883.233	1487
883.264	1246
883.339	905
883.345	851
883.426	331
883.445	235
883.507	589
883.551	906
883.587	946
883.657	1248
883.668	1284
883.749	1210
883.763	1023
883.830	223
883.869	404
883.910	706
883.975	970
883.991	940
884.072	541
884.081	571
884.152	1418
884.187	1518
884.233	1277
884.292	1171
884.314	1074
884.394	110
884.398	72
884.475	425
884.504	772
884.555	930
884.610	864
884.636	746
884.716	730
884.716	731
884.797	1068
884.821	854
884.877	254
884.927	1
884.958	128
885.033	598
885.038	586
885.118	377
885.139	269
885.199	291
885.244	577
885.279	874
885.350	1351
885.359	1334
885.439	925
885.456	788
885.520	561
885.561	692
885.600	857
885.667	1267
885.680	1250
885.760	583
885.773	526
885.840	729
885.878	815
885.920	806
885.984	817
886.000	801
886.080	760
886.089	760
886.160	657
886.195	569
886.240	432
886.300	171
886.320	178
886.400	550
886.406	553
886.480	430
886.511	445
886.560	365
886.616	295
886.640	454
886.720	883
886.722	896
886.800	807
886.827	754
886.879	710
886.932	716
886.959	812
887.038	861
887.039	859
887.119	901
887.143	870
887.198	482
887.248	327
887.278	607
887.354	1003
887.358	1005
887.437	1123
887.459	1210
887.517	812
887.564	318
887.596	350
887.669	408
887.676	384
887.755	375
887.774	328
887.835	650
887.880	1000
887.914	1001
887.985	709
887.994	758
888.073	1465
888.090	1583
888.153	959
888.195	542
888.232	553
888.300	527
888.311	565
888.391	955
888.405	1031
888.470	486
888.510	47
888.549	141
888.615	499
888.628	511
888.708	522
888.720	518
888.787	505
888.825	517
888.866	763
888.930	1153
888.945	969
889.024	33
889.035	-95
889.103	343
889.140	573
889.182	403
889.245	260
889.261	297
889.340	390
889.349	408
889.419	278
889.454	218
889.498	303
889.559	450
889.577	593
889.656	1227
889.664	1295
889.735	878
889.768	684
889.814	507
889.873	278
889.978	821
890.083	995
890.187	1296
890.292	560
890.397	180
890.501	896
890.606	542
890.710	279
890.815	806
890.919	392
891.024	1465
891.128	822
891.233	388
891.337	125
891.442	533
891.546	163
891.650	806
891.755	828
891.859	1832
891.963	706
892.068	1380
892.172	469
892.276	-6
892.380	547
892.484	1529
892.589	562
892.693	1246
892.797	23
892.901	927
893.005	134
893.109	333
893.213	-25
893.317	475
893.421	1065
893.525	283
893.629	-297
893.733	778
893.837	372
893.941	300
894.045	216
894.148	-278
894.252	257
894.356	547
894.460	624
894.564	575
894.667	766
894.771	97
894.875	339
894.978	310
895.082	79
895.186	1032
895.289	857
895.393	943
895.496	1163
895.600	694
895.703	475
895.807	447
895.910	209
896.014	904
896.117	-36
896.221	440
896.324	837
896.427	-243
896.531	-76
896.634	396
896.737	659
896.840	237
896.944	484
897.047	586
897.150	363
897.253	-123
897.356	1303
897.460	-330
897.563	908
897.666	289
897.769	336
897.872	786
897.975	1263
898.078	1327
898.181	-50
898.284	562
898.387	314
898.490	1044
898.593	812
898.695	-778
898.798	-279
898.901	382
899.004	-33
899.107	158
899.209	419
899.312	696
899.415	697
899.518	38
899.620	676
899.723	792
899.826	654
899.928	953
900.031	129
900.133	427
900.236	997
900.338	22
900.441	663
900.543	418
900.646	510
900.748	-295
900.851	339
900.953	589
901.055	-448
901.158	67
901.260	102
901.362	-2
901.465	-132
901.567	1208
901.669	404
901.771	580
901.873	-139
901.976	18
902.078	785
902.180	202
902.282	-550
902.384	362
902.486	1209
902.588	626
902.690	75
902.792	-378
902.894	361
902.996	-51
903.098	308
903.200	-326
903.302	280
903.404	-47
903.505	780
903.607	937
903.709	632
903.811	-345
903.913	193
904.014	577
904.116	-22
904.218	239
904.319	844
904.421	742
904.523	587
904.624	240
904.726	1040
904.827	-63
904.929	-144
905.030	-550
905.132	1134
905.233	305
905.335	125
905.436	-66
905.537	-166
905.639	138
905.740	85
905.841	-236
905.943	-82
906.044	678
906.145	711
906.247	-146
906.348	280
906.449	-257
906.550	566
906.651	647
906.752	-491
906.854	-501
906.955	-517
907.056	147
907.157	339
907.258	639
907.359	44
907.460	530
907.561	752
907.662	-305
907.762	290
907.863	248
907.964	290
908.065	439
908.166	75
908.267	764
908.367	138
908.468	101
908.569	249
908.670	631
908.770	545
908.871	128
908.971	377
909.072	432
909.173	381
909.273	309
909.374	387
909.474	831
909.575	-240
909.675	-358
909.776	282
909.876	130
909.977	-137
910.077	547
910.177	370
910.278	-258
910.378	-176
910.478	935
910.579	-350
910.679	-105
910.779	-284
910.879	932
910.980	-39
911.080	124
911.180	-317
911.280	26
911.380	-226
911.480	471
911.580	-18
911.680	-147
911.780	1218
911.880	584
911.980	-204
912.080	27
912.180	752
912.280	24
912.380	-355
912.480	412
912.580	-146
912.679	-508
912.779	19
912.879	-126
912.979	-108
913.078	-73
913.178	521
913.278	23
913.377	56
913.477	-440
913.577	-449
913.676	565
913.776	1081
913.875	668
913.975	-48
914.074	-207
914.174	422
914.273	-410
914.373	205
914.472	865
914.572	-177
914.671	163
914.770	-815
914.870	456
914.969	-348
915.068	323
915.167	533
915.267	-15
915.366	-380
915.465	-80
915.564	-124
915.663	-310
915.763	211
915.862	-14
915.961	-34
916.060	828
916.159	248
916.258	11
916.357	-155
916.456	159
916.555	249
916.654	70
916.752	606
916.851	125
916.950	535
917.049	650
917.148	-14
917.247	147
917.345	634
917.444	168
917.543	-104
917.642	654
917.740	-740
917.839	265
917.937	82
918.036	787
918.135	343
918.233	52
918.332	363
918.430	658
918.529	-184
918.627	78
918.726	887
918.824	388
918.923	-446
919.021	-37
919.119	-86
919.218	-165
919.316	-86
919.414	957
919.512	637
919.611	431
919.709	18
919.807	1131
919.905	295
920.003	270
920.102	-69
920.200	522
920.298	563
920.396	295
920.494	1095
920.592	-412
920.690	817
920.788	-1058
920.886	-94
920.984	135
921.082	-253
921.180	497
921.277	109
921.375	1094
921.473	262
921.571	140
921.669	841
921.766	1274
921.864	1118
921.962	435
922.060	557
922.157	307
922.255	417
922.352	1074
922.450	2066
922.548	141
922.645	486
922.743	694
922.840	1457
922.938	1450
923.035	1191
923.133	1451
923.230	1866
923.327	2114
923.425	2297
923.522	1796
923.619	1330
923.717	1524
923.814	1518
923.911	1247
924.008	2667
924.106	1433
924.203	676
924.300	972
924.397	1151
924.494	1876
924.591	1026
924.688	1337
924.786	1825
924.883	1889
924.979	1409
925.077	1509
925.173	1614
925.270	1439
925.367	1751
925.464	1270
925.561	1919
925.658	1973
925.755	1963
925.852	2206
925.948	1333
926.045	1904
926.142	972
926.239	746
926.335	970
926.432	1112
926.529	1205
926.625	1771
926.722	1273
926.818	737
926.915	1346
927.011	1426
927.108	1083
927.204	1773
927.301	1434
927.397	1639
927.494	1851
927.590	809
927.687	1415
927.783	1329
927.879	1470
927.976	814
928.072	1021
928.168	1604
928.264	1623
928.361	804
928.457	1071
928.553	1051
928.649	1034
928.745	964
928.841	1504
928.937	743
929.033	1250
929.129	704
929.225	855
929.321	1124
929.417	899
929.513	1385
929.609	1083
929.705	-58
929.801	815
929.897	903
929.993	1222
930.089	934
930.184	959
930.280	987
930.376	2130
930.471	526
930.567	1010
930.663	1179
930.758	139
930.854	316
930.950	630
931.045	404
931.141	987
931.236	2231
931.332	751
931.427	619
931.523	1144
931.618	1027
931.714	212
931.809	1134
931.905	1267
932.000	265
932.095	347
932.191	656
932.286	1489
932.381	1172
932.476	-143
932.572	1624
932.667	1218
932.762	614
932.857	272
932.952	1525
933.047	930
933.142	736
933.237	500
933.332	1266
933.427	1102
933.522	1035
933.617	698
933.712	1355
933.807	732
933.902	737
933.997	1005
934.092	510
934.187	954
934.282	1200
934.376	1043
934.471	890
934.566	692
934.661	712
934.755	1589
934.850	838
934.945	1589
935.039	1034
935.134	-1
935.228	375
935.323	1482
935.417	719
935.512	457
935.606	232
935.701	25
935.795	324
935.890	208
935.984	204
936.079	-571
936.173	981
936.267	866
936.362	92
936.456	886
936.550	289
936.644	571
936.738	632
936.833	114
936.927	185
937.021	430
937.115	-772
937.209	-576
937.303	865
937.397	867
937.491	861
937.585	465
937.679	743
937.773	93
937.867	600
937.961	811
938.055	844
938.149	1002
938.243	-870
938.337	-45
938.430	50
938.524	114
938.618	548
938.712	176
938.805	129
938.899	-174
938.993	893
939.086	357
939.180	159
939.274	512
939.367	454
939.461	462
939.554	-148
939.648	227
939.741	561
939.835	377
939.928	678
940.022	239
940.115	-140
940.208	659
940.302	720
940.395	488
940.488	-235
940.582	-145
940.675	-482
940.768	397
940.861	220
940.954	-141
941.048	-804
941.141	171
941.234	-500
941.327	-182
941.420	296
941.513	448
941.606	-341
941.699	490
941.792	-402
941.885	-68
941.978	-22
942.071	575
942.164	-1198
942.257	92
942.349	744
942.442	-335
942.535	-243
942.628	494
942.721	567
942.813	-263
942.906	626
942.999	176
943.091	-440
943.184	-250
943.277	14
943.369	929
943.462	32
943.554	599
943.647	-1156
943.739	533
943.832	17
943.924	-1430
944.017	237
944.109	260
944.201	-113
944.294	-389
944.386	-102
944.478	-476
944.571	192
944.663	193
944.755	673
944.847	117
944.940	213
945.032	48
945.124	534
945.216	383
945.308	251
945.400	722
945.492	435
945.584	24
945.676	794
945.768	606
945.860	-165
945.952	-23
946.044	739
946.136	-308
946.228	-276
946.320	-557
946.412	25
946.503	-870
946.595	1294
946.687	-202
946.779	-212
946.870	-282
946.962	515
947.054	-164
947.145	964
947.237	963
947.329	558
947.420	-251
947.512	-269
947.603	-160
947.695	347
947.786	-296
947.878	-56
947.969	198
948.061	-392
948.152	-52
948.243	-300
948.335	183
948.426	-86
948.517	-97
948.609	568
948.700	-224
948.791	-735
948.882	-567
948.973	-768
949.065	-361
949.156	691
949.247	-623
949.338	411
949.429	-794
949.520	-423
949.611	-1227
949.702	-403
949.793	-296
949.884	-481
949.975	-116
950.066	-979
950.157	-21
950.247	-207
950.338	-520
950.429	-683
950.520	-1142
950.611	-550
950.701	67
950.792	-177
950.883	18
950.973	131
951.064	295
951.155	-101
951.245	-48
951.336	-95
951.427	-844
951.517	783
951.608	-295
951.698	-276
951.788	-276
951.879	-347
951.969	-1108
952.060	-716
952.150	-235
952.240	-590
952.331	-1702
952.421	1211
952.511	-110
952.602	-517
952.692	-243
952.782	-460
952.872	-863
952.962	-265
953.052	-411
953.143	-1070
953.233	132
953.323	499
953.413	-584
953.503	-652
953.593	83
953.683	-585
953.773	-1344
953.863	-121
953.953	-1111
954.042	-829
954.132	-1117
954.222	39
954.312	-655
954.402	-651
954.492	151
954.581	-94
954.671	-637
954.761	-1035
954.850	-99
954.940	429
955.030	-96
955.119	-702
955.209	-518
955.298	-783
955.388	-1165
955.477	693
955.567	-847
955.656	306
955.746	-745
955.835	-531
955.925	-847
956.014	-502
956.103	-651
956.193	61
956.282	-29
956.371	457
956.461	-293
956.550	128
956.639	403
956.728	-295
956.817	-752
956.906	-953
956.995	408
957.085	-574
957.174	-490
957.263	74
957.352	6
957.441	-732
957.530	-599
957.619	-406
957.708	-59
957.796	-143
957.885	-744
957.974	-96
958.063	77
958.152	-913
958.241	-602
958.329	-129
958.418	-649
958.507	-460
958.596	269
958.684	-831
958.773	325
958.861	409
958.950	-50
959.039	465
959.127	-528
959.216	35
959.304	-109
959.393	-223
959.481	-1048
959.570	425
959.658	-1654
959.746	371
959.835	61
959.923	-944
960.011	-853
960.100	-350
960.188	-525
960.276	-435
960.365	-769
960.453	-567
960.541	-1079
960.629	387
960.717	-708
960.805	-881
960.893	-100
960.981	-1157
961.069	-102
961.158	-234
961.245	339
961.333	-724
961.421	-1034
961.509	-413
961.597	306
961.685	2
961.773	-621
961.861	-489
961.949	-869
962.036	-710
962.124	-218
962.212	107
962.299	-962
962.387	-759
962.475	-451
962.562	-561
962.650	16
962.738	-595
962.825	-1282
962.913	228
963.000	-722
963.088	695
963.175	-637
963.263	483
963.350	-1707
963.438	-231
963.525	-689
963.612	-759
963.700	-851
963.787	870
963.874	12
963.962	498
964.049	40
964.136	-941
964.223	-39
964.310	-472
964.398	-953
964.485	-978
964.572	-750
964.659	-975
964.746	-308
964.833	-495
964.920	-394
965.007	-740
965.094	-818
965.181	-1278
965.268	-1107
965.355	-1099
965.441	75
965.528	-701
965.615	-349
965.702	-744
965.789	-744
965.875	-924
965.962	-673
966.049	-1374
966.136	-644
966.222	-1189
966.309	-297
966.395	-914
966.482	131
966.569	-269
966.655	-421
966.742	-494
966.828	-418
966.915	-469
967.001	-1420
967.087	-1423
967.174	-300
967.260	-410
967.347	-758
967.433	-969
967.519	-273
967.605	-1050
967.692	-1008
967.778	-304
967.864	182
967.950	-927
968.036	-1177
968.123	-273
968.209	-1212
968.295	-1167
968.381	277
968.467	-237
968.553	-1462
968.639	-212
968.725	-1230
968.811	267
968.897	-727
968.983	-1616
969.069	-680
969.154	-353
969.240	-252
969.326	-1788
969.412	-1370
969.497	-555
969.583	-878
969.669	-868
969.755	-329
969.840	-1218
969.926	-478
970.012	-268
970.097	904
970.183	-707
970.268	-519
970.354	-456
970.439	-1414
970.525	288
970.610	-1450
970.696	-96
970.781	-688
970.866	-1827
970.952	4
971.037	-837
971.122	-765
971.208	-775
971.293	-416
971.378	-1752
971.463	-317
971.549	-599
971.634	-777
971.719	-553
971.804	-425
971.889	-418
971.974	-1429
972.059	-1506
972.144	-770
972.229	-209
972.314	-1406
972.399	-970
972.484	-227
972.569	-607
972.654	-1409
972.739	656
972.824	-1003
972.908	-446
972.993	-1735
973.078	-556
973.163	-818
973.247	-632
973.332	-1677
973.417	-156
973.501	-1260
973.586	-553
973.671	-641
973.755	-1056
973.840	-353
973.924	-392
974.009	-179
974.093	-1623
974.178	507
974.262	-523
974.346	-1031
974.431	-906
974.515	-1128
974.600	-786
974.684	-989
974.768	-914
974.852	362
974.937	-1448
975.021	-163
975.105	-792
975.189	-1048
975.273	-853
975.358	-1689
975.442	-1463
975.526	-286
975.610	-937
975.694	-1343
975.778	230
975.862	-1138
975.946	-2253
976.030	458
976.114	-281
976.198	-531
976.281	-766
976.365	-772
976.449	-992
976.533	-1150
976.617	-1855
976.700	-1057
976.784	-770
976.868	-206
976.951	-769
977.035	-977
977.119	-375
977.202	-1320
977.286	-162
977.369	-362
977.453	-427
977.536	-713
977.620	-1123
977.703	-72
977.787	-995
977.870	-711
977.953	-162
978.037	-2245
978.120	-251
978.203	-1584
978.287	-1466
978.370	-981
978.453	-758
978.536	-1278
978.620	-15
978.703	-360
978.786	-783
978.869	-1646
978.952	-1702
979.035	896
979.118	-730
979.201	-1394
979.284	-220
979.367	-1286
979.450	-1012
979.533	-1836
979.616	-777
979.699	-1383
979.782	-1175
979.865	-1129
979.948	-787
980.030	-459
980.113	-1052
980.196	-2557
980.279	-703
980.361	-1277
980.444	-1331
980.526	-767
980.609	-860
980.692	-790
980.774	-435
980.857	-2020
980.939	-675
981.022	-1321
981.104	-1101
981.187	-1363
981.269	-539
981.352	-583
981.434	-2352
981.516	-1202
981.599	176
981.681	-873
981.763	-1097
981.846	-567
981.928	-1332
982.010	-1493
982.092	-1093
982.174	-720
982.256	-945
982.339	-523
982.421	-1230
982.503	-634
982.585	-1513
982.667	-817
982.749	-874
982.831	-785
982.913	-2294
982.995	-1181
983.077	-1827
983.158	-711
983.240	-2048
983.322	-806
983.404	108
983.486	-1320
983.568	-1134
983.649	-768
983.731	-436
983.813	-889
983.894	-569
983.976	-1523
984.058	-513
984.139	-1029
984.221	-2105
984.302	-50
984.384	-1403
984.465	-1118
984.547	-919
984.628	-1711
984.710	-202
984.791	-1396
984.872	-901
984.954	-944
985.035	-616
985.116	-1522
985.198	-1782
985.279	-217
985.360	-1533
985.441	-1109
985.522	-889
985.604	-736
985.685	-2454
985.766	-246
985.847	23
985.928	-1891
986.009	-1965
986.090	-1038
986.171	-1013
986.252	-1376
986.333	-746
986.414	-1453
986.495	-1027
986.576	-1318
986.656	-381
986.737	-1277
986.818	-1167
986.899	-1088
986.980	-1065
987.060	-836
987.141	-1408
987.222	-1078
987.302	-587
987.383	-902
987.464	-1146
987.544	-406
987.625	-1244
987.705	-1030
987.786	-1000
987.866	-1374
987.947	-1443
988.027	-594
988.108	-1061
988.188	-883
988.268	-1212
988.349	-513
988.429	-995
988.509	-437
988.589	-1290
988.670	-2096
988.750	443
988.830	-1616
988.910	-717
988.990	-1292
989.070	-772
989.151	-1381
989.231	-2003
989.311	-1288
989.391	-1175
989.471	-611
989.551	-1687
989.631	-1367
989.711	-94
989.791	-1951
989.870	-1460
989.950	-981
990.030	-755
990.110	-977
990.190	-1609
990.269	-1776
990.349	-1694
990.429	-1098
990.509	-925
990.588	-1339
990.668	-450
990.747	-484
990.827	-1899
990.907	-741
990.986	-884
991.066	-969
991.145	-1917
991.225	-1291
991.304	-1774
991.383	-1139
991.463	-1768
991.542	-103
991.622	-1288
991.701	-962
991.780	-1627
991.859	-1408
991.939	-1183
992.018	-728
992.097	-1502
992.176	-272
992.256	-1280
992.335	-1618
992.414	-831
992.493	-1540
992.572	-1681
992.651	-522
992.730	-1941
992.809	-1133
992.888	-1477
992.967	-978
993.046	-964
993.125	-1999
993.203	-1450
993.282	-532
993.361	-1048
993.440	-1327
993.519	-1809
993.597	-839
993.676	-1252
993.755	-718
993.834	-1839
993.912	-2744
993.991	-225
994.069	-1569
994.148	-1972
994.226	-1935
994.305	-1376
994.384	-1348
994.462	-658
994.540	-1283
994.619	-1776
994.697	-858
994.776	-1506
994.854	-527
994.932	-1507
995.011	-1727
995.089	-2074
995.167	-652
995.245	-1660
995.324	-2100
995.402	-1488
995.480	-1688
995.558	-1665
995.636	-2071
995.714	-1300
995.792	-437
995.870	-1389
995.948	-1279
996.026	-1428
996.104	-2551
996.182	-290
996.260	-1508
996.338	-965
996.416	-1553
996.494	-1280
996.572	-850
996.649	-2200
996.727	-1368
996.805	-904
996.883	-1306
996.960	-1182
997.038	-1177
997.116	-1161
997.193	-2137
997.271	-888
997.348	-2426
997.426	-1445
997.504	-2229
997.581	-1015
997.658	-326
997.736	-2902
997.813	-2129
997.891	-500
997.968	-1825
998.046	-633
998.123	-1590
998.200	-1647
998.277	-2124
998.355	-1358
998.432	-2355
998.509	-1525
998.586	-679
998.663	-1571
998.741	-2158
998.818	-1676
998.895	-1922
998.972	-644
999.049	-1238
999.126	-1663
999.203	-924
999.280	-1322
999.357	-1986
999.434	-1884
999.511	-1109
999.587	-1343
999.664	-2240
999.741	-1453
999.818	-731
999.895	-2409
999.971	-1380
1000.048	-1627
1000.125	-1007
1000.202	-1806
1000.278	-1278
1000.355	-1751
1000.431	-920
1000.508	-1444
1000.584	-1656
1000.661	-1133
1000.738	-2485
1000.814	-1248
1000.890	-425
1000.967	-1227
1001.043	-1054
1001.120	-2357
1001.196	-2024
1001.272	-2154
1001.349	-2017
1001.425	-915
1001.501	-1357
1001.577	-1772
1001.654	-2086
1001.730	-1985
1001.806	-1419
1001.882	-2287
1001.958	-1454
1002.034	-1347
1002.110	-1821
1002.186	-1695
1002.262	-2102
1002.338	-1646
1002.414	-998
1002.490	-1613
1002.566	-1899
1002.642	-2281
1002.718	-1325
1002.794	-1289
1002.870	-2212
1002.945	-1099
1003.021	-1783
1003.097	-2244
1003.173	-824
1003.248	-1820
1003.324	-2460
1003.400	-1165
1003.475	-1414
1003.551	-1692
1003.626	-1512
1003.702	-1825
1003.777	-1455
1003.853	-1870
1003.928	-2172
1004.004	-1800
1004.079	-1260
1004.155	-1322
1004.230	-2554
1004.305	-664
1004.381	-1927
1004.456	-1355
1004.531	-1954
1004.607	-1361
1004.682	-2119
1004.757	-1377
1004.832	-2300
1004.907	-2360
1004.982	-1231
1005.057	-386
1005.133	-1951
1005.208	-1753
1005.283	-2232
1005.358	-440
1005.433	-1168
1005.508	-827
1005.583	-2274
1005.657	-1852
1005.732	-1185
1005.807	-1925
1005.882	-1877
1005.957	-2303
1006.032	-1756
1006.106	-2132
1006.181	-1777
1006.256	-1919
1006.331	-2275
1006.405	-1774
1006.480	-1638
1006.554	-1536
1006.629	-1505
1006.704	-1445
1006.778	-2330
1006.853	-1513
1006.927	-1745
1007.002	-2124
1007.076	-2500
1007.150	-2116
1007.225	-1631
1007.299	-1941
1007.373	-2807
1007.448	-1514
1007.522	-1808
1007.596	-1519
1007.671	-1876
1007.745	-1672
1007.819	-2167
1007.893	-1392
1007.967	-1660
1008.041	-2004
1008.115	-1364
1008.190	-2272
1008.264	-1002
1008.338	-2446
1008.412	-2605
1008.486	-1727
1008.560	-849
1008.633	-2579
1008.707	-1666
1008.781	-1634
1008.855	-964
1008.929	-1340
1009.003	-2558
1009.076	-906
1009.150	-1202
1009.224	-1725
1009.298	-1295
1009.371	-2193
1009.445	-927
1009.519	-2109
1009.592	-1779
1009.666	-2260
1009.739	-1711
1009.813	-2773
1009.886	-535
1009.960	-2107
1010.033	-2154
1010.107	-1352
1010.180	-3190
1010.253	-2075
1010.327	-2100
1010.400	-1674
1010.473	-922
1010.547	-1251
1010.620	-2023
1010.693	-1111
1010.766	-1855
1010.840	-1626
1010.913	-2004
1010.986	-2462
1011.059	-1955
1011.132	-2151
1011.205	-1467
1011.278	-1562
1011.351	-1445
1011.424	-1739
1011.497	-1762
1011.570	-1259
1011.643	-2934
1011.716	-1108
1011.789	-1906
1011.862	-1244
1011.934	-869
1012.007	-3337
1012.080	-1430
1012.153	-1578
1012.225	-1102
1012.298	-982
1012.371	-1619
1012.443	-1222
1012.516	-2520
1012.588	-1328
1012.661	-1142
1012.733	-1678
1012.806	-788
1012.879	-2192
1012.951	-2051
1013.023	-1905
1013.096	-1123
1013.168	-1907
1013.241	-1436
1013.313	-1785
1013.385	-2424
1013.458	-2169
1013.530	-1806
1013.602	-2304
1013.674	-1149
1013.746	-2482
1013.819	-2298
1013.891	-1457
1013.963	-2322
1014.035	-1813
1014.107	-2887
1014.179	-1400
1014.251	-2331
1014.323	-2153
1014.395	-1923
1014.467	-1601
1014.539	-1764
1014.611	-2290
1014.683	-2206
1014.754	-1975
1014.826	-2622
1014.898	-693
1014.970	-2828
1015.042	-1156
1015.113	-1862
1015.185	-2269
1015.257	-2255
1015.328	-1371
1015.400	-2065
1015.471	-1785
1015.543	-2267
1015.615	-1998
1015.686	-1619
1015.757	-2011
1015.829	-1187
1015.901	-1575
1015.972	-1392
1016.043	-2497
1016.115	-1182
1016.186	-2236
1016.257	-1986
1016.328	-1130
1016.400	-989
1016.471	-2678
1016.542	-1820
1016.613	-2045
1016.685	-2094
1016.756	-1776
1016.827	-2390
1016.898	-2024
1016.969	-1107
1017.040	-2307
1017.111	-1991
1017.182	-2372
1017.253	-2245
1017.324	-2077
1017.395	-2014
1017.466	-881
1017.537	-2382
1017.608	-2421
1017.678	-1920
1017.749	-2079
1017.820	-1708
1017.891	-1973
1017.961	-2176
1018.032	-1583
1018.103	-1817
1018.173	-2097
1018.244	-1727
1018.315	-1361
1018.385	-2260
1018.456	-1859
1018.526	-2034
1018.597	-1992
1018.667	-1782
1018.738	-2536
1018.808	-2393
1018.878	-2051
1018.949	-1523
1019.019	-2221
1019.089	-2336
1019.160	-2060
1019.230	-2696
1019.300	-1428
1019.371	-2828
1019.441	-2196
1019.511	-1494
1019.581	-2134
1019.651	-1989
1019.721	-1434
1019.791	-1923
1019.861	-2221
1019.931	-1798
1020.001	-2817
1020.071	-1988
1020.141	-1691
1020.211	-2262
1020.281	-1963
1020.351	-2840
1020.421	-1732
1020.491	-1390
1020.560	-2389
1020.630	-1350
1020.700	-2076
1020.770	-2214
1020.839	-2595
1020.909	-2323
1020.979	-2443
1021.048	-1625
1021.118	-2241
1021.187	-2294
1021.257	-1785
1021.326	-1996
1021.396	-2563
1021.465	-2135
1021.535	-2339
1021.604	-2148
1021.674	-1476
1021.743	-1798
1021.812	-1400
1021.882	-1902
1021.951	-2129
1022.020	-2614
1022.089	-1600
1022.159	-1655
1022.228	-1201
1022.297	-2492
1022.366	-2116
1022.435	-1328
1022.504	-1796
1022.573	-2801
1022.642	-1729
1022.711	-2108
1022.781	-1629
1022.849	-1846
1022.918	-2194
1022.987	-1893
1023.056	-2414
1023.125	-1826
1023.194	-2004
1023.263	-1790
1023.331	-1527
1023.400	-1545
1023.469	-2122
1023.538	-1419
1023.606	-2449
1023.675	-2061
1023.744	-2102
1023.812	-1987
1023.881	-1860
1023.949	-1778
1024.018	-1465
1024.086	-2244
1024.155	-2004
1024.223	-2317
1024.292	-1547
1024.360	-2018
1024.429	-1809
1024.497	-2205
1024.565	-1545
1024.634	-2457
1024.702	-1428
1024.770	-1703
1024.838	-2086
1024.907	-1348
1024.975	-2787
1025.043	-2473
1025.111	-1957
1025.179	-1736
1025.247	-2074
1025.315	-2247
1025.383	-1968
1025.451	-1695
1025.519	-1923
1025.587	-1817
1025.655	-1485
1025.723	-2705
1025.791	-2704
1025.859	-1839
1025.927	-1751
1025.995	-2537
1026.062	-2084
1026.130	-1601
1026.198	-2374
1026.266	-2093
1026.333	-1780
1026.401	-2211
1026.469	-1853
1026.536	-2992
1026.604	-2376
1026.671	-2818
1026.739	-1696
1026.806	-1835
1026.874	-1947
1026.941	-1662
1027.009	-1569
1027.076	-2186
1027.144	-1393
1027.211	-2077
1027.278	-1636
1027.345	-1435
1027.413	-1715
1027.480	-1962
1027.547	-1650
1027.614	-1551
1027.682	-1098
1027.749	-2086
1027.816	-2132
1027.883	-2180
1027.950	-1585
1028.017	-2247
1028.084	-1470
1028.151	-1962
1028.218	-2315
1028.285	-2346
1028.352	-2054
1028.419	-1991
1028.486	-2359
1028.553	-1368
1028.619	-2466
1028.686	-2717
1028.753	-2325
1028.820	-1831
1028.886	-2023
1028.953	-2199
1029.020	-1398
1029.086	-2197
1029.153	-2023
1029.220	-1303
1029.286	-2186
1029.353	-2183
1029.419	-2472
1029.486	-1970
1029.552	-1351
1029.619	-2272
1029.685	-1187
1029.751	-2009
1029.818	-1239
1029.884	-1681
1029.951	-1568
1030.017	-2447
1030.083	-1730
1030.149	-1893
1030.216	-1908
1030.282	-2118
1030.348	-2709
1030.414	-2493
1030.480	-1992
1030.546	-1259
1030.612	-1695
1030.678	-2068
1030.744	-2278
1030.810	-1991
1030.876	-1662
1030.942	-2055
1031.008	-2101
1031.074	-1225
1031.140	-1776
1031.206	-1809
1031.272	-2722
1031.337	-2367
1031.403	-1950
1031.469	-2899
1031.534	-2368
1031.600	-1568
1031.666	-1714
1031.731	-2225
1031.797	-2483
1031.863	-2000
1031.928	-2259
1031.994	-2203
1032.059	-2113
1032.125	-2143
1032.190	-2086
1032.256	-2041
1032.321	-1809
1032.386	-3122
1032.452	-1279
1032.517	-1970
1032.582	-2304
1032.647	-2303
1032.713	-1622
1032.778	-1976
1032.843	-1814
1032.908	-2724
1032.974	-1760
1033.039	-2097
1033.104	-1754
1033.169	-2630
1033.234	-2546
1033.299	-1783
1033.364	-1617
1033.429	-2145
1033.494	-1800
1033.559	-2211
1033.624	-2058
1033.688	-1969
1033.753	-1881
1033.818	-2259
1033.883	-1987
1033.948	-1824
1034.013	-1703
1034.077	-2321
1034.142	-1809
1034.207	-1793
1034.271	-1536
1034.336	-1553
1034.400	-1895
1034.465	-1822
1034.530	-1571
1034.594	-1641
1034.658	-1864
1034.723	-2468
1034.787	-1738
1034.852	-2154
1034.916	-2564
1034.981	-1821
1035.045	-1716
1035.109	-1814
1035.173	-2229
1035.238	-1964
1035.302	-1681
1035.366	-2656
1035.430	-2255
1035.495	-3329
1035.559	-2016
1035.623	-2013
1035.687	-2392
1035.751	-1603
1035.815	-2101
1035.879	-1987
1035.943	-2269
1036.007	-2193
1036.071	-1967
1036.135	-1810
1036.198	-1848
1036.262	-2285
1036.326	-1785
1036.390	-1798
1036.454	-3067
1036.517	-2357
1036.581	-1845
1036.645	-2399
1036.709	-2232
1036.772	-2114
1036.836	-1658
1036.900	-1613
1036.963	-1351
1037.026	-1889
1037.090	-2378
1037.154	-1690
1037.217	-2271
1037.280	-2848
1037.344	-2167
1037.407	-2627
1037.471	-2225
1037.534	-3114
1037.597	-2038
1037.661	-2421
1037.724	-2208
1037.787	-2481
1037.850	-2061
1037.913	-1421
1037.977	-1554
1038.040	-2623
1038.103	-2014
1038.166	-2168
1038.229	-2524
1038.292	-1598
1038.355	-1654
1038.418	-1326
1038.481	-1946
1038.544	-3082
1038.607	-2703
1038.670	-2003
1038.732	-2628
1038.795	-1819
1038.858	-2038
1038.921	-1910
1038.984	-2568
1039.046	-1425
1039.109	-2809
1039.172	-2744
1039.234	-2697
1039.297	-1796
1039.360	-1746
1039.422	-1341
1039.485	-1756
1039.547	-3153
1039.610	-2496
1039.672	-1609
1039.734	-2147
1039.797	-2199
1039.859	-2231
1039.922	-2145
1039.984	-2640
1040.046	-2660
1040.109	-2479
1040.171	-2271
1040.233	-2014
1040.295	-2649
1040.358	-2418
1040.420	-2084
1040.482	-2338
1040.544	-2267
1040.606	-1649
1040.668	-2556
1040.730	-2331
1040.792	-2459
1040.854	-2131
1040.916	-2840
1040.978	-2458
1041.040	-2346
1041.102	-1975
1041.164	-2264
1041.225	-2529
1041.287	-2697
1041.349	-2072
1041.411	-2428
1041.472	-2217
1041.534	-2930
1041.596	-2635
1041.657	-1861
1041.719	-2186
1041.781	-2661
1041.842	-2704
1041.904	-2320
1041.965	-2574
1042.027	-2259
1042.088	-1817
1042.150	-2923
1042.211	-2000
1042.272	-1604
1042.334	-2072
1042.395	-2070
1042.456	-2580
1042.518	-1963
1042.579	-1936
1042.640	-2631
1042.701	-1791
1042.763	-2064
1042.824	-2133
1042.885	-2943
1042.946	-2354
1043.007	-1997
1043.068	-1937
1043.129	-2341
1043.190	-2422
1043.251	-1931
1043.312	-1200
1043.373	-2380
1043.434	-2584
1043.495	-1496
1043.556	-1856
1043.616	-1578
1043.677	-2818
1043.738	-1681
1043.799	-2849
1043.859	-1824
1043.920	-1769
1043.981	-1792
1044.041	-1829
1044.102	-1983
1044.162	-2417
1044.223	-2525
1044.284	-1745
1044.344	-1671
1044.405	-1975
1044.465	-2280
1044.525	-1824
1044.586	-2163
1044.646	-2250
1044.707	-1637
1044.767	-2250
1044.827	-2185
1044.887	-2661
1044.948	-1997
1045.008	-2467
1045.068	-2012
1045.128	-698
1045.188	-1885
1045.249	-1949
1045.309	-1834
1045.369	-2034
1045.429	-2805
1045.489	-2928
1045.549	-2005
1045.609	-2601
1045.669	-1849
1045.729	-2099
1045.789	-2002
1045.848	-1848
1045.908	-2117
1045.968	-1577
1046.028	-2000
1046.088	-2404
1046.147	-1818
1046.207	-2023
1046.267	-1538
1046.326	-1583
1046.386	-2068
1046.446	-1166
1046.505	-1483
1046.565	-482
1046.624	-1175
1046.684	-1236
1046.743	-1217
1046.803	-413
1046.862	-162
1046.922	0
