'Start Wavelength	183.907
'End Wavelength	1046.922
'Gate Delay	5.000
'Gate Width (ms)	1.050
'Laser Output Level	0.000
'X Position	0.000
'Y Position	0.000
'Z Position	0.000
'Grid Point Number	1.000
'Shot Number	100.000
183.907	435.000
183.977	-286.000
184.047	-450
184.116	-115
184.186	230
184.256	258
184.325	-34
184.395	-968
184.465	932
184.534	-440
184.604	-340
184.674	319
184.743	435
184.813	-229
184.883	-87
184.952	-261
185.022	187
185.092	-187
185.161	701
185.231	1
185.301	120
185.370	-168
185.440	-135
185.509	-117
185.579	341
185.649	344
185.718	-20
185.788	-232
185.857	-139
185.927	-182
185.996	256
186.066	-870
186.136	-122
186.205	-425
186.275	-155
186.344	61
186.414	-652
186.483	-612
186.553	472
186.622	424
186.692	670
186.761	-628
186.831	55
186.900	-1263
186.970	798
187.039	-205
187.109	693
187.178	-85
187.248	215
187.317	-5
187.387	-629
187.456	-56
187.526	258
187.595	-787
187.664	370
187.734	-615
187.803	419
187.873	-793
187.942	185
188.012	-17
188.081	141
188.150	-574
188.220	374
188.289	706
188.358	-119
188.428	275
188.497	-416
188.567	14
188.636	-682
188.705	-289
188.775	-314
188.844	-116
188.913	404
188.983	247
189.052	-417
189.121	-72
189.191	-136
189.260	-721
189.329	572
189.399	-759
189.468	404
189.537	2
189.606	124
189.676	-485
189.745	101
189.814	-395
189.883	-95
189.953	335
190.022	-56
190.091	-809
190.161	-385
190.230	103
190.299	168
190.368	-278
190.437	-871
190.507	-299
190.576	-69
190.645	54
190.714	13
190.783	-866
190.853	968
190.922	359
190.991	123
191.060	-296
191.129	-399
191.198	289
191.268	-163
191.337	-451
191.406	-4
191.475	-334
191.544	453
191.613	-644
191.682	-306
191.752	-615
191.821	165
191.890	-687
191.959	764
192.028	-271
192.097	-455
192.166	-49
192.235	-800
192.304	-59
192.373	102
192.442	90
192.511	-47
192.580	-588
192.650	-190
192.719	-254
192.788	-145
192.857	-122
192.926	-703
192.995	-591
193.064	-434
193.133	-736
193.202	-398
193.271	-530
193.340	161
193.409	335
193.478	1047
193.547	-570
193.615	374
193.684	-35
193.753	-581
193.822	-278
193.891	63
193.960	22
194.029	-194
194.098	200
194.167	204
194.236	-503
194.305	-171
194.374	-268
194.443	295
194.512	-1464
194.580	570
194.649	445
194.718	51
194.787	-466
194.856	-447
194.925	369
194.994	-403
195.062	-231
195.131	153
195.200	-554
195.269	221
195.338	-192
195.407	442
195.475	-901
195.544	606
195.613	-727
195.682	-440
195.751	-917
195.819	-689
195.888	170
195.957	946
196.026	-375
196.094	348
196.163	-654
196.232	-109
196.301	-304
196.369	248
196.438	94
196.507	555
196.576	-618
196.644	180
196.713	-877
196.782	-266
196.850	-407
196.919	370
196.988	-604
197.056	130
197.125	353
197.194	-81
197.262	-1143
197.331	-164
197.400	-800
197.468	-711
197.537	-1702
197.606	390
197.674	244
197.743	592
197.812	-206
197.880	34
197.949	-793
198.017	-153
198.086	-342
198.155	172
198.223	-180
198.292	-58
198.360	-797
198.429	-671
198.497	-584
198.566	-705
198.635	93
198.703	905
198.772	-355
198.840	-317
198.909	211
198.977	514
199.046	-858
199.114	-166
199.183	-921
199.251	-534
199.320	-960
199.388	-278
199.457	-1041
199.525	737
199.594	-744
199.662	-341
199.731	-589
199.799	462
199.867	-525
199.936	-419
200.004	48
200.073	-146
200.141	-836
200.210	-217
200.278	-638
200.346	-172
200.415	-758
200.483	-279
200.552	-95
200.620	-713
200.688	-121
200.757	332
200.825	-466
200.893	-913
200.962	-697
201.030	-55
201.098	-432
201.167	-260
201.235	-664
201.303	32
201.372	-292
201.440	400
201.508	-374
201.577	137
201.645	-587
201.713	-507
201.781	-434
201.850	544
201.918	-129
201.986	275
202.055	247
202.123	-245
202.191	184
202.259	-75
202.327	-187
202.396	-478
202.464	-611
202.532	-827
202.600	-133
202.669	-333
202.737	-89
202.805	-470
202.873	-48
202.941	-316
203.009	-638
203.078	-347
203.146	253
203.214	-439
203.282	-1143
203.350	627
203.418	-566
203.487	-461
203.555	-703
203.623	-22
203.691	-419
203.759	190
203.827	-652
203.895	90
203.963	-1018
204.031	-278
204.099	-29
204.168	-348
204.236	-322
204.304	-199
204.372	-423
204.440	-763
204.508	-670
204.576	-365
204.644	-327
204.712	-235
204.780	-860
204.848	-40
204.916	-573
204.984	360
205.052	-410
205.120	-32
205.188	-1050
205.256	-275
205.324	-264
205.392	-15
205.460	-602
205.528	-614
205.596	-227
205.664	-616
205.732	-1718
205.799	-56
205.867	-63
205.935	-643
206.003	9
206.071	-618
206.139	-1360
206.207	-923
206.275	-645
206.343	267
206.411	-1052
206.478	140
206.546	454
206.614	-507
206.682	-786
206.750	335
206.818	-1504
206.885	-157
206.953	-745
207.021	980
207.089	102
207.157	-418
207.225	212
207.292	-415
207.360	-909
207.428	-589
207.496	-1007
207.563	-381
207.631	-821
207.699	-1110
207.767	-1125
207.834	-315
207.902	-1325
207.970	-739
208.038	-743
208.105	-785
208.173	-776
208.241	-347
208.309	-511
208.376	-487
208.444	-482
208.512	-838
208.579	-1915
208.647	643
208.715	-154
208.782	-415
208.850	-751
208.918	-573
208.985	-786
209.053	-74
209.120	-490
209.188	-393
209.256	-1000
209.323	-588
209.391	-1191
209.459	440
209.526	-286
209.594	-912
209.661	-1247
209.729	14
209.796	-1126
209.864	177
209.932	-2767
209.999	593
210.067	-272
210.134	-751
210.202	-652
210.269	-106
210.337	-306
210.404	-347
210.472	-1489
210.539	-493
210.607	-261
210.674	-141
210.742	-396
210.809	-586
210.877	-634
210.944	-528
211.012	-1302
211.079	1005
211.146	-381
211.214	-646
211.281	-208
211.349	-76
211.416	-805
211.484	-323
211.551	-1295
211.618	74
211.686	-401
211.753	-514
211.821	-547
211.888	-641
211.955	-479
212.023	-609
212.090	-336
212.157	-1114
212.225	-793
212.292	-101
212.359	-249
212.427	-262
212.494	-1334
212.561	-351
212.629	-805
212.696	-1054
212.763	-837
212.831	-811
212.898	-387
212.965	-731
213.032	-361
213.100	-693
213.167	-1460
213.234	-59
213.301	-721
213.369	-432
213.436	-685
213.503	-856
213.570	-641
213.638	-905
213.705	-1014
213.772	-665
213.839	-737
213.906	-181
213.973	-743
214.041	-1118
214.108	-383
214.175	-94
214.242	-664
214.309	-82
214.376	-345
214.444	-650
214.511	-654
214.578	-102
214.645	-249
214.712	844
214.779	-1216
214.846	-1018
214.913	-28
214.980	-673
215.048	-1021
215.115	48
215.182	-1122
215.249	-180
215.316	-1424
215.383	-257
215.450	-248
215.517	-1051
215.584	-736
215.651	69
215.718	-720
215.785	-539
215.852	-993
215.919	-60
215.986	-430
216.053	-607
216.120	-1841
216.187	-406
216.254	-582
216.321	-345
216.388	-1210
216.455	-187
216.522	-539
216.589	-80
216.656	-977
216.722	-689
216.789	-36
216.856	-245
216.923	-808
216.990	-381
217.057	-1441
217.124	-991
217.191	-1359
217.258	-111
217.324	-1304
217.391	-136
217.458	-1407
217.525	-30
217.592	-963
217.659	-1350
217.725	-701
217.792	-1230
217.859	68
217.926	-1031
217.993	-760
218.059	236
218.126	-752
218.193	-906
218.260	-1268
218.327	-234
218.393	-697
218.460	-955
218.527	-88
218.594	-115
218.660	-1352
218.727	-100
218.794	-1717
218.860	-31
218.927	-1396
218.994	-1226
219.061	-1073
219.127	-1051
219.194	-943
219.261	-241
219.327	-860
219.394	364
219.461	-2040
219.527	-594
219.594	-1023
219.661	-868
219.727	-702
219.794	356
219.860	-1353
219.927	177
219.994	-628
220.060	464
220.127	371
220.193	-136
220.260	-48
220.326	193
220.393	-1030
220.460	-789
220.526	-808
220.593	-145
220.659	827
220.726	-568
220.792	-295
220.859	-869
220.925	-869
220.992	-530
221.058	-393
221.125	-50
221.191	-628
221.258	-1277
221.324	-77
221.391	-845
221.457	-1396
221.524	-2079
221.590	-278
221.657	-26
221.723	-1274
221.789	-788
221.856	260
221.922	-763
221.989	-699
222.055	-227
222.121	-1990
222.188	798
222.254	-968
222.321	-738
222.387	-1317
222.453	-15
222.520	-672
222.586	-1255
222.652	-206
222.719	-906
222.785	-671
222.851	-879
222.918	-491
222.984	-268
223.050	-1135
223.116	-1842
223.183	-325
223.249	-820
223.315	-1136
223.382	-1233
223.448	-609
223.514	-1635
223.580	-7
223.647	-1483
223.713	-1233
223.779	-696
223.845	-1539
223.911	-1009
223.978	-1756
224.044	-852
224.110	-1031
224.176	-226
224.242	-1034
224.309	-1225
224.375	-87
224.441	-23
224.507	-1634
224.573	-795
224.639	137
224.705	-1317
224.772	-1122
224.838	-1074
224.904	-1033
224.970	-599
225.036	-1174
225.102	-1510
225.168	-52
225.234	159
225.300	-692
225.366	-804
225.432	-338
225.499	-95
225.565	-660
225.631	-804
225.697	-1442
225.763	-830
225.829	-1131
225.895	-1077
225.961	-333
226.027	-744
226.093	-1590
226.159	-505
226.225	-621
226.291	-595
226.357	-544
226.423	-555
226.489	-546
226.554	-1319
226.620	-327
226.686	-569
226.752	-728
226.818	-478
226.884	-501
226.950	371
227.016	-1074
227.082	-466
227.148	-1223
227.214	-882
227.279	-1391
227.345	-937
227.411	-247
227.477	-591
227.543	2057
227.609	2116
227.674	417
227.740	-531
227.806	-267
227.872	-858
227.938	-1263
228.003	-189
228.069	-904
228.135	-763
228.201	77
228.267	-409
228.332	-1598
228.398	-1521
228.464	-930
228.530	-967
228.595	236
228.661	-584
228.727	-1221
228.792	472
228.858	-1225
228.924	-1708
228.990	48
229.055	-1719
229.121	-1232
229.187	-816
229.252	-1165
229.318	-1039
229.384	-596
229.449	-994
229.515	-2342
229.581	-1686
229.646	696
229.712	-1335
229.777	-1257
229.843	-1404
229.909	139
229.974	-335
230.040	-1127
230.105	-760
230.171	-1924
230.236	-330
230.302	-861
230.368	-1055
230.433	-1254
230.499	-894
230.564	-598
230.630	-1338
230.695	-1164
230.761	825
230.826	-1630
230.892	5
230.957	-1149
231.023	-1282
231.088	-558
231.154	-657
231.219	-345
231.284	-1604
231.350	-464
231.415	-1172
231.481	-445
231.546	-203
231.612	-839
231.677	-1317
231.742	-1991
231.808	259
231.873	-1106
231.939	-2593
232.004	341
232.069	578
232.135	-1752
232.200	-379
232.265	-382
232.331	-963
232.396	-1218
232.461	-1584
232.527	-1319
232.592	-912
232.657	-675
232.723	-1008
232.788	-1445
232.853	-639
232.918	-1323
232.984	-795
233.049	-901
233.114	-1092
233.179	-1064
233.245	92
233.310	-353
233.375	-1760
233.440	-468
233.506	-1354
233.571	-1447
233.636	-170
233.701	-1120
233.766	-557
233.832	-747
233.897	-1296
233.962	-1576
234.027	840
234.092	-593
234.157	-531
234.222	-1685
234.288	-148
234.353	-1711
234.418	-388
234.483	-262
234.548	-325
234.613	-1379
234.678	59
234.743	-2079
234.808	154
234.873	-2124
234.938	91
235.004	-833
235.069	-1254
235.134	-1588
235.199	-236
235.264	-1341
235.329	-2046
235.394	-559
235.459	257
235.524	-1887
235.589	-697
235.654	-639
235.719	-2131
235.784	-126
235.849	-913
235.913	-850
235.978	-1080
236.043	-1391
236.108	-1301
236.173	-928
236.238	-245
236.303	-1227
236.368	-1010
236.433	-303
236.498	-1516
236.563	-761
236.627	-1253
236.692	23
236.757	226
236.822	-541
236.887	-692
236.952	489
237.017	-2350
237.081	-314
237.146	-1722
237.211	-631
237.276	-354
237.341	1857
237.405	-796
237.470	-1702
237.535	-889
237.600	-522
237.664	-240
237.729	-1790
237.794	-1278
237.859	-6
237.923	-915
237.988	-1045
238.053	312
238.118	-1467
238.182	-1361
238.247	800
238.312	-1329
238.376	-597
238.441	-2861
238.506	-504
238.570	-2115
238.635	327
238.700	-466
238.764	-1723
238.829	-953
238.893	-2396
238.958	-2
239.023	-950
239.087	-808
239.152	-771
239.216	-850
239.281	-792
239.346	143
239.410	-1497
239.475	-1064
239.539	-336
239.604	-2098
239.668	50
239.733	-854
239.797	-230
239.862	4051
239.926	1909
239.991	310
240.055	-458
240.120	-896
240.184	-552
240.249	-760
240.313	-1536
240.378	-881
240.442	-935
240.507	-680
240.571	-1239
240.635	-722
240.700	-156
240.764	-694
240.829	-1163
240.893	-2018
240.957	-447
241.022	-141
241.086	-648
241.151	-1804
241.215	-1654
241.279	-119
241.344	-973
241.408	-66
241.472	-1829
241.537	11
241.601	-688
241.665	-1920
241.730	-2364
241.794	549
241.858	-1343
241.922	-908
241.987	-516
242.051	-645
242.115	-2064
242.179	-181
242.244	-915
242.308	-48
242.372	-1257
242.436	-1400
242.501	-918
242.565	-1859
242.629	-1651
242.693	83
242.757	-1675
242.822	-698
242.886	-756
242.950	-118
243.014	-2074
243.078	-501
243.142	-521
243.206	-1199
243.271	-605
243.335	-1632
243.399	-763
243.463	-254
243.527	812
243.591	-719
243.655	-880
243.719	-596
243.783	-338
243.847	-889
243.911	-730
243.975	-1434
244.040	-2117
244.104	857
244.168	-1072
244.232	-1341
244.296	-333
244.360	-1485
244.424	-2288
244.488	59
244.552	-57
244.615	-2015
244.679	-218
244.743	-571
244.807	-2390
244.871	-849
244.935	270
244.999	-1990
245.063	-1136
245.127	-224
245.191	-507
245.255	-497
245.319	-1312
245.383	-2308
245.446	-804
245.510	-1463
245.574	-1390
245.638	-300
245.702	-2956
245.766	-309
245.829	7
245.893	-688
245.957	-1542
246.021	-565
246.085	-875
246.149	-1086
246.212	147
246.276	-1069
246.340	-1467
246.404	-932
246.467	-197
246.531	-3208
246.595	-561
246.659	1
246.722	-2268
246.786	-813
246.850	-1215
246.913	-1045
246.977	-2108
247.041	-324
247.104	-265
247.168	-377
247.232	-1063
247.295	-526
247.359	-891
247.423	-396
247.486	-979
247.550	130
247.614	-1012
247.677	-370
247.741	-1389
247.804	-933
247.868	-508
247.932	-1099
247.995	197
248.059	-656
248.122	-2172
248.186	-44
248.249	-1158
248.313	625
248.376	931
248.440	-273
248.503	-1644
248.567	195
248.630	-1361
248.694	-829
248.757	-46
248.821	575
248.884	-213
248.948	-1603
249.011	-134
249.075	1375
249.138	629
249.202	-1141
249.265	-2336
249.328	-156
249.392	-1922
249.455	-192
249.519	-1027
249.582	-639
249.645	-1560
249.709	-659
249.772	-1401
249.835	-987
249.899	-1357
249.962	-488
250.025	-1214
250.089	-133
250.152	-177
250.215	-422
250.279	-1868
250.342	-623
250.405	-287
250.468	-1274
250.532	-1712
250.595	-103
250.658	-269
250.721	3201
250.785	-127
250.848	468
250.911	-2111
250.974	-905
251.038	-960
251.101	602
251.164	-1492
251.227	-663
251.290	-1772
251.354	-901
251.417	1777
251.480	2142
251.543	149
251.606	4802
251.669	3821
251.732	302
251.795	-399
251.859	1236
251.922	2101
251.985	1402
252.048	-59
252.111	-137
252.174	-1650
252.237	255
252.300	784
252.363	464
252.426	4894
252.489	251
252.552	-1167
252.615	-1709
252.678	-400
252.741	1151
252.804	100
252.867	4540
252.930	1328
252.993	285
253.056	129
253.119	-1373
253.182	-923
253.245	-781
253.308	-583
253.371	-1009
253.434	-1531
253.497	-432
253.559	-442
253.622	-1266
253.685	-1191
253.748	-1432
253.811	-2133
253.874	-177
253.937	-2171
254.000	-387
254.062	-1343
254.125	-290
254.188	87
254.251	-1990
254.314	-1121
254.376	-1345
254.439	-1943
254.502	-815
254.565	-1340
254.628	760
254.690	-2382
254.753	-2110
254.816	-1780
254.878	-747
254.941	-969
255.004	-315
255.067	-779
255.129	-1588
255.192	-1689
255.255	-1440
255.317	-1579
255.380	-420
255.443	-1922
255.505	-1181
255.568	-1056
255.631	-1311
255.693	-1169
255.756	-1276
255.819	-459
255.881	-944
255.944	-751
256.006	-603
256.069	-1857
256.132	-1972
256.194	-1670
256.257	143
256.319	-919
256.382	-833
256.444	-584
256.507	-871
256.569	-1230
256.632	-1001
256.694	-1397
256.757	-453
256.819	288
256.882	-754
256.944	-1196
257.007	-619
257.069	-538
257.132	-830
257.194	-256
257.257	-975
257.319	-2099
257.381	-2034
257.444	89
257.506	1079
257.569	1451
257.631	-332
257.693	-545
257.756	-671
257.818	-1809
257.880	-1578
257.943	-99
258.005	-1975
258.067	-1614
258.130	-1023
258.192	-1769
258.254	-833
258.317	-1147
258.379	-1221
258.441	-912
258.503	228
258.566	-1571
258.628	-821
258.690	-1529
258.753	-326
258.815	-1140
258.877	-1592
258.939	-1547
259.001	-29
259.064	-1940
259.126	-1552
259.188	-2269
259.250	-513
259.312	-1146
259.375	-800
259.437	-1720
259.499	-734
259.561	-940
259.623	-259
259.685	-1290
259.747	-1300
259.809	-1121
259.872	-743
259.934	28
259.996	-509
260.058	-273
260.120	-1029
260.182	-1197
260.244	-473
260.306	-881
260.368	-843
260.430	-780
260.492	-437
260.554	-1340
260.616	-1547
260.678	-1912
260.740	-1127
260.802	-1543
260.864	-1176
260.926	-2260
260.988	-515
261.050	-2076
261.112	-1336
261.174	-54
261.236	-439
261.298	-1346
261.359	-1448
261.421	-802
261.483	-2229
261.545	-258
261.607	-1888
261.669	-932
261.731	-1556
261.793	-655
261.854	-2002
261.916	-993
261.978	-1167
262.040	-701
262.102	-887
262.164	-2930
262.225	-968
262.287	-1045
262.349	-1438
262.411	-1264
262.472	-48
262.534	-1467
262.596	-1201
262.658	-1570
262.719	-2062
262.781	-459
262.843	-1639
262.904	-1502
262.966	-822
263.028	-1099
263.090	-648
263.151	-823
263.213	148
263.275	-1869
263.336	-1074
263.398	-651
263.459	-2076
263.521	-1461
263.583	-533
263.644	-1142
263.706	-1602
263.767	-1890
263.829	-1729
263.891	-1685
263.952	-771
264.014	-1652
264.075	-715
264.137	-1192
264.198	-295
264.260	-1692
264.321	-295
264.383	-1930
264.444	-510
264.506	-1713
264.567	-861
264.629	-567
264.690	-1703
264.752	-1293
264.813	-1365
264.875	-1217
264.936	-186
264.998	-1810
265.059	-1529
265.120	-1287
265.182	-553
265.243	-697
265.305	-475
265.366	27
265.427	-1296
265.489	-117
265.550	-2357
265.611	-1253
265.673	-1523
265.734	-1697
265.795	-1266
265.857	-2026
265.918	-2041
265.979	-377
266.040	-400
266.102	-640
266.163	-342
266.224	-644
266.286	-1091
266.347	-1735
266.408	-958
266.469	-1111
266.530	-773
266.592	-1300
266.653	-884
266.714	-1002
266.775	-1305
266.836	-1772
266.898	-1702
266.959	-985
267.020	-458
267.081	-1298
267.142	-1171
267.203	-1041
267.264	-1180
267.326	47
267.387	-1678
267.448	-1723
267.509	-115
267.570	-884
267.631	-1147
267.692	-1587
267.753	-806
267.814	-2034
267.875	-1628
267.936	-1074
267.997	-1675
268.058	-1895
268.119	-983
268.180	-1754
268.241	-1496
268.302	-1326
268.363	-1068
268.424	-1422
268.485	-1018
268.546	-1813
268.607	-1046
268.668	-1446
268.729	-1167
268.790	-1807
268.851	32
268.912	-1732
268.972	-1484
269.033	-1938
269.094	-1132
269.155	-1677
269.216	-1453
269.277	-1440
269.338	-1331
269.398	-1271
269.459	-1187
269.520	-931
269.581	-1573
269.642	-1625
269.702	-1180
269.763	-814
269.824	-1244
269.885	-1459
269.945	-1180
270.006	-764
270.067	-1886
270.128	-1419
270.188	-1580
270.249	-2005
270.310	-1643
270.370	-1300
270.431	-1396
270.492	-1691
270.553	-853
270.613	-1176
270.674	-1604
270.734	-1818
270.795	-1881
270.856	-1140
270.916	-612
270.977	-1592
271.038	-503
271.098	-1649
271.159	-1255
271.219	-1795
271.280	-1684
271.340	-1624
271.401	-1633
271.462	-1319
271.522	-1226
271.583	-957
271.643	-924
271.704	-1122
271.764	-711
271.825	-1024
271.885	1289
271.946	1426
272.006	-561
272.066	-1017
272.127	1211
272.187	688
272.248	-188
272.308	-1649
272.369	607
272.429	-125
272.489	-885
272.550	-1522
272.610	-729
272.671	-949
272.731	-992
272.791	-1877
272.852	-1406
272.912	-826
272.972	-695
273.033	-862
273.093	-1132
273.153	-566
273.214	-1157
273.274	-471
273.334	-317
273.394	-100
273.455	-313
273.515	-547
273.575	-527
273.635	-240
273.696	147
273.756	1423
273.816	262
273.876	-469
273.936	-684
273.997	332
274.057	-348
274.117	-1402
274.177	-597
274.237	-454
274.297	726
274.358	-346
274.418	-354
274.478	-1215
274.538	-1311
274.598	-1705
274.658	-1029
274.718	-325
274.778	-1170
274.838	-1652
274.898	-1187
274.958	-23
275.018	-454
275.078	-548
275.138	-538
275.198	-1458
275.258	-881
275.318	-718
275.378	-1835
275.438	-1498
275.498	-681
275.558	-1310
275.618	-334
275.678	-1253
275.738	-1082
275.798	-1407
275.858	-1069
275.918	-1563
275.978	-1300
276.038	-1734
276.098	-1113
276.157	-1193
276.217	-1152
276.277	-1185
276.337	-1180
276.397	-1261
276.457	-1123
276.517	-1164
276.576	-143
276.636	-1570
276.696	-911
276.756	-969
276.815	-1051
276.875	-967
276.935	-830
276.995	-964
277.055	-990
277.114	-1051
277.174	-990
277.234	-825
277.293	-391
277.353	-1021
277.413	-1046
277.472	-235
277.532	-302
277.592	0
277.651	3883
277.711	12449
277.771	3212
277.830	9912
277.890	10690
277.950	5783
278.009	23559
278.069	9682
278.128	6987
278.188	14208
278.248	5559
278.307	12933
278.367	10407
278.426	1433
278.486	150
278.545	-275
278.605	318
278.664	-331
278.724	-101
278.783	-14
278.843	1335
278.902	196
278.962	-132
279.021	289
279.081	2536
279.140	3041
279.199	715
279.259	1297
279.318	2311
279.378	2508
279.437	5574
279.496	15457
279.556	75257
279.615	68666
279.675	17603
279.734	7844
279.793	6993
279.853	9812
279.912	4553
279.971	3355
280.031	2246
280.090	3364
280.149	5772
280.208	8119
280.268	50668
280.327	60442
280.386	14456
280.445	4451
280.505	3152
280.564	1825
280.623	1212
280.682	1425
280.742	1749
280.801	62
280.860	-49
280.919	-508
280.978	480
281.037	-177
281.097	-147
281.156	701
281.215	-143
281.274	-592
281.333	512
281.392	247
281.451	-171
281.510	-309
281.569	-426
281.628	-684
281.688	153
281.747	-879
281.806	-802
281.865	235
281.924	-701
281.983	-887
282.042	-980
282.101	-1058
282.160	-280
282.219	-635
282.278	86
282.337	-498
282.396	-515
282.454	-621
282.513	-230
282.572	-487
282.631	-967
282.690	-406
282.749	-1045
282.808	-635
282.867	-1683
282.926	-1729
282.985	-760
283.043	-413
283.102	-96
283.161	-984
283.220	150
283.279	-365
283.338	-199
283.396	-309
283.455	-95
283.514	-557
283.573	-210
283.631	-438
283.690	720
283.749	131
283.808	416
283.866	-658
283.925	-250
283.984	434
284.043	-212
284.101	384
284.160	229
284.219	726
284.277	1251
284.336	1230
284.395	1953
284.453	1836
284.512	1881
284.570	2293
284.629	3359
284.688	3791
284.746	5528
284.805	6648
284.863	10159
284.922	12259
284.981	14407
285.039	21121
285.098	31286
285.156	54654
285.215	76773
285.273	69470
285.332	60156
285.390	41830
285.449	27647
285.507	18712
285.566	14039
285.624	10443
285.683	8441
285.741	6097
285.799	4281
285.858	4070
285.916	2589
285.975	2186
286.033	1665
286.091	1235
286.150	1146
286.208	627
286.267	1133
286.325	376
286.383	843
286.442	641
286.500	272
286.558	394
286.616	606
286.675	515
286.733	439
286.791	-582
286.850	-19
286.908	-218
286.966	-159
287.024	-382
287.083	-778
287.141	-931
287.199	460
287.257	-393
287.315	131
287.374	-870
287.432	-154
287.490	-800
287.548	212
287.606	-1318
287.664	-400
287.723	-592
287.781	-6
287.839	-587
287.897	-513
287.955	-819
288.013	-493
288.071	-88
288.129	2310
288.187	17353
288.245	8155
288.303	1377
288.361	-650
288.419	-530
288.477	-808
288.535	-1019
288.593	-934
288.651	-1046
288.709	-815
288.767	-401
288.825	-1130
288.883	-820
288.941	-842
288.999	-1326
289.057	-1526
289.115	-1135
289.173	-995
289.231	-1147
289.289	-838
289.346	-1727
289.404	-1455
289.462	-1170
289.520	-1047
289.578	-1619
289.636	-641
289.694	-1225
289.751	-787
289.809	-1487
289.867	-1044
289.925	-1312
289.983	-558
290.040	-547
290.098	-800
290.156	-1697
290.214	-775
290.271	-1794
290.329	-358
290.387	-1079
290.444	-827
290.502	-1639
290.560	-1133
290.617	-926
290.675	-1170
290.733	-1474
290.790	-654
290.848	-1072
290.906	-1979
290.963	-1196
291.021	-666
291.078	-1810
291.136	-1337
291.194	-1461
291.251	-883
291.309	-603
291.366	-1142
291.424	-1259
291.481	-1060
291.539	-1196
291.596	-779
291.654	-1408
291.711	-579
291.769	-921
291.826	-780
291.884	-729
291.941	-935
291.999	-1251
292.056	-1496
292.114	-1902
292.171	-863
292.228	-910
292.286	-928
292.343	-1427
292.401	-1071
292.458	-1423
292.515	-1207
292.573	-660
292.630	-957
292.687	-1088
292.745	-1209
292.802	-2012
292.859	-648
292.917	-224
292.974	-671
293.031	-888
293.089	-704
293.146	-742
293.203	-854
293.260	-1895
293.318	-1205
293.375	-1009
293.432	-772
293.489	-954
293.546	-1264
293.604	-1690
293.661	297
293.718	1683
293.775	456
293.832	549
293.889	1002
293.947	23
294.004	-967
294.061	-803
294.118	-786
294.175	107
294.232	2049
294.289	1000
294.346	-432
294.403	-723
294.460	-600
294.517	-975
294.574	-675
294.631	-2317
294.688	-1313
294.745	-1005
294.802	705
294.859	1374
294.916	-293
294.973	-1259
295.030	-230
295.087	-1870
295.144	-1067
295.201	-345
295.258	-948
295.315	-1467
295.372	-631
295.429	-294
295.486	-222
295.542	-1090
295.599	-831
295.656	-742
295.713	-62
295.770	-903
295.827	-1180
295.883	-1641
295.940	-658
295.997	-1214
296.054	-1146
296.111	-1249
296.167	-1360
296.224	-1264
296.281	-1554
296.338	-1635
296.394	-644
296.451	-349
296.508	-12
296.564	-508
296.621	-1424
296.678	-130
296.734	2307
296.791	-31
296.848	-279
296.904	-1490
296.961	-492
297.018	-300
297.074	-666
297.131	-1099
297.187	-397
297.244	-910
297.301	251
297.357	2829
297.414	470
297.470	-1114
297.527	-359
297.583	-1505
297.640	-566
297.696	-1051
297.753	-939
297.809	-2288
297.866	-1171
297.922	-1086
297.979	-1077
298.035	-1249
298.092	-1967
298.148	-435
298.204	-187
298.261	-827
298.317	-588
298.374	1803
298.430	109
298.486	-818
298.543	-1058
298.599	-1652
298.656	-702
298.712	-1661
298.768	-386
298.824	5
298.881	-154
298.937	-1614
298.993	-544
299.050	-1582
299.106	-1164
299.162	-1967
299.218	-1181
299.275	-778
299.331	-709
299.387	-246
299.443	2348
299.500	6968
299.556	6439
299.612	1744
299.668	1430
299.724	5248
299.780	7529
299.837	2427
299.893	654
299.949	3073
300.005	7580
300.061	5595
300.117	10437
300.173	3912
300.229	633
300.285	-548
300.341	400
300.397	-881
300.453	-351
300.510	-912
300.566	92
300.622	1343
300.678	9342
300.734	15267
300.790	6233
300.845	3022
300.901	4344
300.957	8871
301.013	4021
301.069	935
301.125	-38
301.181	-1100
301.237	-875
301.293	-1767
301.349	108
301.405	-920
301.461	-476
301.516	-1649
301.572	-722
301.628	-1000
301.684	-1139
301.740	-1198
301.796	-1039
301.851	-960
301.907	-920
301.963	-777
302.019	670
302.074	6084
302.130	7891
302.186	3324
302.242	365
302.297	-803
302.353	-487
302.409	-667
302.464	-1544
302.520	-1809
302.576	160
302.631	503
302.687	-133
302.743	-1519
302.798	-1514
302.854	-706
302.910	-700
302.965	-1682
303.021	-1263
303.076	-919
303.132	-270
303.187	-466
303.243	-2132
303.299	-2176
303.354	-1022
303.410	-1204
303.465	-1105
303.521	-1932
303.576	-957
303.632	-1358
303.687	-1199
303.743	790
303.798	359
303.853	-1449
303.909	-1236
303.964	-1839
304.020	-1027
304.075	-1055
304.130	-811
304.186	-1336
304.241	21
304.297	-567
304.352	-1234
304.358	-1275
304.407	-1606
304.449	-857
304.463	-604
304.518	-968
304.539	-1006
304.573	-1089
304.629	-1527
304.630	-1499
304.684	-240
304.720	-135
304.739	-94
304.794	2108
304.811	1731
304.850	802
304.902	-70
304.905	-123
304.960	-1300
304.992	-1154
305.015	-1064
305.071	-526
305.083	-575
305.126	-782
305.173	-593
305.181	-547
305.236	-1469
305.264	-1358
305.292	-1327
305.347	-681
305.354	-824
305.402	-1581
305.445	-514
305.457	-253
305.512	-1336
305.535	-1332
305.567	-1205
305.622	-1165
305.626	-1129
305.678	-653
305.716	-529
305.733	-450
305.788	846
305.807	548
305.843	8
305.897	1169
305.898	1185
305.953	1572
305.988	1196
306.008	911
306.063	-881
306.078	-748
306.118	-66
306.168	-752
306.173	-834
306.228	-559
306.259	-612
306.283	-614
306.338	-526
306.349	-529
306.393	-614
306.440	-685
306.448	-667
306.503	-534
306.530	-411
306.558	-345
306.613	-868
306.620	-767
306.668	-119
306.711	-250
306.723	-276
306.778	653
306.801	538
306.833	279
306.888	-717
306.892	-732
306.943	-717
306.982	-659
306.997	-637
307.052	-761
307.072	-806
307.107	-740
307.162	-411
307.163	-409
307.217	-179
307.253	-116
307.272	8
307.327	-82
307.343	-77
307.381	-177
307.434	-281
307.436	-268
307.491	-2
307.524	459
307.546	628
307.600	590
307.614	551
307.655	250
307.704	-516
307.710	-536
307.765	100
307.795	24
307.819	-141
307.874	234
307.885	209
307.929	158
307.975	870
307.984	1002
308.038	1016
308.065	1085
308.093	2399
308.148	6412
308.156	7476
308.202	12086
308.246	16725
308.257	17087
308.312	8916
308.336	5782
308.366	3445
308.421	1747
308.426	1654
308.475	1319
308.517	1113
308.530	1073
308.585	1309
308.607	1670
308.639	1921
308.694	986
308.697	1012
308.748	1797
308.787	1593
308.803	1467
308.857	1711
308.877	1588
308.912	1682
308.967	2509
308.967	2520
309.021	4932
309.058	7433
309.076	8523
309.130	12144
309.148	13345
309.185	20387
309.238	32094
309.239	32188
309.293	41030
309.328	40725
309.348	37229
309.402	21747
309.418	17642
309.457	13107
309.508	9490
309.511	9445
309.566	10936
309.598	12947
309.620	17006
309.674	29646
309.688	33157
309.729	31947
309.778	25289
309.783	24662
309.837	15046
309.868	10260
309.892	8639
309.946	6258
309.959	5960
310.001	4873
310.049	3978
310.055	3878
310.109	3152
310.139	2666
310.163	2242
310.218	1625
310.229	1496
310.272	1637
310.319	1883
310.326	1773
310.381	954
310.409	410
310.435	637
310.489	1336
310.499	1419
310.543	957
310.589	794
310.598	853
310.652	866
310.679	1046
310.706	886
310.760	221
310.769	120
310.814	435
310.859	970
310.868	996
310.923	730
310.948	672
310.977	831
311.031	1032
311.038	1091
311.085	1170
311.128	1020
311.139	983
311.193	765
311.218	708
311.247	744
311.301	784
311.308	782
311.356	884
311.398	890
311.410	862
311.464	845
311.488	784
311.518	577
311.572	245
311.578	201
311.626	482
311.668	696
311.680	782
311.734	1162
311.758	1339
311.788	1001
311.842	313
311.847	239
311.896	347
311.937	453
311.950	420
312.004	255
312.027	184
312.058	467
312.112	977
312.117	1027
312.165	856
312.207	711
312.297	113
312.386	749
312.476	591
312.566	275
312.656	502
312.745	396
312.835	1517
312.925	633
313.015	555
313.104	305
313.194	1502
313.284	232
313.374	1145
313.463	539
313.553	1602
313.643	342
313.732	1575
313.822	-115
313.912	1871
314.001	1362
314.091	1777
314.180	1118
314.270	2070
314.360	970
314.449	1449
314.539	742
314.628	1354
314.718	1393
314.808	1235
314.897	1453
314.987	2906
315.076	2404
315.166	1628
315.255	1957
315.345	2033
315.434	1243
315.524	2107
315.613	2381
315.703	2491
315.792	7123
315.881	24170
315.971	5877
316.060	3203
316.150	1835
316.239	2061
316.328	1181
316.418	1586
316.507	1642
316.597	2407
316.686	1526
316.775	2064
316.865	1331
316.954	2186
317.043	1521
317.133	1312
317.222	927
317.311	1516
317.400	-151
317.490	2693
317.579	1604
317.668	1803
317.757	3200
317.847	13328
317.936	38388
318.025	9735
318.114	8479
318.203	4161
318.293	1700
318.382	2594
318.471	2855
318.560	2793
318.649	2668
318.738	1971
318.828	1442
318.917	1357
319.006	393
319.095	1052
319.184	2577
319.273	2200
319.362	1025
319.451	1379
319.540	1032
319.629	567
319.718	703
319.807	1381
319.896	751
319.985	2964
320.074	1997
320.163	860
320.252	327
320.341	1258
320.430	404
320.519	1764
320.608	782
320.697	2201
320.786	1783
320.875	3586
320.964	2294
321.053	3071
321.142	1936
321.230	3502
321.319	2519
321.408	4513
321.497	3678
321.586	3911
321.675	1352
321.764	2560
321.852	2340
321.941	2328
322.030	2180
322.119	2302
322.207	3835
322.296	4846
322.385	5020
322.474	6034
322.562	6822
322.651	4678
322.740	3513
322.829	2455
322.917	1531
323.006	1899
323.095	1508
323.183	1857
323.272	1614
323.361	1702
323.449	2590
323.538	1739
323.626	2269
323.715	1451
323.804	681
323.892	1769
323.981	974
324.069	1549
324.158	1185
324.246	1119
324.335	1626
324.424	1700
324.512	1412
324.601	1703
324.689	487
324.778	2258
324.866	1175
324.954	927
325.043	655
325.131	49
325.220	1609
325.308	1371
325.397	667
325.485	1692
325.574	769
325.662	1012
325.750	280
325.839	969
325.927	295
326.015	1187
326.104	346
326.192	1274
326.280	659
326.369	102
326.457	931
326.545	1254
326.634	841
326.722	819
326.810	32
326.898	1099
326.987	1359
327.075	753
327.163	1000
327.251	745
327.340	514
327.428	1842
327.516	1502
327.604	1294
327.692	1556
327.781	899
327.869	225
327.957	742
328.045	-289
328.133	1800
328.221	350
328.309	803
328.397	347
328.485	1406
328.574	1837
328.662	3231
328.750	1362
328.838	877
328.926	1078
329.014	710
329.102	245
329.190	1225
329.278	375
329.366	781
329.454	545
329.542	289
329.630	12
329.718	1404
329.806	891
329.893	1575
329.981	42
330.069	352
330.157	1074
330.245	949
330.333	497
330.421	1183
330.509	782
330.597	873
330.684	998
330.772	867
330.860	263
330.948	1043
331.036	570
331.123	470
331.211	561
331.299	229
331.387	382
331.475	987
331.562	-345
331.650	1318
331.738	342
331.825	670
331.913	-82
332.001	936
332.089	1419
332.176	962
332.264	683
332.352	936
332.439	733
332.527	1213
332.614	-131
332.702	850
332.790	618
332.877	1428
332.965	3827
333.052	3110
333.140	3590
333.228	9764
333.315	1796
333.403	1563
333.490	1854
333.578	3577
333.665	13579
333.753	5186
333.840	1258
333.928	1751
334.015	1775
334.103	2441
334.190	4001
334.278	4306
334.365	5403
334.452	7011
334.540	3101
334.627	2914
334.715	4093
334.802	6264
334.889	11545
334.977	18243
335.064	10604
335.151	3620
335.239	2778
335.326	1854
335.413	2752
335.501	2876
335.588	2840
335.675	2223
335.762	3115
335.850	4259
335.937	6979
336.024	12826
336.111	24192
336.199	23806
336.286	8630
336.373	4955
336.460	2547
336.547	2276
336.635	2394
336.722	1690
336.809	1347
336.896	993
336.983	1846
337.070	2334
337.157	2387
337.245	1971
337.332	1664
337.419	1729
337.506	1382
337.593	1164
337.680	851
337.767	2206
337.854	960
337.941	1396
338.028	1133
338.115	-184
338.202	1554
338.289	1410
338.376	1431
338.463	2189
338.550	1149
338.637	1920
338.724	309
338.811	1004
338.898	1188
338.984	1386
339.071	478
339.158	898
339.245	1002
339.332	1303
339.419	791
339.506	1209
339.593	4
339.679	1077
339.766	784
339.853	1166
339.940	165
340.027	1317
340.113	1648
340.200	1126
340.287	-39
340.374	1014
340.460	457
340.547	-430
340.634	1530
340.720	1878
340.807	-532
340.894	1276
340.980	36
341.067	221
341.154	1374
341.240	806
341.327	873
341.414	1236
341.500	13
341.587	1487
341.674	781
341.760	1149
341.847	638
341.933	756
342.020	-182
342.106	540
342.193	538
342.279	687
342.366	45
342.452	378
342.539	20
342.625	200
342.712	742
342.798	1385
342.885	642
342.971	826
343.058	468
343.144	449
343.230	1284
343.317	1145
343.403	357
343.490	1765
343.576	281
343.662	963
343.749	191
343.835	814
343.921	979
344.008	5307
344.094	6954
344.180	1706
344.267	339
344.353	2175
344.439	691
344.525	578
344.612	1276
344.698	776
344.784	-420
344.870	1547
344.957	297
345.043	1066
345.129	-288
345.215	1264
345.301	364
345.387	994
345.474	710
345.560	257
345.646	12
345.732	906
345.818	-126
345.904	611
345.990	288
346.076	532
346.162	110
346.249	1538
346.335	-621
346.421	1044
346.507	1021
346.593	1972
346.679	624
346.765	1944
346.851	1009
346.937	719
347.023	1651
347.108	1502
347.194	590
347.280	647
347.366	776
347.452	4674
347.538	4586
347.624	4389
347.710	1529
347.796	958
347.882	618
347.967	999
348.053	333
348.139	1333
348.225	743
348.311	21
348.397	197
348.482	1882
348.568	694
348.654	1442
348.740	5745
348.825	4076
348.911	2593
348.997	2856
349.083	2419
349.168	1419
349.254	346
349.340	927
349.425	265
349.511	1048
349.597	595
349.682	1313
349.768	1385
349.854	1309
349.939	1487
350.025	66
350.110	904
350.196	667
350.282	-344
350.367	1214
350.453	861
350.538	474
350.624	235
350.709	861
350.795	61
350.880	-244
350.966	1567
351.051	1255
351.137	-724
351.222	1311
351.308	262
351.393	1581
351.479	458
351.564	475
351.649	543
351.735	1221
351.820	842
351.906	674
351.991	467
352.076	811
352.162	816
352.247	975
352.332	432
352.418	-25
352.503	217
352.588	1751
352.673	1255
352.759	1226
352.844	296
352.929	705
353.014	76
353.100	1771
353.185	865
353.270	700
353.355	1157
353.441	1172
353.526	426
353.611	1254
353.696	617
353.781	1832
353.866	-298
353.952	2016
354.037	-354
354.122	1883
354.207	-383
354.292	792
354.377	894
354.462	1590
354.547	474
354.632	1188
354.717	545
354.802	-171
354.887	254
354.972	1698
355.057	474
355.142	505
355.227	1014
355.312	288
355.397	-334
355.482	844
355.567	361
355.652	1631
355.737	874
355.822	1888
355.907	-72
355.991	2162
356.076	529
356.161	1467
356.246	357
356.331	1092
356.416	-252
356.501	3921
356.585	2265
356.670	-330
356.755	2286
356.840	1360
356.924	3283
357.009	7110
357.094	2918
357.179	727
357.263	959
357.348	1425
357.433	955
357.517	1900
357.602	528
357.687	284
357.771	705
357.856	1161
357.941	1531
358.025	2366
358.110	11155
358.195	4844
358.279	251
358.364	1177
358.448	1319
358.533	2913
358.617	1077
358.702	1874
358.787	999
358.871	739
358.956	312
359.040	727
359.125	237
359.209	562
359.294	0
359.378	1662
359.462	1191
359.547	1392
359.631	615
359.716	704
359.800	463
359.885	1292
359.969	-882
360.053	1436
360.138	411
360.222	543
360.306	401
360.391	1223
360.475	1482
360.559	1008
360.644	440
360.728	-155
360.812	3098
360.896	4507
360.981	768
361.065	791
361.149	1523
361.233	1288
361.318	-187
361.402	1605
361.486	1549
361.570	660
361.654	761
361.739	706
361.823	2416
361.907	5566
361.991	1651
362.075	1216
362.159	849
362.243	5811
362.327	14871
362.411	26622
362.495	8681
362.580	3826
362.664	3418
362.748	2524
362.832	5297
362.916	11710
363.000	41828
363.084	66093
363.168	23334
363.252	6197
363.336	3971
363.420	3482
363.503	3150
363.587	2646
363.671	1664
363.755	1412
363.839	3031
363.923	1281
364.007	3155
364.091	3739
364.175	4783
364.258	17258
364.342	45688
364.426	98128
364.510	48086
364.594	13348
364.677	5529
364.761	5241
364.845	3164
364.929	1919
365.013	844
365.096	1982
365.180	680
365.264	2095
365.347	3929
365.431	1680
365.515	-770
365.598	83
365.682	2139
365.766	-340
365.849	617
365.933	731
366.017	2374
366.100	-492
366.184	-337
366.267	2414
366.351	1024
366.435	561
366.518	-77
366.602	1610
366.685	838
366.769	661
366.852	813
366.936	1273
367.019	883
367.103	234
367.186	2213
367.270	261
367.353	553
367.436	1779
367.520	395
367.603	2291
367.687	-254
367.770	269
367.853	1434
367.937	2168
368.020	1540
368.104	233
368.187	1390
368.270	1095
368.353	459
368.437	1201
368.520	981
368.603	637
368.687	143
368.770	1756
368.853	476
368.936	1320
369.020	1570
369.103	665
369.186	285
369.269	421
369.352	1198
369.436	-141
369.519	633
369.602	-165
369.685	2011
369.768	-769
369.851	1013
369.934	-538
370.018	-658
370.101	-460
370.184	2834
370.267	1332
370.350	822
370.433	1473
370.516	4910
370.599	12800
370.682	3111
370.765	2166
370.848	2756
370.931	2094
371.014	1953
371.097	240
371.180	2021
371.263	1673
371.346	-374
371.429	1956
371.511	556
371.594	891
371.677	2024
371.760	2954
371.843	1741
371.926	6720
372.009	11292
372.091	7531
372.174	3242
372.257	4892
372.340	3130
372.423	2267
372.505	3514
372.588	1275
372.671	1722
372.754	1978
372.836	1791
372.919	2935
373.002	3279
373.085	999
373.167	2384
373.250	1488
373.332	3793
373.415	6812
373.498	11942
373.580	8293
373.663	22278
373.746	18895
373.828	2090
373.911	2777
373.993	928
374.076	2481
374.159	1251
374.241	2308
374.324	2422
374.406	3686
374.489	3227
374.571	8407
374.654	2292
374.736	2362
374.819	4803
374.901	9383
374.983	7549
375.066	2744
375.148	2128
375.231	1989
375.313	4412
375.395	1441
375.478	1528
375.560	2880
375.643	1523
375.725	3060
375.807	4781
375.890	5678
375.972	366
376.054	2021
376.136	1311
376.219	1484
376.301	3141
376.383	2614
376.465	2362
376.548	716
376.630	694
376.712	3204
376.794	1153
376.877	1512
376.959	-55
377.041	1043
377.123	134
377.205	1222
377.287	129
377.369	2029
377.452	690
377.534	1901
377.616	271
377.698	666
377.780	-428
377.862	1149
377.944	1109
378.026	145
378.108	974
378.190	1332
378.272	1634
378.354	570
378.436	52
378.518	-207
378.600	863
378.682	1515
378.764	851
378.846	2201
378.928	128
379.010	248
379.091	1448
379.173	1066
379.255	116
379.337	1249
379.419	598
379.501	3069
379.583	421
379.664	1171
379.746	-717
379.828	2486
379.910	535
379.991	1796
380.073	5
380.155	1355
380.237	492
380.318	916
380.400	1387
380.482	1858
380.564	682
380.645	755
380.727	997
380.809	2086
380.890	33
380.972	-369
381.053	10
381.135	1678
381.217	696
381.298	2542
381.380	1144
381.461	2204
381.543	3234
381.624	4244
381.706	1082
381.787	2310
381.869	2065
381.951	3791
382.032	7814
382.113	8068
382.195	814
382.276	4367
382.358	2162
382.439	3925
382.521	7823
382.602	9969
382.684	8762
382.765	13585
382.846	43594
382.928	104218
383.009	52055
383.090	41979
383.172	140746
383.253	184455
383.334	49844
383.416	18145
383.497	13350
383.578	15785
383.659	31975
383.741	121910
383.822	261070
383.903	120376
383.984	24975
384.066	14594
384.147	7772
384.228	6968
384.309	4648
384.390	4940
384.471	3751
384.553	3705
384.634	3549
384.715	4321
384.796	2554
384.877	2936
384.958	3836
385.039	2513
385.120	2805
385.201	3574
385.282	2467
385.363	4106
385.444	3006
385.525	4147
385.606	3903
385.687	3854
385.768	2655
385.849	1295
385.930	7216
386.011	9728
386.092	2840
386.173	2751
386.254	1659
386.335	3002
386.416	1515
386.496	2775
386.577	2123
386.658	2606
386.739	1019
386.820	2882
386.901	803
386.981	3425
387.062	2484
387.143	3054
387.224	4066
387.304	5383
387.385	4757
387.466	2131
387.547	4766
387.627	4193
387.708	4304
387.789	6092
387.869	4571
387.950	4774
388.031	1927
388.111	337
388.192	3452
388.273	4121
388.353	1567
388.434	2250
388.514	1862
388.595	4002
388.676	3677
388.756	2625
388.837	2066
388.917	1112
388.998	-1283
389.078	2062
389.159	1713
389.239	-78
389.320	2481
389.400	-703
389.480	1711
389.561	1251
389.641	1788
389.722	1665
389.802	239
389.883	2061
389.963	3186
390.043	1347
390.124	554
390.204	1673
390.284	2259
390.365	736
390.445	2379
390.525	1540
390.605	2326
390.686	1322
390.766	2078
390.846	2463
390.927	377
391.007	670
391.087	2319
391.167	1541
391.247	343
391.328	1757
391.408	2193
391.488	2169
391.568	-156
391.648	1386
391.728	2535
391.808	3097
391.888	1771
391.969	3178
392.049	2064
392.129	4099
392.209	2816
392.289	5690
392.369	3166
392.449	3868
392.529	4222
392.609	5966
392.689	6423
392.769	7139
392.849	8404
392.929	13781
393.009	16907
393.089	25899
393.169	52826
393.248	149857
393.328	372573
393.408	352064
393.488	126400
393.568	45752
393.648	22559
393.728	14440
393.807	8909
393.887	8137
393.967	6344
394.047	5401
394.127	3617
394.206	4583
394.286	7558
394.366	29153
394.446	27555
394.525	5832
394.605	2714
394.685	3501
394.764	4714
394.844	6798
394.924	7931
395.003	2733
395.083	2170
395.163	2025
395.242	1263
395.322	2338
395.402	695
395.481	3825
395.561	3099
395.640	11907
395.720	20266
395.799	9343
395.879	3890
395.958	3146
396.038	10585
396.117	43735
396.197	39554
396.276	10399
396.356	4991
396.435	6825
396.515	10316
396.594	17289
396.673	41614
396.753	143372
396.832	325932
396.912	209191
396.991	55182
397.070	22371
397.150	10756
397.229	10845
397.308	18577
397.388	33271
397.467	13291
397.546	4983
397.625	615
397.705	4627
397.784	2464
397.863	1954
397.942	2320
398.022	1645
398.101	1128
398.180	2706
398.259	1455
398.338	2181
398.417	1187
398.497	1185
398.576	2157
398.655	716
398.734	1604
398.813	1150
398.892	1773
398.971	2454
399.050	-134
399.129	-180
399.208	1362
399.287	1949
399.366	164
399.445	533
399.524	857
399.603	-194
399.682	89
399.761	812
399.840	2714
399.919	2551
399.998	166
400.077	-472
400.156	-329
400.235	2647
400.313	-94
400.392	-330
400.471	809
400.550	1526
400.629	-777
400.708	1587
400.786	-796
400.865	1076
400.944	-866
401.023	1872
401.102	-814
401.180	556
401.259	-294
401.338	243
401.416	-160
401.495	-530
401.574	506
401.652	-321
401.731	574
401.810	-699
401.888	36
401.967	306
402.046	152
402.124	448
402.203	-1024
402.281	823
402.360	-445
402.438	493
402.517	-1408
402.596	666
402.674	253
402.753	391
402.831	-168
402.910	1369
402.988	-518
403.066	1242
403.145	1202
403.223	1345
403.302	249
403.380	1324
403.459	1116
403.537	664
403.615	-3
403.694	-231
403.772	1101
403.850	767
403.929	-222
404.007	-692
404.085	1249
404.164	-196
404.242	-501
404.320	1654
404.398	2022
404.477	1592
404.555	3984
404.633	2733
404.711	1331
404.789	945
404.868	-219
404.946	-1054
405.024	271
405.102	31
405.180	-607
405.258	-450
405.336	691
405.415	-462
405.493	-335
405.571	1287
405.649	-471
405.727	-1182
405.805	1888
405.883	739
405.961	301
406.039	150
406.117	-1624
406.195	520
406.273	-744
406.351	2214
406.429	1575
406.507	-600
406.585	-652
406.663	664
406.740	-428
406.818	-1111
406.896	-543
406.974	432
407.052	-1874
407.130	1416
407.208	831
407.285	629
407.363	-1087
407.441	-732
407.519	-863
407.596	-39
407.674	679
407.752	2599
407.830	1167
407.907	1146
407.985	-1062
408.063	851
408.141	-383
408.218	971
408.296	-1266
408.373	-74
408.451	614
408.529	-80
408.606	-739
408.684	43
408.762	-119
408.839	-250
408.917	393
408.994	814
409.072	-295
409.149	1828
409.227	2948
409.304	6243
409.382	5499
409.459	6825
409.537	9118
409.614	6946
409.692	4145
409.769	4975
409.846	9639
409.924	11980
410.001	4191
410.079	3810
410.156	2647
410.233	1637
410.311	677
410.388	868
410.465	659
410.543	350
410.620	1440
410.697	1322
410.775	577
410.852	394
410.929	2278
411.006	2117
411.083	807
411.161	968
411.238	477
411.315	-4
411.392	494
411.469	576
411.547	227
411.624	-774
411.701	-768
411.778	466
411.855	-269
411.932	-7
412.009	-975
412.086	512
412.163	948
412.240	-110
412.317	-170
412.394	-218
412.471	351
412.548	29
412.625	-526
412.702	239
412.779	7
412.856	-103
412.933	-460
413.010	622
413.087	-118
413.164	-416
413.241	33
413.318	-419
413.395	428
413.471	-488
413.548	-315
413.625	90
413.702	-1639
413.779	-544
413.855	-457
413.932	-832
414.009	-1150
414.086	433
414.162	-477
414.239	924
414.316	-784
414.393	2505
414.469	-1286
414.546	186
414.623	-115
414.699	-330
414.776	-1301
414.853	-753
414.929	333
415.006	-660
415.082	-644
415.159	-118
415.236	-100
415.312	-83
415.389	-417
415.465	-536
415.542	-347
415.618	-102
415.695	218
415.771	-727
415.848	-207
415.924	325
416.000	-329
416.077	1301
416.153	-1122
416.230	-1233
416.306	-1502
416.383	-415
416.459	213
416.535	177
416.612	-1325
416.688	368
416.764	-379
416.841	-568
416.917	-578
416.993	-30
417.069	-561
417.146	-405
417.222	-682
417.298	-706
417.374	-1178
417.451	309
417.527	-21
417.603	-852
417.679	-1100
417.755	-173
417.831	-773
417.908	-243
417.984	-375
418.060	-382
418.136	-358
418.212	-180
418.288	-280
418.364	810
418.440	-1368
418.516	-238
418.592	-182
418.668	-350
418.744	-285
418.820	-208
418.896	-614
418.972	-510
419.048	379
419.124	548
419.200	-1149
419.276	211
419.352	-463
419.428	341
419.504	-15
419.579	-130
419.655	-142
419.731	80
419.807	-73
419.883	-308
419.959	-222
420.034	1193
420.110	-446
420.186	783
420.262	108
420.337	121
420.413	51
420.489	931
420.565	1572
420.640	652
420.716	181
420.792	395
420.867	1523
420.943	743
421.019	1101
421.094	829
421.170	1100
421.245	762
421.321	1775
421.397	1618
421.472	2839
421.548	3879
421.623	3476
421.699	2833
421.774	3672
421.850	3974
421.925	4689
422.001	6470
422.076	7740
422.152	9764
422.227	12479
422.302	20052
422.378	29058
422.453	52228
422.529	103767
422.604	179311
422.679	197882
422.755	162113
422.830	96913
422.905	54274
422.981	31584
423.056	21653
423.131	15097
423.207	11693
423.282	8114
423.357	6595
423.432	5423
423.508	4877
423.583	3082
423.658	3819
423.733	3024
423.808	3580
423.883	2739
423.959	2563
424.034	4432
424.109	4788
424.184	1487
424.259	1082
424.334	818
424.409	573
424.484	520
424.559	673
424.634	367
424.709	617
424.784	791
424.859	500
424.934	-519
425.009	-69
425.084	752
425.159	-4
425.234	907
425.309	-317
425.384	155
425.459	-75
425.534	574
425.609	-14
425.683	-964
425.758	-228
425.833	-226
425.908	525
425.983	-940
426.058	943
426.132	-346
426.207	234
426.282	320
426.357	-248
426.431	472
426.506	282
426.581	-228
426.655	641
426.730	-760
426.805	-1610
426.879	-88
426.954	-18
427.029	-955
427.103	635
427.178	1151
427.253	80
427.327	-283
427.402	-795
427.476	-706
427.551	-976
427.625	-456
427.700	300
427.774	-843
427.849	265
427.923	-1229
427.998	-9
428.072	74
428.147	3183
428.221	19034
428.296	59308
428.370	27138
428.444	2571
428.519	-409
428.593	-125
428.667	269
428.742	1274
428.816	5923
428.890	36286
428.965	51044
429.039	10389
429.113	926
429.188	-240
429.262	131
429.336	323
429.410	-307
429.485	844
429.559	475
429.633	575
429.707	221
429.781	5673
429.855	32119
429.930	43705
430.004	8297
430.078	5532
430.152	20713
430.226	80666
430.300	70338
430.374	10950
430.448	2694
430.522	1632
430.596	1304
430.670	10663
430.744	45268
430.818	43909
430.892	5324
430.966	344
431.040	303
431.114	-654
431.188	-1018
431.262	-279
431.336	-627
431.410	325
431.484	-1590
431.557	593
431.631	-488
431.705	1664
431.779	14600
431.853	58022
431.927	31452
432.000	3584
432.074	-262
432.148	-825
432.222	-834
432.295	-212
432.369	-836
432.443	-1304
432.516	-217
432.590	1341
432.664	-350
432.737	-1135
432.811	-1810
432.885	-241
432.958	83
433.032	-866
433.106	-799
433.179	-23
433.253	-567
433.326	-153
433.400	-897
433.473	-493
433.547	-1858
433.620	-441
433.694	-916
433.767	16
433.841	-1914
433.914	-809
433.988	-1329
434.061	-123
434.134	-1147
434.208	-840
434.281	-1440
434.355	-971
434.428	-729
434.501	-1578
434.575	-1000
434.648	-545
434.721	-972
434.795	-219
434.868	-1345
434.941	-1021
435.014	-1204
435.088	-355
435.161	-235
435.234	529
435.307	245
435.381	299
435.454	1641
435.527	5448
435.600	5001
435.673	3436
435.746	890
435.819	560
435.892	551
435.966	123
436.039	-1165
436.112	91
436.185	-1685
436.258	-1077
436.331	-1784
436.404	-114
436.477	-806
436.550	-160
436.623	-447
436.696	-987
436.769	-1108
436.842	-516
436.915	-1250
436.987	-1041
437.060	-572
437.133	-610
437.206	-1694
437.279	-610
437.352	-1576
437.425	-1336
437.498	-2027
437.570	-1126
437.643	-1801
437.716	-605
437.789	-886
437.861	-1247
437.934	-1121
438.007	-674
438.080	-1437
438.152	-985
438.225	-607
438.298	1094
438.370	2434
438.443	770
438.516	-1237
438.588	-200
438.661	-1342
438.734	-1123
438.806	-1241
438.879	51
438.951	-1746
439.024	-1135
439.096	-1499
439.169	-973
439.241	-2029
439.314	-795
439.386	-2126
439.459	-443
439.531	-1142
439.604	-871
439.676	-1458
439.749	-711
439.821	-1769
439.893	-66
439.966	-1063
440.038	-558
440.110	-1053
440.183	-787
440.255	-2190
440.327	-915
440.400	-669
440.472	258
440.544	-519
440.617	23
440.689	6
440.761	-900
440.833	-540
440.905	-961
440.978	-989
441.050	-725
441.122	-569
441.194	-672
441.266	-741
441.338	-1296
441.411	-1368
441.483	41
441.555	-502
441.627	-292
441.699	-803
441.771	-1295
441.843	-582
441.915	-261
441.987	-768
442.059	-585
442.131	-536
442.203	485
442.275	202
442.347	3094
442.419	7059
442.491	42188
442.563	85195
442.635	31120
442.706	3494
442.778	1716
442.850	746
442.922	710
442.994	-128
443.066	263
443.137	914
443.209	1815
443.281	2844
443.353	10550
443.425	47388
443.496	143351
443.568	135329
443.640	50072
443.711	9103
443.783	3624
443.855	881
443.926	725
443.998	170
444.070	101
444.141	689
444.213	-410
444.285	136
444.356	-268
444.428	-408
444.499	29
444.571	-228
444.642	-508
444.714	-522
444.785	422
444.857	97
444.928	793
445.000	1221
445.071	1928
445.143	1573
445.214	3843
445.285	7204
445.357	23594
445.428	95941
445.500	178337
445.571	124098
445.642	75797
445.714	22222
445.785	6635
445.856	1421
445.928	922
445.999	572
446.070	44
446.141	84
446.213	89
446.284	-851
446.355	-181
446.426	-835
446.497	-854
446.569	-777
446.640	-282
446.711	-822
446.782	-691
446.853	-836
446.924	-216
446.995	-618
447.066	-340
447.138	-1272
447.209	-559
447.280	-1271
447.351	-666
447.422	-2004
447.493	-1065
447.564	-823
447.635	-652
447.706	-1532
447.777	-866
447.847	-1105
447.918	-1112
447.989	-962
448.060	-608
448.131	-366
448.202	-1174
448.273	-1108
448.344	-699
448.414	-1466
448.485	-1301
448.556	-1209
448.627	-1299
448.698	-428
448.768	-1530
448.839	-1361
448.910	-1073
448.981	-1835
449.051	-1157
449.122	-1691
449.193	-1061
449.263	-1445
449.334	-1362
449.405	-911
449.475	-731
449.546	-1382
449.616	-498
449.687	-618
449.758	-171
449.828	-1920
449.899	-1530
449.969	-1424
450.040	-1754
450.110	-738
450.181	-836
450.251	-1193
450.322	-360
450.392	-68
450.463	-382
450.533	-919
450.604	-1701
450.674	-1294
450.744	-245
450.815	-820
450.885	-484
450.955	-1434
451.026	-1069
451.096	-1136
451.166	-946
451.237	-505
451.307	-280
451.377	-604
451.447	-509
451.518	-423
451.588	-175
451.658	-1434
451.728	-1069
451.799	-1121
451.869	-601
451.939	-1634
452.009	-1078
452.079	-955
452.149	-922
452.219	-1548
452.289	-1073
452.360	-1251
452.430	-165
452.500	-1125
452.570	830
452.640	4430
452.710	12497
452.780	12262
452.850	5459
452.920	1052
452.990	657
453.060	-333
453.129	-964
453.199	-1447
453.269	141
453.339	40
453.409	-58
453.479	291
453.549	1218
453.619	572
453.688	-513
453.758	-828
453.828	-1013
453.898	-361
453.968	-738
454.037	-860
454.087	-1035
454.107	-1118
454.168	-876
454.177	-851
454.247	-674
454.249	-714
454.316	-2056
454.330	-1947
454.386	-1542
454.411	-1390
454.456	-1193
454.492	-977
454.525	-773
454.574	-830
454.595	-894
454.655	-1033
454.665	-1057
454.734	-995
454.736	-988
454.804	-1327
454.817	-1130
454.873	-374
454.898	-470
454.943	-704
454.979	-1072
455.013	-1411
455.060	-1436
455.082	-1467
455.141	-991
455.152	-905
455.221	-480
455.222	-460
455.291	-41
455.303	-9
455.360	-121
455.384	97
455.430	60
455.465	158
455.499	311
455.546	-669
455.569	-1134
455.627	-303
455.638	-136
455.707	-797
455.708	-784
455.777	-290
455.789	-335
455.846	-561
455.869	-710
455.916	-1080
455.950	-900
455.985	-791
456.031	-1376
456.054	-1584
456.112	-945
456.124	-841
456.193	-54
456.193	-63
456.262	-804
456.274	-677
456.332	-207
456.355	-364
456.401	-550
456.436	-247
456.470	-41
456.516	-544
456.540	-762
456.597	-659
456.609	-659
456.678	-233
456.678	-245
456.747	-571
456.759	-531
456.817	3
456.840	-33
456.886	-554
456.920	-290
456.955	175
457.001	334
457.024	401
457.082	259
457.093	182
457.162	668
457.163	677
457.232	-167
457.243	-10
457.301	1024
457.324	891
457.370	552
457.405	838
457.439	1048
457.485	710
457.508	600
457.566	1014
457.577	1246
457.646	2829
457.647	2868
457.715	9281
457.727	10984
457.784	22408
457.808	29496
457.853	36015
457.889	39676
457.922	36998
457.969	23204
457.991	24229
458.050	33376
458.060	35197
458.129	62169
458.130	62906
458.198	52730
458.211	46368
458.267	24026
458.292	15472
458.336	10050
458.372	9788
458.405	16136
458.453	27570
458.474	35771
458.533	64801
458.543	66399
458.611	95056
458.614	95405
458.680	49907
458.694	37330
458.749	16079
458.775	10572
458.818	5465
458.855	3817
458.887	2916
458.936	2341
458.955	2184
459.016	1542
459.024	1489
459.093	2171
459.097	2157
459.162	1570
459.177	1460
459.230	969
459.257	903
459.299	1069
459.338	1176
459.368	1085
459.418	792
459.437	608
459.499	711
459.505	817
459.574	1238
459.579	1270
459.643	487
459.659	354
459.711	952
459.740	1387
459.780	1265
459.820	944
459.849	888
459.900	1030
459.917	1136
459.981	1075
459.986	1034
460.054	1315
460.061	1239
460.123	681
460.141	924
460.191	1680
460.222	1373
460.260	765
460.302	819
460.328	1160
460.382	1449
460.397	1391
460.462	1168
460.465	1169
460.534	1992
460.543	2017
460.602	4945
460.623	6305
460.671	9450
460.703	11623
460.739	9813
460.783	7165
460.808	6214
460.864	2188
460.876	1837
460.944	1033
460.945	1022
461.013	951
461.024	982
461.081	1106
461.104	1217
461.150	1256
461.184	1015
461.218	1022
461.264	1094
461.286	1011
461.345	849
461.355	805
461.423	934
461.425	915
461.491	911
461.505	1237
461.559	1763
461.585	1386
461.628	1308
461.665	1503
461.696	1481
461.745	1867
461.764	1836
461.825	936
461.832	915
461.901	1147
461.905	1184
461.969	782
461.985	545
462.037	1491
462.065	2272
462.105	1679
462.145	822
462.173	1165
462.225	1888
462.241	1882
462.305	1628
462.310	1617
462.378	1768
462.385	1768
462.446	1728
462.465	1715
462.514	1343
462.545	1141
462.582	1393
462.625	1640
462.650	1393
462.705	760
462.718	894
462.785	1946
462.786	1939
462.854	756
462.865	662
462.922	1208
462.945	1389
462.990	1425
463.025	1542
463.058	1641
463.104	1476
463.126	1321
463.184	1298
463.194	1316
463.262	632
463.264	636
463.330	1692
463.344	1876
463.398	1896
463.424	1777
463.466	1165
463.504	997
463.533	1491
463.583	1646
463.601	1452
463.663	1206
463.669	1231
463.737	1491
463.743	1508
463.805	2066
463.823	2265
463.873	2194
463.903	2131
463.940	2219
463.982	2063
464.008	1905
464.062	1776
464.076	1701
464.142	1521
464.144	1522
464.211	1142
464.221	1113
464.279	1338
464.301	1380
464.347	1443
464.381	1448
464.414	1313
464.461	1230
464.482	1256
464.540	1206
464.550	1124
464.617	573
464.620	562
464.685	1901
464.699	2099
464.753	1782
464.779	1763
464.820	1965
464.859	1812
464.888	1307
464.938	870
464.956	1328
465.018	2662
465.023	2643
465.091	2373
465.098	2351
465.158	1678
465.177	1451
465.226	1530
465.257	1614
465.293	1858
465.336	1959
465.361	1764
465.416	1659
465.428	1811
465.495	2290
465.496	2294
465.563	2149
465.575	2164
465.631	2383
465.654	2438
465.698	2358
465.734	2282
465.765	2053
465.813	1601
465.833	1628
465.893	1831
465.900	1883
465.968	2206
465.972	2230
466.035	1679
466.052	1488
466.102	2067
466.131	2435
466.170	2078
466.210	1653
466.237	1884
466.290	2401
466.304	2303
466.369	1666
466.372	1667
466.439	1695
466.449	1676
466.506	1751
466.528	1843
466.573	2559
466.607	2939
466.641	3030
466.687	3275
466.708	3396
466.766	3665
466.775	3503
466.842	2191
466.845	2125
466.909	2670
466.925	2795
466.977	2652
467.004	2567
467.044	3072
467.083	3576
467.111	3383
467.163	2984
467.178	2897
467.242	2523
467.245	2548
467.312	2998
467.321	3053
467.379	2958
467.400	2915
467.446	2950
467.480	2966
467.559	3772
467.638	2328
467.717	2904
467.796	3668
467.875	4108
467.955	3552
468.034	4665
468.113	5348
468.192	8050
468.271	8235
468.350	11356
468.429	17973
468.508	19178
468.588	11096
468.667	6506
468.746	5148
468.825	4468
468.904	2768
468.983	3877
469.062	2983
469.141	4487
469.220	2684
469.299	2906
469.378	2089
469.456	3879
469.535	3373
469.614	2661
469.693	2755
469.772	3414
469.851	4559
469.930	4223
470.009	5249
470.088	5603
470.166	10888
470.245	20554
470.324	25139
470.403	12580
470.482	6257
470.560	4575
470.639	4325
470.718	3784
470.797	3042
470.875	2930
470.954	3356
471.033	3422
471.111	1553
471.190	2340
471.269	2578
471.347	2927
471.426	2471
471.505	2948
471.583	2357
471.662	3221
471.740	2842
471.819	2631
471.898	2174
471.976	3916
472.055	2837
472.133	2303
472.212	3202
472.290	2221
472.369	2378
472.447	3572
472.526	2556
472.604	2954
472.683	2781
472.761	3529
472.839	2958
472.918	3343
472.996	3067
473.075	3787
473.153	2748
473.231	2521
473.310	2871
473.388	2737
473.466	2651
473.545	3271
473.623	3472
473.701	3231
473.780	3435
473.858	1562
473.936	4471
474.014	3161
474.093	3238
474.171	3863
474.249	3948
474.327	3361
474.405	2378
474.484	2236
474.562	1481
474.640	2431
474.718	3057
474.796	2260
474.874	3202
474.952	2629
475.030	3143
475.108	2826
475.187	1833
475.265	3399
475.343	3232
475.421	3043
475.499	2737
475.577	2005
475.655	3673
475.733	3503
475.811	3375
475.889	3789
475.966	3354
476.044	2896
476.122	2070
476.200	2117
476.278	2313
476.356	1644
476.434	2876
476.512	3522
476.590	2954
476.667	3105
476.745	2282
476.823	3125
476.901	2273
476.979	2895
477.056	2353
477.134	1843
477.212	2507
477.290	1666
477.367	905
477.445	3373
477.523	2299
477.601	1959
477.678	2286
477.756	2616
477.834	2498
477.911	2100
477.989	2374
478.066	2811
478.144	2310
478.222	2618
478.299	2189
478.377	2638
478.454	2487
478.532	2954
478.609	2773
478.687	2666
478.764	2399
478.842	2113
478.919	2493
478.997	2324
479.074	2641
479.152	2275
479.229	3006
479.307	1997
479.384	2162
479.461	2962
479.539	2394
479.616	2191
479.694	1779
479.771	2924
479.848	1733
479.926	911
480.003	3885
480.080	2579
480.157	2448
480.235	2852
480.312	2538
480.389	3368
480.467	2630
480.544	3329
480.621	2882
480.698	2848
480.775	2703
480.853	3049
480.930	1865
481.007	2273
481.084	1976
481.161	2663
481.238	2770
481.315	2098
481.392	2374
481.470	3247
481.547	2701
481.624	2043
481.701	2172
481.778	2895
481.855	3234
481.932	4090
482.009	3918
482.086	4263
482.163	4837
482.240	6346
482.317	7165
482.393	4955
482.470	3715
482.547	4248
482.624	3710
482.701	3957
482.778	2846
482.855	3527
482.932	2880
483.009	3477
483.085	5408
483.162	4912
483.239	6554
483.316	6584
483.393	7778
483.469	6003
483.546	4030
483.623	4281
483.699	3066
483.776	2614
483.853	2384
483.930	2967
484.006	3277
484.083	5017
484.160	3500
484.236	3754
484.313	3034
484.389	3629
484.466	5489
484.543	6376
484.619	8350
484.696	11640
484.772	6298
484.849	5053
484.925	3796
485.002	4337
485.078	3847
485.155	2730
485.231	3131
485.308	2974
485.384	2974
485.461	3281
485.537	3924
485.614	3484
485.690	2632
485.766	2498
485.843	3230
485.919	3490
485.995	3630
486.072	3904
486.148	2300
486.224	2481
486.301	3274
486.377	2750
486.453	2225
486.530	2854
486.606	3769
486.682	3196
486.758	4107
486.835	3865
486.911	3419
486.987	6414
487.063	5309
487.139	5329
487.215	5953
487.292	8673
487.368	8860
487.444	11067
487.520	15433
487.596	23677
487.672	67085
487.748	225615
487.824	320715
487.900	84612
487.976	20895
488.052	10997
488.128	8809
488.204	5119
488.280	5798
488.356	5230
488.432	5532
488.508	5337
488.584	3522
488.660	3314
488.736	3097
488.812	2995
488.888	3192
488.964	3885
489.039	4114
489.115	5039
489.191	4085
489.267	3116
489.343	3475
489.418	3125
489.494	3849
489.570	902
489.646	3449
489.722	3029
489.797	2326
489.873	3765
489.949	4354
490.024	3678
490.100	3464
490.176	3822
490.251	2777
490.327	3775
490.403	3073
490.478	3356
490.554	2551
490.629	2851
490.705	2910
490.781	3640
490.856	2591
490.932	2817
491.007	2779
491.083	2857
491.158	2790
491.234	3392
491.309	3713
491.385	2807
491.460	2545
491.536	3275
491.611	2494
491.686	3767
491.762	2048
491.837	3057
491.913	3730
491.988	5132
492.063	4052
492.139	4280
492.214	2881
492.289	3097
492.365	1493
492.440	2704
492.515	2611
492.590	2716
492.666	1658
492.741	3473
492.816	2852
492.891	2312
492.967	3071
493.042	3178
493.117	2226
493.192	3517
493.267	5090
493.342	9621
493.418	11082
493.493	3206
493.568	3020
493.643	2175
493.718	2776
493.793	2161
493.868	2150
493.943	3368
494.018	3140
494.093	2280
494.168	2657
494.243	1174
494.318	2773
494.393	3005
494.468	2377
494.543	3377
494.618	2247
494.693	2549
494.768	1745
494.842	3023
494.917	2835
494.992	2652
495.067	2618
495.142	2965
495.217	1536
495.292	2802
495.366	1787
495.441	2206
495.516	3316
495.591	2487
495.665	3674
495.740	7643
495.815	3308
495.890	2939
495.964	604
496.039	4863
496.114	3164
496.188	3417
496.263	2207
496.338	2911
496.412	2267
496.487	2331
496.561	1939
496.636	2650
496.710	2640
496.785	2573
496.860	2375
496.934	2109
497.009	3007
497.083	2945
497.158	2553
497.232	2807
497.307	3409
497.381	3602
497.455	2920
497.530	3134
497.604	2104
497.679	2680
497.753	3670
497.827	2654
497.902	1485
497.976	3464
498.050	5717
498.125	18725
498.199	15539
498.273	3438
498.348	3610
498.422	4123
498.496	3946
498.570	5298
498.645	2097
498.719	1893
498.793	2361
498.867	3235
498.941	3495
499.016	8038
499.090	15454
499.164	6326
499.238	3205
499.312	3313
499.386	3179
499.460	3717
499.534	5122
499.609	4607
499.683	3190
499.757	3913
499.831	3706
499.905	11372
499.979	7898
500.053	3053
500.127	3297
500.201	2531
500.275	3473
500.349	2942
500.422	2894
500.496	4629
500.570	5201
500.644	10282
500.718	11822
500.792	3878
500.866	2732
500.940	2818
501.013	2054
501.087	2169
501.161	1822
501.235	1085
501.309	6520
501.382	9324
501.456	7362
501.530	3427
501.603	2936
501.677	1944
501.751	946
501.825	4264
501.898	2531
501.972	4246
502.046	3008
502.119	2129
502.193	3328
502.266	3877
502.340	2398
502.413	3456
502.487	3735
502.561	1987
502.634	2563
502.708	1884
502.781	1461
502.855	2616
502.928	372
503.002	2509
503.075	1252
503.149	2754
503.222	2209
503.295	1605
503.369	2700
503.442	2841
503.516	4666
503.589	7745
503.662	6731
503.736	6197
503.809	9717
503.882	10540
503.956	17382
504.029	38141
504.102	118501
504.175	162110
504.249	50096
504.322	16640
504.395	7963
504.468	5706
504.542	3613
504.615	2073
504.688	2949
504.761	725
504.834	4355
504.907	2652
504.980	2131
505.053	1075
505.127	150
505.200	4132
505.273	1443
505.346	1632
505.419	737
505.492	3026
505.565	734
505.638	1533
505.711	1172
505.784	867
505.857	1194
505.930	3148
506.003	646
506.076	3501
506.149	1032
506.221	-139
506.294	3748
506.367	335
506.440	4033
506.513	3316
506.586	2039
506.659	375
506.731	1001
506.804	1210
506.877	-283
506.950	1633
507.022	2124
507.095	-2
507.168	895
507.241	2095
507.313	223
507.386	8
507.459	2180
507.531	1279
507.604	-78
507.677	2474
507.749	267
507.822	1872
507.894	424
507.967	2466
508.040	49
508.112	1977
508.185	925
508.257	131
508.330	3308
508.402	976
508.475	385
508.547	2611
508.620	845
508.692	1908
508.765	987
508.837	168
508.909	1996
508.982	1080
509.054	1698
509.127	1369
509.199	1061
509.271	787
509.344	1393
509.416	697
509.488	715
509.560	856
509.633	1430
509.705	1142
509.777	530
509.849	1241
509.922	-690
509.994	898
510.066	2201
510.138	46
510.210	3302
510.283	478
510.355	1725
510.427	2020
510.499	905
510.571	1836
510.643	25
510.715	2102
510.787	-774
510.859	3508
510.931	1039
511.003	1701
511.076	2119
511.148	446
511.219	378
511.291	1926
511.363	2337
511.435	1680
511.507	269
511.579	2733
511.651	2451
511.723	587
511.795	1055
511.867	576
511.939	1790
512.010	1039
512.082	862
512.154	940
512.226	714
512.298	2198
512.369	1309
512.441	2866
512.513	1350
512.585	1148
512.656	2364
512.728	1156
512.800	386
512.871	1982
512.943	1734
513.015	-7
513.086	1906
513.158	1791
513.230	162
513.301	1017
513.373	2225
513.444	508
513.516	2112
513.588	905
513.659	1777
513.731	1359
513.802	88
513.874	2687
513.945	1792
514.016	405
514.088	2349
514.159	228
514.231	1157
514.302	1503
514.374	2487
514.445	-1111
514.516	3883
514.588	1074
514.659	1571
514.730	916
514.802	2736
514.873	-588
514.944	4219
515.016	1657
515.087	470
515.158	1655
515.229	2768
515.301	-370
515.372	2116
515.443	1043
515.514	838
515.585	570
515.656	2497
515.728	2615
515.799	1027
515.870	2753
515.941	2880
516.012	2595
516.083	5273
516.154	3672
516.225	5767
516.296	8776
516.367	7971
516.438	11078
516.509	14968
516.580	27824
516.651	116245
516.722	361833
516.793	96774
516.864	21779
516.935	21146
517.006	25692
517.077	35153
517.148	97121
517.219	492041
517.289	589668
517.360	64846
517.431	18965
517.502	10392
517.573	10631
517.643	8357
517.714	9369
517.785	11101
517.856	13026
517.926	18482
517.997	22542
518.068	27969
518.138	41660
518.209	76744
518.280	319264
518.350	984261
518.421	282167
518.492	41772
518.562	26125
518.633	26627
518.703	34498
518.774	81552
518.845	218472
518.915	177930
518.986	42459
519.056	17963
519.127	12040
519.197	9581
519.268	8704
519.338	6795
519.408	4484
519.479	3602
519.549	2136
519.620	4318
519.690	2341
519.760	1859
519.831	2270
519.901	1564
519.971	2734
520.042	1123
520.112	531
520.182	2043
520.253	2775
520.323	914
520.393	900
520.463	3061
520.534	-354
520.604	4426
520.674	3029
520.744	11
520.814	832
520.885	3080
520.955	2184
521.025	4551
521.095	1648
521.165	2705
521.235	948
521.305	696
521.375	2143
521.445	1466
521.515	-4
521.585	1362
521.655	-196
521.725	2688
521.795	1957
521.865	-788
521.935	3348
522.005	625
522.075	819
522.145	2207
522.215	281
522.285	2584
522.355	1607
522.424	2742
522.494	308
522.564	1820
522.634	1519
522.704	4106
522.774	390
522.843	1923
522.913	1941
522.983	1685
523.053	593
523.122	2444
523.192	1225
523.262	2643
523.331	1464
523.401	2321
523.471	2273
523.540	2185
523.610	1236
523.680	1732
523.749	1511
523.819	1478
523.888	1591
523.958	1534
524.027	2057
524.097	1166
524.166	2456
524.236	195
524.305	3747
524.375	773
524.444	1162
524.514	3718
524.583	461
524.653	696
524.722	2653
524.791	889
524.861	3827
524.930	633
524.999	1769
525.069	2626
525.138	1736
525.207	2204
525.277	3079
525.346	2039
525.415	3702
525.484	5152
525.554	4090
525.623	7464
525.692	8865
525.761	11665
525.830	14940
525.900	19674
525.969	32448
526.038	61916
526.107	146495
526.176	398545
526.245	265846
526.314	78173
526.383	205396
526.452	242987
526.522	409887
526.591	303294
526.660	43746
526.729	29658
526.797	33454
526.867	50100
526.935	164467
527.004	632538
527.073	309558
527.142	33649
527.211	14028
527.280	10776
527.349	7865
527.418	4482
527.487	5198
527.555	1977
527.624	3518
527.693	1372
527.762	3677
527.831	2301
527.899	4066
527.968	2998
528.037	605
528.106	2121
528.174	2696
528.243	3098
528.312	2485
528.380	1577
528.449	474
528.518	3359
528.586	415
528.655	2341
528.723	1523
528.792	1071
528.861	855
528.929	141
528.998	2701
529.066	1615
529.135	1957
529.203	703
529.272	801
529.340	1900
529.409	3669
529.477	652
529.545	611
529.614	3010
529.682	549
529.751	492
529.819	4429
529.887	634
529.956	1285
530.024	1583
530.092	969
530.161	1978
530.229	2089
530.297	1149
530.365	2929
530.434	1867
530.502	587
530.570	1945
530.638	-533
530.707	2305
530.775	3437
530.843	1606
530.911	2123
530.979	3008
531.047	2012
531.115	2228
531.183	2324
531.252	1882
531.320	1516
531.388	886
531.456	2616
531.524	225
531.592	2638
531.660	3724
531.728	967
531.796	1007
531.864	1782
531.932	815
532.000	2355
532.067	515
532.135	1031
532.203	2665
532.271	2615
532.339	2920
532.407	3093
532.475	2758
532.542	2789
532.610	1868
532.678	321
532.746	4475
532.814	6139
532.881	2043
532.949	2439
533.017	3154
533.084	1975
533.152	2045
533.220	2321
533.287	1356
533.355	2581
533.423	2505
533.490	1723
533.558	2342
533.625	2449
533.693	1727
533.761	2737
533.828	2706
533.896	749
533.963	2518
534.031	3406
534.098	4002
534.166	4194
534.233	3667
534.300	5894
534.368	4993
534.435	4745
534.503	7148
534.570	7341
534.637	7697
534.705	10490
534.772	15186
534.840	35357
534.907	183745
534.974	176858
535.041	15750
535.109	6801
535.176	4961
535.243	5464
535.310	4174
535.378	3803
535.445	4146
535.512	3841
535.579	4788
535.646	3445
535.714	4546
535.781	5267
535.848	4766
535.915	5023
535.982	2941
536.049	3721
536.116	4885
536.183	3315
536.250	4248
536.317	3157
536.384	3922
536.451	3717
536.518	4298
536.585	2291
536.652	4926
536.719	5533
536.786	2330
536.853	2903
536.920	4819
536.987	4240
537.053	2838
537.120	6758
537.187	6700
537.254	4538
537.321	3670
537.388	4654
537.454	4099
537.521	4816
537.588	3525
537.654	5723
537.721	5102
537.788	5001
537.855	4524
537.921	3648
537.988	3666
538.055	5094
538.121	3486
538.188	3314
538.254	3156
538.321	3728
538.388	5195
538.454	4841
538.521	5278
538.587	4744
538.654	4703
538.720	4247
538.787	5007
538.853	5257
538.920	4848
538.986	3323
539.053	3614
539.119	4837
539.185	3669
539.252	5511
539.318	3726
539.385	6291
539.451	3054
539.517	5031
539.583	4979
539.650	4373
539.716	4783
539.782	4015
539.849	2908
539.915	4974
539.981	4219
540.047	3892
540.114	3923
540.180	6060
540.246	3302
540.312	4239
540.378	4972
540.444	6265
540.510	5516
540.576	5906
540.643	4035
540.709	3724
540.775	4602
540.841	4017
540.907	4670
540.973	5110
541.039	4277
541.105	5382
541.171	5035
541.237	4061
541.303	5114
541.369	7328
541.435	5143
541.500	4179
541.566	3904
541.632	4800
541.698	4901
541.764	6273
541.830	4725
541.896	4164
541.961	4530
542.027	4187
542.093	5095
542.159	4861
542.224	3677
542.290	5349
542.356	4423
542.421	5211
542.487	5327
542.553	3501
542.618	3828
542.684	4169
542.750	4437
542.815	5164
542.881	4175
542.947	5950
543.012	6565
543.078	4362
543.143	4135
543.209	4848
543.274	4116
543.340	4756
543.405	4814
543.471	5275
543.536	4966
543.602	5098
543.667	3259
543.732	5479
543.798	4143
543.863	6097
543.928	4953
543.994	5141
544.059	5690
544.124	6061
544.190	5213
544.255	4615
544.320	5215
544.386	4530
544.451	6442
544.516	6004
544.581	5010
544.646	6224
544.712	6603
544.777	7000
544.842	5571
544.907	5016
544.972	5011
545.037	6053
545.102	6603
545.168	5482
545.233	6494
545.298	7053
545.363	5489
545.428	7079
545.493	7726
545.558	7423
545.623	7011
545.688	6632
545.753	7227
545.818	7368
545.883	9028
545.947	7874
546.012	8205
546.077	7319
546.142	9074
546.207	9035
546.272	10496
546.337	10444
546.401	10066
546.466	11009
546.531	9652
546.596	12186
546.661	12714
546.725	14329
546.790	13432
546.855	16202
546.919	16944
546.984	20267
547.049	20267
547.113	24525
547.178	26599
547.243	31568
547.307	35903
547.372	38508
547.436	39746
547.501	40960
547.565	45023
547.630	40543
547.695	39032
547.759	39159
547.823	39394
547.888	41680
547.952	41459
548.017	43907
548.081	44282
548.146	44618
548.210	45827
548.274	49651
548.339	46838
548.403	44302
548.468	40766
548.532	40538
548.596	42257
548.660	41530
548.725	46537
548.789	50016
548.853	48217
548.917	45328
548.982	43428
549.046	39504
549.110	36671
549.174	37457
549.238	42706
549.303	48359
549.367	50827
549.431	47246
549.495	44473
549.559	44826
549.623	52079
549.687	56320
549.751	55073
549.815	66210
549.879	66078
549.943	62887
550.007	67708
550.071	66053
550.135	59152
550.199	56172
550.263	55724
550.327	52932
550.391	53045
550.455	60418
550.519	64122
550.582	68796
550.646	77301
550.710	78303
550.774	75913
550.838	78945
550.901	81783
550.965	87948
551.029	90238
551.093	98566
551.156	111346
551.220	131700
551.284	151445
551.347	107015
551.411	84883
551.475	81646
551.538	83572
551.602	77519
551.666	74640
551.729	68725
551.793	67644
551.856	65867
551.920	65731
551.983	64388
552.047	64204
552.110	65534
552.174	64396
552.237	66147
552.301	60731
552.364	59756
552.428	57396
552.491	60710
552.554	61151
552.618	61523
552.681	65070
552.745	64542
552.808	81614
552.871	90866
552.934	69962
552.998	62387
553.061	59947
553.124	58070
553.187	58694
553.251	59410
553.314	59765
553.377	60191
553.440	63896
553.503	66704
553.567	67691
553.630	64768
553.693	64578
553.756	64007
553.819	62164
553.882	61316
553.945	60296
554.008	60466
554.071	61487
554.134	61712
554.197	58042
554.260	56709
554.323	58759
554.386	58854
554.449	61150
554.512	61523
554.575	57392
554.638	58746
554.701	57010
554.764	56490
554.827	54645
554.889	52412
554.952	49847
555.015	49231
555.078	50461
555.141	50959
555.203	48747
555.266	49229
555.329	48204
555.391	46947
555.454	46844
555.517	45405
555.580	43373
555.642	40475
555.705	41086
555.768	40121
555.830	38208
555.893	37331
555.955	35949
556.018	36463
556.080	36364
556.143	36763
556.206	36346
556.268	35377
556.330	35456
556.393	33987
556.455	33174
556.518	31721
556.580	31727
556.643	29581
556.705	28644
556.767	28183
556.830	28136
556.892	28378
556.955	27757
557.017	28536
557.079	26772
557.142	27121
557.204	27076
557.266	27232
557.328	24071
557.391	22996
557.453	22488
557.515	23553
557.577	23458
557.639	24092
557.701	23982
557.764	24178
557.826	25428
557.888	26506
557.950	29591
558.012	32010
558.074	47026
558.136	117311
558.198	240702
558.260	67567
558.322	30103
558.384	31379
558.446	34415
558.508	39091
558.570	43783
558.632	51185
558.694	68885
558.756	129183
558.818	388567
558.880	729623
558.942	244363
559.003	259727
559.065	101968
559.127	44641
559.189	43277
559.251	50811
559.312	80094
559.374	205663
559.436	554101
559.498	218371
559.559	50579
559.621	44626
559.683	54185
559.744	96184
559.806	310365
559.868	367007
559.929	66481
559.991	49453
560.052	91593
560.114	244753
560.176	128873
560.237	147975
560.299	197093
560.360	34207
560.422	14998
560.483	13437
560.545	12367
560.606	10596
560.667	10738
560.729	10009
560.790	9973
560.852	8420
560.913	8691
560.974	8734
561.036	9183
561.097	9002
561.158	9088
561.220	7741
561.281	6974
561.342	7583
561.403	7691
561.465	7727
561.526	8905
561.587	7899
561.648	6341
561.709	7331
561.771	7240
561.832	6377
561.893	6471
561.954	6229
562.015	6980
562.076	6713
562.137	5638
562.198	6645
562.259	6375
562.320	5844
562.381	6142
562.442	7556
562.503	5787
562.564	6463
562.625	5605
562.686	5870
562.747	5303
562.808	6284
562.869	5159
562.930	5439
562.991	5337
563.051	6175
563.112	5574
563.173	4955
563.234	4749
563.294	5294
563.355	4692
563.416	5855
563.477	5458
563.537	4412
563.598	5553
563.659	4447
563.720	4716
563.780	5486
563.841	4880
563.901	5114
563.962	4490
564.023	5076
564.083	5207
564.144	5594
564.204	4004
564.265	4699
564.325	4034
564.386	5497
564.446	5134
564.507	4861
564.567	3675
564.628	3261
564.688	3298
564.749	4207
564.809	5423
564.869	4633
564.930	4969
564.990	4402
565.050	3889
565.111	4040
565.171	3662
565.231	4405
565.292	5223
565.352	4103
565.412	4478
565.472	4355
565.532	3627
565.593	4169
565.653	3733
565.713	4260
565.773	4162
565.833	3300
565.893	4661
565.953	3594
566.013	4122
566.074	4491
566.134	4335
566.194	4222
566.254	4491
566.314	3992
566.374	3909
566.434	4058
566.494	3805
566.554	4075
566.614	3950
566.673	3800
566.733	4910
566.793	4459
566.853	4049
566.913	3992
566.973	3677
567.033	4908
567.092	4144
567.152	3690
567.212	4638
567.272	5047
567.331	5197
567.391	4445
567.451	5242
567.511	5469
567.570	5377
567.630	4284
567.690	4232
567.749	5102
567.809	3318
567.868	5729
567.928	4875
567.988	4816
568.047	3726
568.107	5068
568.166	4642
568.226	5061
568.285	4785
568.345	4092
568.404	4869
568.464	5658
568.523	3421
568.582	5138
568.642	4848
568.701	4936
568.761	5214
568.820	4637
568.879	5143
568.939	5647
568.998	4570
569.057	4406
569.116	4687
569.176	4804
569.235	4496
569.294	4573
569.353	3780
569.413	3784
569.472	3745
569.531	4040
569.590	3068
569.649	5177
569.708	3685
569.767	4804
569.827	4310
569.886	4186
569.945	4029
570.004	4874
570.063	3839
570.122	4910
570.181	5210
570.240	3790
570.299	4116
570.358	5342
570.417	4241
570.475	4321
570.534	4867
570.593	4963
570.652	5067
570.711	4815
570.770	3857
570.829	5309
570.887	4175
570.946	5253
571.005	4914
571.064	6563
571.122	7354
571.181	5696
571.240	4780
571.299	5213
571.357	4906
571.416	3880
571.475	4847
571.533	4424
571.592	5465
571.650	6051
571.709	5318
571.768	6810
571.826	6828
571.885	6653
571.943	5131
572.002	5183
572.060	5053
572.119	4795
572.177	4821
572.236	5255
572.294	4946
572.352	6089
572.411	5724
572.469	5583
572.528	5440
572.586	4352
572.644	4753
572.703	5131
572.761	4835
572.819	4679
572.877	3178
572.936	4031
572.994	4015
573.052	4564
573.110	5082
573.169	4696
573.227	5172
573.285	5042
573.343	4993
573.401	4463
573.459	5471
573.517	5109
573.576	5582
573.634	5907
573.692	5660
573.750	5922
573.808	5048
573.866	4761
573.924	4535
573.982	4750
574.040	5168
574.098	4617
574.155	4486
574.213	5033
574.271	4177
574.329	5245
574.387	4786
574.445	4634
574.503	4379
574.560	3885
574.618	4396
574.676	4042
574.734	3370
574.792	4351
574.849	3972
574.907	3283
574.965	4518
575.022	2727
575.080	2726
575.138	3970
575.195	2570
575.253	3179
575.311	3280
575.368	3619
575.426	2385
575.483	4400
575.541	3459
575.598	3216
575.656	3530
575.713	4216
575.771	3611
575.828	3324
575.886	3059
575.943	4548
576.001	2784
576.058	2596
576.115	2809
576.173	2818
576.230	2780
576.287	3572
576.345	3782
576.402	3997
576.459	3844
576.517	3638
576.574	3855
576.631	3108
576.688	3363
576.746	2711
576.803	3321
576.860	2840
576.917	3991
576.974	3880
577.031	3498
577.089	4035
577.146	3096
577.203	3174
577.260	3291
577.317	2822
577.374	2486
577.431	3129
577.488	3483
577.545	2966
577.602	3019
577.659	3368
577.716	3605
577.773	2305
577.830	2047
577.886	2923
577.943	3550
578.000	2997
578.057	3024
578.114	3502
578.171	2703
578.227	2934
578.284	2289
578.341	3205
578.398	2723
578.454	3937
578.511	3337
578.568	3209
578.625	2625
578.681	2875
578.738	3162
578.794	3331
578.851	3363
578.908	3118
578.964	3478
579.021	2267
579.077	3058
579.134	3885
579.190	2802
579.247	3661
579.303	1908
579.360	2787
579.416	2581
579.473	2849
579.529	2084
579.586	3565
579.642	2878
579.698	2713
579.755	3107
579.811	3283
579.867	2993
579.924	2875
579.980	2856
580.036	3691
580.093	4083
580.149	4409
580.205	3994
580.261	4315
580.317	3177
580.374	4476
580.430	2856
580.486	3182
580.542	3104
580.598	4190
580.619	4145
580.654	4069
580.692	3672
580.710	3482
580.765	3613
580.767	3620
580.823	3768
580.838	3952
580.879	4459
580.911	4114
580.935	3857
580.984	3305
580.991	3234
581.047	4370
581.057	4250
581.103	3749
581.130	3980
581.159	4212
581.203	3726
581.215	3605
581.270	4205
581.276	4121
581.326	3333
581.349	3460
581.382	3628
581.422	3566
581.438	3562
581.494	3683
581.494	3676
581.550	3075
581.567	3341
581.606	3890
581.640	3687
581.661	3592
581.713	4502
581.717	4577
581.773	3703
581.786	3728
581.829	3740
581.859	3530
581.885	3403
581.932	3713
581.940	3778
581.996	4092
582.004	4090
582.052	3981
582.077	3813
582.107	3622
582.150	3353
582.163	3294
582.219	3269
582.223	3341
582.274	4103
582.296	3873
582.330	3503
582.368	3731
582.386	3904
582.441	3533
582.441	3532
582.497	3744
582.514	3788
582.552	3989
582.587	3894
582.608	3827
582.659	3861
582.663	3857
582.719	3720
582.732	3683
582.774	3667
582.805	3885
582.830	4038
582.877	3980
582.885	3962
582.941	3838
582.950	3843
582.996	3881
583.023	4224
583.052	4786
583.095	3893
583.107	3583
583.162	4312
583.168	4395
583.218	5029
583.240	4590
583.273	3887
583.313	3924
583.328	4088
583.384	3989
583.385	3995
583.439	3686
583.458	3737
583.494	4031
583.531	3994
583.549	4005
583.603	4085
583.605	4079
583.660	3368
583.676	3442
583.715	3640
583.748	3963
583.770	4281
583.820	4196
583.825	4162
583.881	4351
583.893	4204
583.936	3857
583.965	3698
583.991	3499
584.038	3601
584.046	3631
584.101	4172
584.110	4149
584.156	3959
584.183	3892
584.211	3942
584.255	4326
584.266	4398
584.321	4872
584.328	4905
584.376	5194
584.400	5299
584.431	5385
584.472	4951
584.486	4776
584.541	4537
584.545	4574
584.596	5200
584.617	5072
584.651	5135
584.689	5578
584.706	5625
584.761	5936
584.762	5932
584.816	5497
584.834	5716
584.871	6177
584.906	6416
584.926	6644
584.978	6934
584.980	6942
585.035	8605
585.051	8791
585.090	9364
585.123	10745
585.145	11655
585.195	11843
585.200	11910
585.254	13859
585.267	14705
585.309	17134
585.340	18441
585.364	19707
585.412	23614
585.419	24301
585.473	31307
585.484	33320
585.528	43905
585.556	55297
585.583	76601
585.628	128253
585.637	144998
585.692	297549
585.700	319802
585.747	385768
585.772	314930
585.801	187519
585.845	64872
585.856	49412
585.910	24972
585.917	22735
585.965	17173
585.989	15120
586.019	13572
586.061	11732
586.074	11252
586.128	10508
586.133	10444
586.183	9884
586.205	9482
586.237	9224
586.277	9546
586.292	9579
586.346	9120
586.349	9088
586.401	8607
586.421	8852
586.455	9262
586.493	8930
586.509	8945
586.564	9449
586.565	9471
586.618	10778
586.637	11213
586.672	12494
586.709	14668
586.727	15489
586.781	16207
586.781	16203
586.835	11864
586.853	11081
586.889	10211
586.925	9266
586.944	8942
586.996	8952
586.998	8962
587.052	9329
587.068	9279
587.106	9393
587.140	9477
587.161	9419
587.212	9882
587.215	9909
587.269	9583
587.284	9695
587.323	9866
587.356	9948
587.377	10236
587.427	10671
587.431	10661
587.485	10516
587.499	10466
587.539	10849
587.571	11023
587.593	11064
587.643	11844
587.648	11947
587.702	12466
587.715	12615
587.755	12578
587.786	12556
587.810	12576
587.858	12458
587.864	12459
587.917	12675
587.930	12608
587.971	12524
588.001	12542
588.025	12483
588.073	12519
588.079	12557
588.133	13047
588.145	13093
588.187	12913
588.217	12609
588.241	12951
588.288	14105
588.295	14138
588.348	14553
588.360	14603
588.402	15505
588.431	15970
588.456	16039
588.503	16363
588.510	16522
588.564	17697
588.575	18139
588.617	19903
588.646	21038
588.671	22152
588.718	24413
588.725	24960
588.778	30627
588.789	32353
588.832	49640
588.861	63956
588.886	91288
588.932	154401
588.939	159740
588.993	193301
589.004	188777
589.047	97538
589.075	49754
589.100	37356
589.147	23878
589.154	23365
589.207	20481
589.218	20076
589.261	20569
589.290	21162
589.314	22263
589.361	24788
589.368	25694
589.421	34811
589.433	37332
589.475	65094
589.504	87904
589.528	114897
589.576	171998
589.582	166781
589.635	79166
589.647	62857
589.689	34774
589.718	20223
589.742	18859
589.790	16309
589.795	16150
589.849	15002
589.861	14783
589.902	14445
589.932	14034
589.955	13973
590.004	14261
590.009	14305
590.062	14656
590.075	14630
590.115	14288
590.146	14222
590.168	14139
590.218	13775
590.222	13789
590.275	13776
590.289	13850
590.328	14455
590.360	14783
590.381	14804
590.431	14991
590.435	15006
590.488	14924
590.503	14876
590.541	14776
590.574	14765
590.594	15257
590.645	16604
590.647	16627
590.700	16635
590.716	16654
590.753	17032
590.787	17409
590.806	17646
590.859	18301
590.859	18324
590.912	18644
590.930	18797
590.965	18694
591.001	18545
591.018	18545
591.071	18284
591.072	18265
591.124	18546
591.143	18609
591.177	18519
591.214	18433
591.230	18713
591.283	19534
591.285	19541
591.336	18635
591.356	18325
591.389	18724
591.427	19132
591.442	18965
591.495	18252
591.498	18189
591.547	18658
591.569	18854
591.600	19050
591.640	19150
591.653	19420
591.706	20634
591.711	20745
591.759	20331
591.782	20072
591.811	20544
591.853	21213
591.864	21263
591.917	21379
591.924	21383
591.969	21776
591.995	21951
592.022	21759
592.066	21452
592.075	21625
592.127	22613
592.137	22766
592.180	22682
592.208	22630
592.233	23108
592.279	23967
592.285	24077
592.338	24817
592.350	24977
592.390	24378
592.421	23865
592.443	24337
592.491	25322
592.495	25337
592.548	25231
592.562	25189
592.600	25887
592.633	26448
592.653	26086
592.704	24971
592.705	25148
592.775	26980
592.846	27080
592.916	27640
592.987	27544
593.058	28758
593.128	28394
593.199	28205
593.270	29526
593.341	29638
593.411	31892
593.482	32107
593.553	33825
593.623	33622
593.694	33652
593.764	35248
593.835	34249
593.906	34470
593.976	34873
594.047	35095
594.117	38186
594.188	38594
594.258	38470
594.329	39795
594.399	39911
594.470	40457
594.540	43084
594.611	42814
594.681	42508
594.751	42651
594.822	45784
594.892	44830
594.963	47225
595.033	48605
595.103	50583
595.174	50466
595.244	51715
595.314	53281
595.384	55739
595.455	56598
595.525	58719
595.595	60710
595.665	61966
595.736	59807
595.806	60741
595.876	61797
595.946	61857
596.016	64627
596.087	67177
596.157	67649
596.227	68025
596.297	71907
596.367	75900
596.437	80160
596.507	79586
596.577	79185
596.647	82585
596.717	86209
596.787	87968
596.857	87518
596.927	89167
596.997	88879
597.067	89504
597.137	91791
597.207	91720
597.277	91622
597.347	87587
597.417	84905
597.487	85860
597.557	87058
597.626	90904
597.696	91492
597.766	91240
597.836	85960
597.906	81183
597.975	77821
598.045	79975
598.115	83973
598.185	91625
598.254	102139
598.324	112631
598.394	112125
598.464	108242
598.533	106449
598.603	98694
598.672	96134
598.742	97991
598.812	97990
598.881	102528
598.951	101149
599.020	103612
599.090	106847
599.159	108843
599.229	104510
599.299	101550
599.368	106852
599.437	103483
599.507	95375
599.576	92133
599.646	89516
599.715	89392
599.785	87810
599.854	84848
599.924	82454
599.993	82969
600.062	84852
600.132	87131
600.201	94286
600.270	109656
600.340	115590
600.409	112046
600.478	110708
600.547	114796
600.617	100961
600.686	79686
600.755	71628
600.824	67893
600.894	65803
600.963	67371
601.032	67257
601.101	63629
601.170	60377
601.239	58423
601.308	58169
601.378	59018
601.447	57904
601.516	58859
601.585	60090
601.654	60369
601.723	60489
601.792	62144
601.861	64843
601.930	67054
601.999	66430
602.068	67610
602.137	66951
602.206	70596
602.275	71032
602.343	71518
602.412	71853
602.481	71817
602.550	73890
602.619	74396
602.688	76454
602.756	76562
602.825	77958
602.894	80733
602.963	81859
603.032	82132
603.100	82298
603.169	82723
603.238	82434
603.307	84522
603.375	85460
603.444	87883
603.513	88690
603.581	90489
603.650	90661
603.719	90486
603.787	92120
603.856	96251
603.924	97989
603.993	102365
604.061	105702
604.130	111023
604.198	112529
604.267	116034
604.335	117250
604.404	118381
604.472	122435
604.541	122856
604.609	121223
604.678	122982
604.746	124796
604.815	127702
604.883	130381
604.951	132377
605.020	132290
605.088	135729
605.156	138066
605.225	140084
605.293	139709
605.361	141488
605.429	143241
605.498	145347
605.566	148561
605.634	156772
605.702	161868
605.771	166512
605.839	166949
605.907	165320
605.975	159253
606.043	156110
606.111	154398
606.180	155361
606.248	153636
606.316	151509
606.384	151539
606.452	154521
606.520	158190
606.588	163976
606.656	164985
606.724	161330
606.792	150572
606.860	134660
606.928	123133
606.996	118826
607.064	116505
607.132	121287
607.200	128667
607.267	132777
607.335	135661
607.403	139332
607.471	131603
607.539	129641
607.607	129468
607.674	113130
607.742	115036
607.810	113817
607.878	112688
607.946	117453
608.013	121969
608.081	123151
608.149	124418
608.216	130378
608.284	133978
608.352	133495
608.419	130923
608.487	129612
608.555	127887
608.622	131216
608.690	140611
608.757	156042
608.825	157084
608.893	153347
608.960	143208
609.028	138380
609.095	139550
609.163	138031
609.230	121831
609.298	113793
609.365	117938
609.432	130459
609.500	140414
609.567	162363
609.635	184355
609.702	191535
609.769	181189
609.837	136939
609.904	121223
609.971	124870
610.039	137562
610.106	172957
610.173	297407
610.241	580529
610.308	311580
610.375	150082
610.442	133012
610.509	126632
610.577	127783
610.644	129501
610.711	132889
610.778	138195
610.845	143497
610.912	153628
610.980	156715
611.047	157765
611.114	155234
611.181	150013
611.248	149112
611.315	159218
611.382	161306
611.449	169223
611.516	172859
611.583	168180
611.650	168381
611.717	171183
611.784	173889
611.851	180395
611.918	187373
611.984	212894
612.051	275663
612.118	472037
612.185	884707
612.252	559100
612.319	247656
612.386	219289
612.452	201486
612.519	191748
612.586	187304
612.653	192646
612.719	199505
612.786	191704
612.853	177205
612.919	177119
612.986	178197
613.053	167792
613.120	156622
613.186	150316
613.253	152741
613.319	152078
613.386	153646
613.453	156173
613.519	156640
613.586	153792
613.652	153717
613.719	152855
613.785	157457
613.852	156888
613.918	156940
613.985	159866
614.051	164495
614.118	161796
614.184	155769
614.250	156514
614.317	160457
614.383	158820
614.449	162329
614.516	160639
614.582	161063
614.648	157039
614.715	156607
614.781	153256
614.847	153956
614.914	150034
614.980	147364
615.046	150278
615.112	154290
615.179	154445
615.245	155627
615.311	152549
615.377	155645
615.443	155303
615.509	158879
615.575	164450
615.642	162795
615.708	166199
615.774	172103
615.840	179377
615.906	188485
615.972	219132
616.038	303009
616.104	544466
616.170	978842
616.236	759739
616.302	324965
616.368	267643
616.434	202022
616.500	191850
616.565	213356
616.631	258641
616.697	210275
616.763	220601
616.829	327492
616.895	534110
616.961	461932
617.026	218971
617.092	170662
617.158	163434
617.224	158475
617.289	147610
617.355	141346
617.421	138065
617.487	139254
617.552	132963
617.618	132300
617.684	129510
617.749	135329
617.815	128067
617.880	122933
617.946	124511
618.012	127407
618.077	130269
618.143	124135
618.208	125523
618.274	135205
618.339	133705
618.405	108933
618.470	112091
618.536	108652
618.601	108910
618.667	99562
618.732	95422
618.798	95016
618.863	93992
618.928	93876
618.994	94889
619.059	94649
619.124	94778
619.190	93502
619.255	92675
619.320	93487
619.386	93960
619.451	91570
619.516	88556
619.581	90412
619.647	92862
619.712	92892
619.777	89372
619.842	88918
619.907	92120
619.972	92229
620.038	92913
620.103	89233
620.168	89632
620.233	91408
620.298	92936
620.363	93906
620.428	97529
620.493	98813
620.558	101700
620.623	102025
620.688	101144
620.753	101233
620.818	100608
620.883	103111
620.948	101777
621.013	99908
621.078	98462
621.143	99572
621.207	101668
621.272	97946
621.337	95320
621.402	94445
621.467	92301
621.532	92571
621.596	94025
621.661	91697
621.726	90843
621.791	90746
621.855	91661
621.920	90383
621.985	92178
622.049	93882
622.114	92581
622.179	94993
622.243	96921
622.308	99193
622.373	104966
622.437	100930
622.502	96315
622.566	94177
622.631	94202
622.695	97424
622.760	96382
622.824	95773
622.889	96565
622.953	96503
623.018	102846
623.082	103162
623.147	102596
623.211	99645
623.276	99880
623.340	94702
623.404	94600
623.469	92519
623.533	95148
623.597	91325
623.662	90721
623.726	84502
623.790	80147
623.854	76583
623.919	79128
623.983	79757
624.047	80980
624.111	81819
624.176	83541
624.240	83537
624.304	87761
624.368	83055
624.432	83787
624.496	87153
624.560	91227
624.625	91451
624.689	90906
624.753	97168
624.817	90999
624.881	87401
624.945	77442
625.009	77675
625.073	79742
625.137	79916
625.201	85670
625.265	84632
625.329	81446
625.393	81810
625.456	84827
625.520	87861
625.584	86726
625.648	89167
625.712	92210
625.776	90066
625.839	85410
625.903	70598
625.967	66618
626.031	74558
626.095	87753
626.158	78749
626.222	60152
626.286	57709
626.349	53958
626.413	49376
626.477	52031
626.540	52698
626.604	52229
626.668	52580
626.731	49676
626.795	50066
626.858	49787
626.922	49773
626.986	49510
627.049	47976
627.113	51975
627.176	49130
627.240	48197
627.303	48198
627.366	47468
627.430	49930
627.493	47985
627.557	46423
627.620	49496
627.684	50926
627.747	50525
627.810	45120
627.874	41536
627.937	39572
628.000	42917
628.064	39529
628.127	35214
628.190	35667
628.253	34559
628.317	32739
628.380	31530
628.443	29723
628.506	29626
628.569	29480
628.632	28077
628.696	27593
628.759	26636
628.822	26137
628.885	25191
628.948	24819
629.011	25344
629.074	23465
629.137	22502
629.200	21358
629.263	24278
629.326	20973
629.389	22563
629.452	22479
629.515	21434
629.578	21762
629.641	22456
629.704	20789
629.767	21253
629.830	21700
629.892	20487
629.955	19984
630.018	22324
630.081	19257
630.144	21492
630.207	19178
630.269	21706
630.332	19123
630.395	19301
630.458	19224
630.520	18131
630.583	18558
630.646	19291
630.708	18809
630.771	18779
630.834	21753
630.896	19829
630.959	20179
631.021	19583
631.084	18397
631.146	20575
631.209	20790
631.272	19112
631.334	20277
631.397	19884
631.459	19964
631.522	21886
631.584	21916
631.646	24925
631.709	25211
631.771	24581
631.834	24568
631.896	23526
631.958	20095
632.021	21051
632.083	18620
632.145	19527
632.208	18616
632.270	19988
632.332	18346
632.395	18048
632.457	19470
632.519	18020
632.581	20427
632.643	17431
632.706	19190
632.768	17004
632.830	18900
632.892	20145
632.954	18424
633.016	20003
633.078	19173
633.141	17895
633.203	18885
633.265	19663
633.327	18582
633.389	17175
633.451	19094
633.513	18106
633.575	19287
633.637	17076
633.698	18669
633.760	21582
633.822	21364
633.884	21824
633.946	21853
634.008	21969
634.070	23590
634.132	25053
634.193	26315
634.255	31033
634.317	29942
634.379	31065
634.441	24770
634.502	22437
634.564	22178
634.626	19574
634.687	18217
634.749	18488
634.811	18457
634.873	17806
634.934	18640
634.996	18596
635.057	16961
635.119	17319
635.181	18652
635.242	18765
635.304	16707
635.365	21171
635.427	16798
635.488	18850
635.550	16836
635.611	18821
635.673	16909
635.734	21120
635.796	21377
635.857	24315
635.918	24363
635.980	29006
636.041	28910
636.102	32454
636.164	33327
636.225	31741
636.286	24470
636.348	23321
636.409	19985
636.470	18601
636.531	18898
636.593	17432
636.654	17244
636.715	17455
636.776	16109
636.838	14727
636.899	15893
636.960	15007
637.021	15975
637.082	14356
637.143	14522
637.204	13304
637.265	13757
637.326	15087
637.387	15255
637.448	13823
637.509	15545
637.570	14561
637.631	15578
637.692	12970
637.753	12060
637.814	13439
637.875	13507
637.936	14449
637.997	12497
638.058	13251
638.119	14061
638.179	13633
638.240	12656
638.301	13440
638.362	12362
638.423	11705
638.483	14143
638.544	10357
638.605	13409
638.666	11825
638.726	11879
638.787	13196
638.848	11788
638.908	11948
638.969	12143
639.030	11737
639.090	9855
639.151	10933
639.211	13051
639.272	13291
639.332	11984
639.393	13446
639.453	12892
639.514	13158
639.574	11947
639.635	10967
639.695	11775
639.756	9761
639.816	10677
639.877	11735
639.937	11330
639.997	11336
640.058	8782
640.118	10245
640.178	11893
640.239	11537
640.299	11355
640.359	10571
640.420	11823
640.480	14628
640.540	15600
640.600	16064
640.661	13593
640.721	11897
640.781	13405
640.841	8342
640.901	10645
640.961	11467
641.021	12057
641.082	12148
641.142	10144
641.202	11980
641.262	8161
641.322	11005
641.382	9483
641.442	9917
641.502	9477
641.562	11229
641.622	9606
641.682	11148
641.742	13180
641.802	11821
641.861	10615
641.921	9941
641.981	9747
642.041	10449
642.101	9301
642.161	7553
642.221	7950
642.280	9932
642.340	8703
642.400	8101
642.460	10253
642.519	9835
642.579	9533
642.639	10377
642.698	7365
642.758	11826
642.818	9620
642.877	8064
642.937	9637
642.997	9377
643.056	10369
643.116	7791
643.175	11215
643.235	10387
643.294	10346
643.354	11830
643.414	12228
643.473	14982
643.532	17761
643.592	23813
643.651	37536
643.711	65967
643.770	129879
643.830	310232
643.889	508504
643.948	129446
644.008	32132
644.067	19863
644.126	15303
644.186	13525
644.245	12333
644.304	9143
644.363	11977
644.423	9664
644.482	10020
644.541	12044
644.600	10327
644.659	15503
644.719	19049
644.778	29116
644.837	51697
644.896	111037
644.955	223982
645.014	61208
645.073	17540
645.132	12814
645.191	11943
645.250	11701
645.309	13356
645.368	13825
645.427	19769
645.486	36155
645.545	57992
645.604	14854
645.663	10588
645.722	9821
645.781	11255
645.840	12373
645.898	15749
645.957	23983
646.016	33889
646.075	64045
646.134	123430
646.192	324974
646.251	380540
646.310	64763
646.369	23895
646.427	20900
646.486	13065
646.545	11861
646.603	10056
646.662	10060
646.721	9172
646.779	9393
646.838	8911
646.896	13631
646.955	17043
647.014	31335
647.072	63707
647.131	162655
647.189	60732
647.248	11468
647.306	9318
647.365	8886
647.423	5453
647.481	8025
647.540	6267
647.598	6959
647.657	6649
647.715	7126
647.773	4668
647.832	7072
647.890	4958
647.948	5243
648.007	6045
648.065	3973
648.123	4647
648.181	6557
648.240	5482
648.298	3920
648.356	4822
648.414	5324
648.472	4849
648.531	4595
648.589	4977
648.647	4602
648.705	4933
648.763	4865
648.821	4827
648.879	5912
648.937	6556
648.995	8375
649.053	10359
649.111	17339
649.169	29394
649.227	54687
649.285	119141
649.343	300619
649.401	114402
649.459	18034
649.516	11185
649.574	7735
649.632	8807
649.690	10534
649.748	13253
649.806	20481
649.863	43059
649.921	121219
649.979	61524
650.037	8886
650.094	3465
650.152	5643
650.210	3507
650.268	4254
650.325	3569
650.383	3543
650.440	2627
650.498	3650
650.556	3252
650.613	3537
650.671	3031
650.728	3593
650.786	4440
650.843	6149
650.901	2289
650.958	3823
651.016	2830
651.073	2642
651.131	2235
651.188	2244
651.246	2233
651.303	2545
651.360	2534
651.418	1749
651.475	2709
651.532	2185
651.590	2928
651.647	1502
651.704	1869
651.762	2151
651.819	2197
651.876	2342
651.933	1565
651.990	3097
652.048	1017
652.105	1714
652.162	2164
652.219	1141
652.276	1893
652.333	2159
652.390	742
652.448	2750
652.505	1797
652.562	1900
652.619	1646
652.676	1914
652.733	2346
652.790	1171
652.847	873
652.904	2837
652.961	118
653.017	1599
653.074	1797
653.131	1879
653.188	638
653.245	1390
653.302	1735
653.359	1625
653.415	1739
653.472	1290
653.529	1333
653.586	1767
653.642	1371
653.699	2573
653.756	1342
653.813	1930
653.869	2438
653.926	1669
653.983	606
654.039	1805
654.096	871
654.152	2665
654.209	487
654.266	1760
654.322	650
654.379	2061
654.435	1987
654.492	611
654.548	1884
654.605	717
654.661	1877
654.717	1603
654.774	1206
654.830	1175
654.887	1155
654.943	1016
655.000	1407
655.056	1847
655.112	1157
655.168	1429
655.225	1488
655.281	2167
655.337	1362
655.394	933
655.450	1994
655.506	1331
655.562	193
655.618	1812
655.675	-45
655.731	1603
655.787	1185
655.843	1554
655.899	886
655.955	2315
656.011	833
656.067	1101
656.123	1210
656.179	1304
656.235	2569
656.291	-120
656.347	2313
656.403	898
656.459	829
656.515	1368
656.571	711
656.627	1029
656.683	905
656.739	1295
656.795	1476
656.850	1674
656.906	1394
656.962	2034
657.018	1517
657.074	1743
657.129	3739
657.185	8088
657.241	17645
657.297	7793
657.352	1053
657.408	1007
657.464	1322
657.519	1232
657.575	49
657.630	843
657.686	-17
657.742	-3
657.797	861
657.853	126
657.908	1469
657.964	282
658.019	267
658.075	791
658.130	1579
658.186	154
658.241	1005
658.297	-777
658.352	683
658.407	795
658.463	-626
658.518	1574
658.573	427
658.629	322
658.684	687
658.739	1113
658.795	-296
658.850	847
658.905	21
658.960	440
659.016	342
659.071	293
659.126	-178
659.181	-37
659.236	1213
659.291	930
659.346	447
659.401	205
659.457	790
659.512	-358
659.567	1139
659.622	794
659.677	1
659.732	-7
659.787	122
659.842	8
659.897	1167
659.952	160
660.007	72
660.061	758
660.116	-1204
660.171	-474
660.226	461
660.281	896
660.336	-522
660.391	733
660.445	-650
660.500	148
660.555	-170
660.610	-512
660.664	916
660.719	37
660.774	200
660.828	460
660.883	765
660.938	430
660.992	-762
661.047	543
661.101	18
661.156	-34
661.211	-896
661.265	527
661.320	-232
661.374	372
661.429	-639
661.483	588
661.538	-786
661.592	-194
661.647	156
661.701	1094
661.755	283
661.810	88
661.864	-494
661.919	-95
661.973	-202
662.027	-460
662.081	-1076
662.136	-122
662.190	274
662.244	362
662.299	188
662.353	536
662.407	-279
662.461	605
662.515	350
662.569	236
662.624	-164
662.678	-374
662.732	-906
662.786	159
662.840	128
662.894	260
662.948	-501
663.002	-210
663.056	726
663.110	-420
663.164	-490
663.218	-102
663.272	393
663.326	480
663.380	-526
663.434	726
663.488	-1114
663.542	380
663.595	-437
663.649	-675
663.703	562
663.757	-525
663.811	-313
663.864	116
663.918	-6
663.972	-213
664.026	546
664.079	58
664.133	202
664.187	660
664.240	268
664.294	457
664.348	-74
664.401	-208
664.455	375
664.508	-272
664.562	-228
664.615	279
664.669	-20
664.722	864
664.776	3
664.829	-229
664.883	-674
664.936	-1118
664.990	-1052
665.043	216
665.097	-231
665.150	838
665.203	2
665.257	208
665.310	-69
665.363	94
665.417	-198
665.470	535
665.523	-70
665.576	-56
665.630	-1168
665.683	18
665.736	214
665.789	-152
665.842	248
665.895	846
665.949	184
666.002	283
666.055	-194
666.108	745
666.161	-11
666.214	986
666.267	-187
666.320	624
666.373	462
666.426	1097
666.479	419
666.532	602
666.585	398
666.638	830
666.691	280
666.744	208
666.796	-161
666.849	350
666.902	668
666.955	854
667.008	656
667.060	-202
667.113	462
667.166	601
667.219	202
667.271	563
667.324	-944
667.377	-304
667.430	-266
667.482	1255
667.535	-870
667.587	528
667.640	-499
667.693	734
667.745	-231
667.798	635
667.850	104
667.903	608
667.955	761
668.008	496
668.060	-228
668.113	73
668.165	-260
668.218	564
668.270	724
668.322	183
668.375	420
668.427	861
668.479	-167
668.532	98
668.584	-547
668.636	307
668.689	550
668.741	132
668.793	766
668.845	-80
668.898	393
668.950	52
669.002	80
669.054	403
669.106	264
669.158	228
669.211	-512
669.263	138
669.315	700
669.367	-30
669.419	-689
669.471	877
669.523	-564
669.575	-19
669.627	-1012
669.679	82
669.731	76
669.783	826
669.835	314
669.886	249
669.938	697
669.990	-152
670.042	-175
670.094	22
670.146	-64
670.197	-62
670.249	30
670.301	-504
670.353	135
670.404	432
670.456	522
670.508	1168
670.560	1075
670.611	2671
670.663	5768
670.715	15542
670.766	19037
670.818	3736
670.869	833
670.921	742
670.972	420
671.024	263
671.075	-269
671.127	492
671.178	82
671.230	1671
671.281	728
671.333	1047
671.384	1916
671.436	3626
671.487	5173
671.538	8402
671.590	14782
671.641	25423
671.692	51627
671.744	90685
671.795	48798
671.846	14471
671.897	5744
671.949	3180
672.000	2619
672.051	1893
672.102	1830
672.153	996
672.204	321
672.256	536
672.307	-169
672.358	854
672.409	100
672.460	-219
672.511	-1087
672.562	-666
672.613	-360
672.664	382
672.715	-844
672.766	-80
672.817	-693
672.868	-373
672.919	-1053
672.970	-100
673.021	-653
673.071	-914
673.122	-1526
673.173	117
673.224	-276
673.275	-97
673.326	-486
673.376	-490
673.427	-1017
673.478	-445
673.528	574
673.579	48
673.630	-869
673.680	878
673.731	-1309
673.782	69
673.832	-530
673.883	486
673.934	-857
673.984	-1117
674.035	-69
674.085	-543
674.136	-324
674.186	103
674.237	-1028
674.287	-44
674.338	-886
674.388	261
674.438	43
674.489	212
674.539	-1334
674.589	621
674.640	-462
674.690	-529
674.740	-958
674.791	484
674.841	-311
674.891	-120
674.942	-750
674.992	-1125
675.042	-1120
675.092	-105
675.142	-1179
675.193	-586
675.243	-1737
675.293	-104
675.343	-805
675.393	-1548
675.443	-345
675.493	-57
675.543	-401
675.593	-316
675.643	-991
675.693	34
675.743	-1068
675.793	-541
675.843	-1031
675.893	-340
675.943	-680
675.993	-92
676.043	-658
676.093	-374
676.142	-1608
676.192	-785
676.242	-592
676.292	-1374
676.341	-1222
676.391	-941
676.441	-495
676.491	-777
676.540	-861
676.590	-594
676.640	-1191
676.689	-1183
676.739	-1546
676.789	-1225
676.838	-892
676.888	-864
676.937	-1155
676.987	-730
677.037	-1187
677.086	-587
677.136	-342
677.185	-640
677.235	-1866
677.284	-667
677.333	-980
677.383	-1568
677.432	-1615
677.482	-855
677.531	-899
677.580	-873
677.630	-780
677.679	-1483
677.728	-1132
677.778	-1332
677.827	-1294
677.876	-754
677.925	-909
677.975	-734
678.024	-1218
678.073	-866
678.122	-337
678.171	-1178
678.220	-1292
678.269	17
678.319	-79
678.368	25
678.417	2
678.466	-1170
678.515	-516
678.564	-589
678.613	-969
678.662	-1220
678.711	-1051
678.760	-1052
678.809	-1261
678.857	-214
678.906	-785
678.955	-1086
679.004	-1061
679.053	-1400
679.102	-1506
679.151	-293
679.199	-963
679.248	-1086
679.297	-1226
679.346	-820
679.394	-1563
679.443	-307
679.492	-1959
679.540	-1101
679.589	-1593
679.638	-569
679.686	-245
679.735	-998
679.784	-966
679.832	-179
679.881	-1861
679.929	-319
679.978	-429
680.026	-611
680.075	-699
680.123	-1443
680.172	-1002
680.220	-552
680.268	-1547
680.317	-1376
680.365	-977
680.414	-2125
680.462	-969
680.510	-753
680.559	-953
680.607	-1098
680.655	-1366
680.703	-946
680.752	-758
680.800	-1073
680.848	-1309
680.896	-1242
680.945	-1655
680.993	-1571
681.041	-1310
681.089	-1414
681.137	-988
681.185	-1298
681.233	-1187
681.258	-1286
681.281	-1403
681.329	-1319
681.377	-90
681.380	-141
681.425	-1498
681.473	-852
681.502	-1296
681.521	-1646
681.569	-1266
681.617	-969
681.624	-969
681.665	-1161
681.713	-1063
681.745	-426
681.761	-151
681.809	-990
681.857	-542
681.867	-479
681.904	-385
681.952	35
681.989	-285
682.000	-404
682.048	-771
682.096	-1107
682.111	-926
682.143	-614
682.191	-369
682.233	431
682.239	526
682.286	-393
682.334	-257
682.354	-445
682.382	-755
682.430	645
682.476	-772
682.477	-823
682.525	-92
682.572	-166
682.598	208
682.620	502
682.667	-98
682.715	861
682.720	846
682.763	463
682.810	40
682.841	-4
682.857	-65
682.905	643
682.952	14
682.963	205
683.000	832
683.047	448
683.085	983
683.095	1104
683.142	363
683.190	618
683.206	633
683.237	602
683.284	1414
683.328	823
683.332	754
683.379	1255
683.426	562
683.449	726
683.473	868
683.521	1005
683.568	979
683.571	994
683.615	991
683.662	988
683.693	1111
683.709	1122
683.757	1453
683.804	945
683.814	971
683.851	1068
683.898	1409
683.936	1629
683.945	1650
683.992	1048
684.039	1996
684.057	1685
684.086	1188
684.133	1906
684.179	1168
684.180	1130
684.227	1626
684.274	1952
684.300	2060
684.321	2107
684.368	1633
684.415	1863
684.422	1781
684.462	1262
684.509	1818
684.543	1628
684.556	1543
684.603	2234
684.649	1932
684.665	2119
684.696	2448
684.743	2314
684.786	2601
684.790	2609
684.837	2120
684.883	2933
684.908	2597
684.930	2313
684.977	2872
685.023	2299
685.029	2274
685.070	1933
685.117	2358
685.150	2541
685.164	2609
685.210	2211
685.257	2668
685.272	2796
685.303	3041
685.350	2935
685.393	2779
685.396	2751
685.443	3160
685.490	2607
685.514	2868
685.536	3103
685.583	2440
685.629	2675
685.636	2673
685.675	2686
685.722	3072
685.757	2841
685.768	2724
685.815	2459
685.861	2330
685.878	2679
685.908	3444
685.954	3227
686.000	3243
686.000	3234
686.047	3148
686.093	3279
686.121	3450
686.139	3567
686.185	3698
686.232	3496
686.242	3423
686.278	3064
686.324	3431
686.363	3831
686.370	3920
686.416	3615
686.463	3591
686.484	3770
686.509	3922
686.555	3646
686.601	3419
686.606	3443
686.647	3572
686.693	3892
686.727	3912
686.739	3950
686.785	3703
686.831	3673
686.848	3630
686.877	3575
686.923	3965
686.969	4156
686.969	4155
687.015	4767
687.061	3472
687.090	4367
687.107	4873
687.153	4421
687.199	4766
687.211	4684
687.245	4424
687.291	4010
687.332	4144
687.336	4160
687.382	4984
687.428	4353
687.453	4531
687.474	4679
687.520	4581
687.565	4230
687.574	4262
687.611	4515
687.657	4685
687.695	5060
687.702	5123
687.748	5363
687.794	5429
687.816	5321
687.839	5148
687.885	5272
687.931	5492
687.937	5474
687.976	5361
688.022	4881
688.058	5196
688.067	5299
688.113	5235
688.158	4701
688.179	5060
688.204	5460
688.249	5374
688.295	5526
688.300	5510
688.340	5510
688.386	5397
688.421	5522
688.431	5522
688.477	5505
688.522	5740
688.542	5483
688.567	5356
688.613	5607
688.658	6413
688.663	6371
688.703	5894
688.749	6133
688.784	6301
688.794	6336
688.839	6038
688.884	6117
688.905	6138
688.930	6141
688.975	5868
689.020	5313
689.026	5287
689.065	5387
689.110	5470
689.146	6057
689.155	6201
689.201	5618
689.246	6089
689.267	5896
689.291	5732
689.336	6199
689.381	6610
689.388	6562
689.426	6209
689.471	6598
689.509	6371
689.516	6375
689.561	6525
689.606	6296
689.630	6422
689.651	6441
689.696	6449
689.741	6760
689.750	6633
689.785	6280
689.830	6522
689.871	6244
689.875	6237
689.920	6381
689.965	6719
689.992	6843
690.010	6831
690.054	6513
690.099	6420
690.112	6240
690.144	5974
690.189	6041
690.233	6185
690.233	6199
690.278	6315
690.323	6736
690.354	7013
690.367	7070
690.412	7278
690.457	7003
690.474	6973
690.501	6936
690.546	6827
690.590	6966
690.595	6930
690.635	6765
690.680	6787
690.716	6713
690.724	6756
690.769	6930
690.813	7354
690.836	7380
690.857	7557
690.902	8127
690.946	8611
690.957	8728
690.991	9785
691.035	11273
691.077	12792
691.080	12771
691.124	11416
691.168	10409
691.198	9410
691.213	9115
691.257	8671
691.301	7580
691.318	7406
691.346	7544
691.390	7042
691.434	7379
691.439	7318
691.478	7040
691.522	7796
691.559	7517
691.567	7513
691.611	7897
691.655	7960
691.680	8078
691.699	8017
691.743	7908
691.787	8009
691.800	7908
691.831	7884
691.875	7551
691.919	7565
691.921	7552
691.964	7921
692.008	8138
692.041	8562
692.052	8677
692.096	8742
692.139	8847
692.162	8715
692.183	8328
692.227	8240
692.271	7140
692.282	7080
692.315	7494
692.359	7776
692.402	7907
692.403	7925
692.447	8094
692.490	7936
692.523	7860
692.534	7870
692.578	8170
692.622	7567
692.643	7877
692.666	8297
692.709	8097
692.753	8203
692.763	8241
692.797	8290
692.840	8117
692.884	8224
692.884	8248
692.928	8320
692.971	8458
693.004	8759
693.015	8713
693.059	8117
693.102	8000
693.124	7667
693.146	7737
693.189	7830
693.233	8135
693.245	8188
693.276	8328
693.320	8793
693.363	8858
693.365	8829
693.407	8604
693.450	9029
693.485	8975
693.493	9008
693.537	9281
693.580	9268
693.605	9437
693.624	10075
693.667	11337
693.710	12695
693.725	13144
693.753	15146
693.797	18273
693.840	21304
693.845	21624
693.883	19265
693.926	16376
693.966	13850
693.970	13721
694.013	12072
694.056	10347
694.086	9217
694.099	9272
694.142	9166
694.185	8943
694.206	8954
694.229	9114
694.272	9252
694.315	9400
694.326	9492
694.358	9647
694.401	9371
694.444	9038
694.446	9029
694.487	9640
694.530	9613
694.566	9788
694.573	9810
694.616	9569
694.659	9399
694.686	9275
694.702	9382
694.745	9820
694.787	9831
694.806	9986
694.830	9877
694.873	9316
694.916	9049
694.926	8953
694.959	9431
695.002	9753
695.044	10227
695.046	10222
695.087	10540
695.130	10786
695.166	11016
695.172	11057
695.215	10895
695.258	10960
695.286	10815
695.301	10961
695.343	11667
695.386	12109
695.406	12306
695.428	12753
695.471	13446
695.514	14525
695.526	14722
695.556	15258
695.599	15940
695.641	16575
695.646	16621
695.684	15813
695.726	14586
695.766	13648
695.769	13670
695.811	13222
695.854	12975
695.886	12766
695.896	12867
695.938	12882
695.981	13177
696.005	13252
696.023	13850
696.065	15104
696.108	16493
696.125	16986
696.150	17199
696.192	17718
696.235	18012
696.245	18051
696.277	17826
696.319	17416
696.361	17135
696.365	17058
696.404	16944
696.446	16631
696.485	16428
696.488	16477
696.530	16510
696.572	16504
696.604	16553
696.614	16629
696.656	16598
696.698	16738
696.724	16746
696.740	16795
696.783	16718
696.825	16680
696.844	16638
696.867	16821
696.909	16945
696.951	17219
696.964	17252
696.992	17428
697.034	17491
697.076	17693
697.083	17670
697.118	18202
697.160	18815
697.202	19381
697.203	19345
697.244	19274
697.286	19037
697.323	18859
697.327	18898
697.369	18828
697.411	18651
697.442	18495
697.453	18484
697.494	18162
697.536	17990
697.562	17751
697.578	17858
697.620	18077
697.661	18241
697.682	18299
697.703	18760
697.744	19511
697.786	20314
697.801	20526
697.828	20639
697.869	20839
697.911	20916
697.921	20891
697.952	20487
697.994	19854
698.035	19272
698.040	19145
698.077	19817
698.118	20471
698.160	21141
698.160	21084
698.201	21413
698.243	21575
698.279	21739
698.284	21860
698.325	22373
698.367	22911
698.399	23220
698.408	23341
698.449	23639
698.491	23937
698.518	24055
698.532	24068
698.573	23910
698.614	23772
698.638	23610
698.656	23704
698.697	23797
698.738	23838
698.757	23818
698.779	23842
698.820	23718
698.862	23621
698.877	23510
698.903	23582
698.944	23614
698.985	23628
698.996	23570
699.026	23794
699.067	24010
699.116	24204
699.235	24315
699.354	22933
699.474	21849
699.593	21539
699.713	23131
699.832	22730
699.951	23290
700.070	23308
700.190	21416
700.309	20129
700.428	20815
700.547	19871
700.667	19567
700.786	19810
700.905	19309
701.024	19276
701.143	18638
701.262	20399
701.381	20029
701.500	20369
701.619	19318
701.738	19893
701.857	20056
701.976	18813
702.095	19899
702.214	19961
702.333	18806
702.452	19896
702.571	19469
702.690	19246
702.809	19068
702.928	18366
703.047	17721
703.165	19162
703.284	17786
703.403	17292
703.522	17780
703.640	16166
703.759	17540
703.878	16843
703.997	17125
704.115	17446
704.234	16265
704.353	17997
704.471	15697
704.590	15274
704.708	15910
704.827	16116
704.946	16191
705.064	15408
705.183	15502
705.301	15597
705.420	15072
705.538	14574
705.656	14065
705.775	14181
705.893	14890
706.012	14502
706.130	14456
706.249	14591
706.367	13922
706.485	13834
706.604	13649
706.722	13147
706.840	13782
706.958	14059
707.077	13617
707.195	12400
707.313	13527
707.431	12428
707.549	12299
707.668	12127
707.786	13628
707.904	11403
708.022	12828
708.140	12535
708.258	11800
708.376	13566
708.494	12318
708.612	13714
708.730	13649
708.848	12316
708.966	12888
709.084	13179
709.202	12584
709.320	12076
709.438	11350
709.556	11675
709.674	10444
709.791	11681
709.909	10974
710.027	11226
710.145	10929
710.263	10303
710.380	10684
710.498	10965
710.616	10755
710.733	9884
710.851	10027
710.969	10407
711.086	9885
711.204	10517
711.322	10197
711.439	9899
711.557	9034
711.674	9375
711.792	9604
711.909	8821
712.027	8481
712.144	9560
712.262	9630
712.379	9762
712.497	9109
712.614	9349
712.732	10346
712.849	9308
712.966	9396
713.084	9109
713.201	8286
713.318	10039
713.436	10312
713.553	8301
713.670	10669
713.787	10117
713.905	9040
714.022	9685
714.139	10595
714.256	13055
714.373	18739
714.490	33736
714.608	96184
714.725	371625
714.842	275531
714.959	27644
715.076	14967
715.193	11854
715.310	10718
715.427	8988
715.544	9377
715.661	8680
715.778	7928
715.895	8030
716.011	8747
716.128	9306
716.245	8750
716.362	7542
716.479	7485
716.596	8367
716.713	7974
716.829	8434
716.946	7704
717.063	7370
717.180	6377
717.296	6825
717.413	7489
717.530	7103
717.646	7766
717.763	7712
717.880	6102
717.996	6928
718.113	6063
718.229	7401
718.346	6498
718.462	6272
718.579	6711
718.695	7069
718.812	6056
718.928	6944
719.045	6619
719.161	6266
719.277	7686
719.394	7456
719.510	7509
719.626	7303
719.743	8913
719.859	14890
719.975	33871
720.092	139937
720.208	244619
720.324	24868
720.440	9089
720.557	7265
720.673	7519
720.789	6158
720.905	6640
721.021	6764
721.137	6544
721.253	5228
721.369	5876
721.486	6614
721.602	5702
721.718	5487
721.834	5638
721.950	5822
722.066	4613
722.181	5492
722.297	5859
722.413	5710
722.529	5462
722.645	5491
722.761	5695
722.877	6080
722.993	5472
723.108	8403
723.224	6313
723.340	5196
723.456	5583
723.571	5174
723.687	4250
723.803	6001
723.918	4402
724.034	5133
724.150	4888
724.265	5240
724.381	4572
724.497	4889
724.612	5376
724.728	4767
724.843	4687
724.959	3972
725.074	4984
725.190	5347
725.305	4731
725.421	3965
725.536	4703
725.651	5479
725.767	4659
725.882	4515
725.997	4652
726.113	4960
726.228	4942
726.343	3767
726.459	4136
726.574	3590
726.689	4745
726.804	4721
726.920	4729
727.035	4492
727.150	4648
727.265	4292
727.380	4424
727.495	3933
727.610	3799
727.725	4187
727.841	3797
727.956	4104
728.071	4178
728.186	4325
728.301	4486
728.416	4371
728.531	3875
728.645	3944
728.760	4483
728.875	4126
728.990	4084
729.105	3453
729.220	2762
729.335	4840
729.449	4513
729.564	3408
729.679	3889
729.794	4370
729.908	4940
730.023	4060
730.138	3989
730.253	3982
730.367	3804
730.482	4150
730.596	4503
730.711	4903
730.826	8104
730.940	5718
731.055	6254
731.169	5233
731.284	5550
731.398	5740
731.513	5558
731.627	6833
731.742	9054
731.856	9905
731.970	9580
732.085	12051
732.199	17669
732.313	30218
732.428	81638
732.542	240146
732.656	112755
732.771	22255
732.885	14972
732.999	14226
733.113	15011
733.227	14238
733.342	14362
733.456	14082
733.570	12833
733.684	12218
733.798	11908
733.912	12737
734.026	12323
734.140	12236
734.254	11370
734.368	12952
734.482	12321
734.596	11532
734.710	11360
734.824	10759
734.938	11245
735.052	11420
735.166	11359
735.280	12112
735.393	10536
735.507	10780
735.621	10168
735.735	9675
735.849	10794
735.962	9982
736.076	11039
736.190	9833
736.303	10536
736.417	9869
736.531	8997
736.644	9545
736.758	9781
736.872	10206
736.985	10225
737.099	9437
737.212	8130
737.326	10005
737.439	10325
737.553	8829
737.666	9586
737.780	8526
737.893	8934
738.007	7686
738.120	9214
738.233	8120
738.347	9228
738.460	7715
738.573	8774
738.687	8006
738.800	8244
738.913	8795
739.026	8436
739.140	8204
739.253	7536
739.366	8240
739.479	7374
739.592	8307
739.705	6970
739.818	7965
739.932	6870
740.045	8828
740.158	7481
740.271	8082
740.384	7697
740.497	6025
740.610	8580
740.723	6201
740.836	7640
740.949	7188
741.062	8102
741.174	6875
741.287	6191
741.400	7200
741.513	6866
741.626	6983
741.739	6367
741.851	6823
741.964	7834
742.077	6530
742.189	5836
742.302	6696
742.415	6693
742.527	6295
742.640	6530
742.753	5761
742.865	6533
742.978	6043
743.090	5968
743.203	6793
743.316	6011
743.428	5677
743.541	6291
743.653	5380
743.766	6075
743.878	5971
743.990	4969
744.103	7041
744.215	6351
744.327	5052
744.440	7995
744.552	5530
744.664	4741
744.777	6301
744.889	4917
745.001	5614
745.113	6610
745.226	5471
745.338	5868
745.450	6534
745.562	4991
745.674	4857
745.786	5742
745.898	5850
746.010	5266
746.122	5328
746.234	5802
746.347	5519
746.459	5267
746.570	4725
746.682	6172
746.794	6678
746.906	4778
747.018	4912
747.130	5205
747.242	4601
747.354	4935
747.466	6434
747.577	3851
747.689	4679
747.801	5210
747.913	4131
748.024	4696
748.136	4834
748.248	3564
748.359	5220
748.471	5309
748.583	3723
748.694	4840
748.806	4892
748.918	3899
749.029	4410
749.141	4835
749.252	4222
749.364	3437
749.475	3857
749.587	4363
749.698	2998
749.809	4427
749.921	4156
750.032	4660
750.144	3825
750.255	3328
750.366	3989
750.478	4529
750.589	4163
750.700	3253
750.811	4063
750.923	3499
751.034	3862
751.145	3898
751.256	4424
751.367	4240
751.479	4699
751.590	3601
751.701	3912
751.812	2971
751.923	3605
752.034	4379
752.145	3998
752.256	3744
752.367	3902
752.478	3356
752.589	3975
752.700	3002
752.811	3468
752.922	3946
753.032	3684
753.143	4140
753.254	2851
753.365	4734
753.476	4018
753.586	3951
753.697	3368
753.808	4264
753.919	2798
754.029	3891
754.140	3359
754.251	3118
754.361	3183
754.472	4013
754.582	2524
754.693	3599
754.804	3064
754.914	3560
755.025	2896
755.135	3260
755.246	4197
755.356	2595
755.466	3299
755.577	3190
755.687	2892
755.798	3154
755.908	2361
756.018	3576
756.129	3231
756.239	2646
756.349	3240
756.460	3431
756.570	3188
756.680	3126
756.790	2691
756.900	4456
757.011	2801
757.121	2602
757.231	3170
757.341	3456
757.451	2596
757.561	2790
757.671	3052
757.781	2313
757.891	3060
758.001	2697
758.111	3646
758.221	3331
758.331	2870
758.441	2758
758.551	2774
758.661	2803
758.771	2877
758.880	4280
758.990	2079
759.100	3908
759.210	3547
759.320	3330
759.429	3062
759.539	3939
759.649	4431
759.758	4851
759.868	4743
759.978	4574
760.087	4765
760.197	4181
760.307	4237
760.416	3619
760.526	3010
760.635	4363
760.745	4566
760.854	4264
760.964	6066
761.073	4963
761.182	5268
761.292	4356
761.401	3423
761.511	3271
761.620	3022
761.729	2985
761.839	2681
761.948	3112
762.057	2220
762.166	3623
762.276	2609
762.385	3991
762.494	2885
762.603	3124
762.712	2984
762.822	3230
762.931	2670
763.040	2218
763.149	2724
763.258	2674
763.367	3678
763.476	3365
763.585	3231
763.694	3134
763.803	2727
763.912	4301
764.021	3377
764.130	3636
764.238	3971
764.347	3942
764.456	3786
764.565	4580
764.674	3528
764.783	3853
764.891	4075
765.000	6491
765.109	5870
765.217	5221
765.326	6317
765.435	7556
765.543	8985
765.652	10840
765.761	14385
765.869	19623
765.978	29976
766.086	49286
766.195	90323
766.303	179264
766.412	254104
766.520	211335
766.629	138801
766.737	69057
766.846	39685
766.954	25603
767.062	20419
767.171	14581
767.279	11954
767.387	9437
767.496	8770
767.604	7898
767.712	6319
767.820	6094
767.928	5565
768.037	5473
768.145	5068
768.253	5038
768.361	4807
768.469	5681
768.577	4429
768.685	5472
768.793	6025
768.901	4802
769.009	5948
769.117	6797
769.225	9235
769.333	13256
769.441	21327
769.549	35964
769.657	76018
769.765	176220
769.873	206304
769.981	135704
770.088	54361
770.196	27726
770.304	18030
770.412	14750
770.519	10975
770.627	8621
770.735	7101
770.842	6423
770.950	7004
771.058	6053
771.165	6001
771.273	7009
771.380	7765
771.488	9402
771.595	8486
771.703	7762
771.810	7903
771.918	6839
772.025	9009
772.133	10119
772.240	9127
772.348	11108
772.455	10722
772.562	8744
772.670	8689
772.777	9525
772.884	8202
772.991	8237
773.099	8712
773.206	8640
773.313	8682
773.420	8788
773.528	8009
773.635	8519
773.742	9249
773.849	7603
773.956	8630
774.063	7931
774.170	8454
774.277	8195
774.384	7546
774.491	7104
774.598	7809
774.705	7435
774.812	7336
774.919	7413
775.026	7252
775.133	7531
775.239	8007
775.346	6926
775.453	7572
775.560	6890
775.667	7250
775.773	6170
775.880	7328
775.987	6837
776.093	7494
776.200	7506
776.307	4820
776.413	6548
776.520	7446
776.627	6739
776.733	6234
776.840	5064
776.946	9085
777.053	7575
777.159	7167
777.266	6058
777.372	7898
777.478	7451
777.585	6403
777.691	4594
777.798	6012
777.904	6297
778.010	5883
778.117	6770
778.223	5213
778.329	5583
778.435	4643
778.542	6146
778.648	5398
778.754	4498
778.860	5619
778.966	4821
779.072	5011
779.178	5416
779.284	4461
779.391	5117
779.497	4794
779.603	6519
779.708	4498
779.815	5516
779.920	9548
780.026	11824
780.132	5426
780.238	4032
780.344	4194
780.450	6906
780.556	3397
780.661	3884
780.767	5104
780.873	2895
780.979	3704
781.085	4543
781.190	4968
781.296	3365
781.402	3872
781.507	4087
781.613	2611
781.719	4030
781.824	4869
781.930	5542
782.035	4356
782.141	4164
782.246	2498
782.352	3494
782.457	4557
782.563	3720
782.668	3779
782.773	2940
782.879	2236
782.984	3892
783.090	4067
783.195	4018
783.300	3351
783.405	3197
783.511	3572
783.616	3169
783.721	3590
783.826	2551
783.932	2879
784.037	3614
784.142	3507
784.247	2841
784.352	3451
784.457	2449
784.562	3333
784.667	3010
784.772	3016
784.877	1340
784.982	4192
785.087	2855
785.192	3461
785.297	2537
785.402	3734
785.507	2708
785.611	4166
785.716	2128
785.821	3429
785.926	2110
786.031	2240
786.135	2387
786.240	3171
786.345	2214
786.450	3371
786.554	2740
786.659	1954
786.763	2172
786.868	2827
786.973	3975
787.077	1318
787.182	3059
787.286	3071
787.391	3421
787.495	800
787.600	1667
787.704	3066
787.809	3497
787.913	2428
788.017	2100
788.122	3160
788.226	2496
788.330	1009
788.435	2500
788.539	3222
788.643	2416
788.747	1731
788.852	1495
788.956	1693
789.060	2701
789.164	2214
789.268	1875
789.372	3077
789.476	3078
789.580	51
789.684	1345
789.788	2764
789.892	1386
789.996	1776
790.100	649
790.204	1974
790.308	2432
790.412	1188
790.516	1090
790.620	1052
790.724	2854
790.828	3043
790.931	903
791.035	3330
791.139	1535
791.242	1198
791.346	2880
791.450	1940
791.554	2248
791.657	45
791.761	2202
791.864	3031
791.968	1904
792.072	2557
792.175	2301
792.279	1756
792.382	1403
792.486	2345
792.589	1564
792.693	2334
792.796	194
792.899	2355
793.003	2052
793.106	-20
793.209	1205
793.313	1469
793.416	-826
793.519	2296
793.623	2722
793.726	1756
793.829	648
793.932	198
794.035	156
794.138	2534
794.242	2993
794.345	884
794.448	1088
794.551	1067
794.654	4116
794.757	6731
794.860	1924
794.963	1780
795.066	1211
795.169	2516
795.272	1414
795.375	1413
795.477	108
795.580	1542
795.683	246
795.786	1756
795.889	-123
795.991	1979
796.094	2342
796.197	143
796.300	2830
796.402	1327
796.505	241
796.608	513
796.710	2376
796.813	1055
796.915	1228
797.018	1946
797.120	1809
797.223	363
797.326	3062
797.428	927
797.530	872
797.633	543
797.735	2022
797.838	91
797.940	1829
798.042	337
798.145	657
798.247	3040
798.349	-428
798.452	2323
798.554	1701
798.656	260
798.758	2342
798.860	1276
798.962	651
799.065	57
799.167	855
799.269	1497
799.371	2354
799.473	2536
799.575	1028
799.677	893
799.779	1591
799.881	-208
799.983	1659
800.085	1154
800.187	1046
800.289	-582
800.390	654
800.492	1298
800.594	1203
800.696	311
800.798	1255
800.899	699
801.001	1375
801.103	364
801.205	1683
801.306	1344
801.408	621
801.509	441
801.611	911
801.713	1046
801.814	855
801.916	426
802.017	97
802.119	-407
802.220	744
802.322	-986
802.423	2550
802.525	-848
802.626	260
802.727	1363
802.829	1347
802.930	-1980
803.031	1705
803.133	425
803.234	678
803.335	1490
803.436	-468
803.538	726
803.639	-669
803.740	1745
803.841	407
803.942	310
804.043	964
804.144	-508
804.245	1079
804.346	1075
804.447	-14
804.548	396
804.649	1917
804.750	-603
804.851	230
804.952	688
805.053	485
805.154	-427
805.255	1876
805.355	955
805.456	562
805.557	218
805.658	-457
805.758	1353
805.859	193
805.960	656
806.061	-315
806.161	102
806.262	485
806.362	-80
806.463	91
806.564	448
806.664	736
806.765	-630
806.865	74
806.966	506
807.066	-380
807.166	1084
807.267	1078
807.367	-66
807.468	848
807.568	-1145
807.668	1209
807.769	1743
807.869	616
807.969	544
808.069	-17
808.170	874
808.270	-106
808.370	122
808.470	1495
808.570	62
808.670	295
808.770	376
808.870	-182
808.970	-290
809.070	-256
809.170	-211
809.271	582
809.370	359
809.470	724
809.570	-341
809.670	-1028
809.770	-308
809.870	699
809.970	-236
810.070	-237
810.169	1218
810.269	-1414
810.369	939
810.469	794
810.568	448
810.668	117
810.768	-137
810.867	525
810.967	-570
811.066	112
811.166	-206
811.265	1604
811.365	-510
811.464	52
811.564	216
811.663	11
811.763	-854
811.862	527
811.962	809
812.061	-92
812.160	-191
812.260	-209
812.359	-46
812.458	-478
812.557	577
812.657	-144
812.756	1497
812.855	736
812.954	-304
813.053	499
813.153	-30
813.252	-669
813.351	778
813.450	336
813.549	-117
813.648	32
813.747	-935
813.846	1199
813.945	-215
814.044	341
814.143	639
814.242	896
814.341	43
814.439	838
814.538	1285
814.637	-301
814.736	979
814.835	1328
814.933	314
815.032	1077
815.131	2149
815.229	5616
815.328	7241
815.427	4845
815.525	4150
815.624	4488
815.722	3695
815.821	4672
815.919	4782
816.018	3920
816.116	5316
816.215	4050
816.313	5107
816.412	6815
816.510	5899
816.609	8169
816.707	7720
816.805	6686
816.904	5436
817.002	6517
817.100	6588
817.198	7322
817.296	4454
817.395	6586
817.493	5761
817.591	5526
817.689	5009
817.787	5331
817.885	5197
817.983	4762
818.081	6005
818.179	6105
818.277	10859
818.375	7448
818.473	5996
818.571	4745
818.669	5554
818.767	6282
818.865	5484
818.963	3843
819.061	4876
819.158	5455
819.256	8361
819.354	7532
819.452	14532
819.549	8708
819.647	6784
819.745	4542
819.842	4372
819.940	4484
820.038	3812
820.135	4001
820.233	5729
820.330	4634
820.428	3230
820.525	5855
820.623	4256
820.720	3438
820.818	4565
820.915	5158
821.012	4308
821.110	2647
821.207	5219
821.304	3533
821.402	3867
821.499	4956
821.596	3690
821.693	3989
821.791	4721
821.888	3626
821.985	5551
822.082	3040
822.179	3813
822.276	4231
822.373	3758
822.470	3232
822.567	2920
822.664	2868
822.761	4269
822.858	4194
822.955	3309
823.052	3070
823.149	3383
823.246	3904
823.343	2178
823.440	3585
823.536	3809
823.633	3317
823.730	2658
823.827	2390
823.923	3418
824.020	3248
824.117	3475
824.213	3011
824.310	3562
824.407	2950
824.503	3887
824.600	3269
824.696	2872
824.793	4536
824.889	3064
824.986	2230
825.082	1768
825.179	3205
825.275	3956
825.371	3439
825.468	1637
825.564	1070
825.660	4018
825.757	4117
825.853	2844
825.949	1631
826.045	1486
826.142	2324
826.238	2602
826.334	2381
826.430	2625
826.526	1581
826.622	1149
826.718	2773
826.814	3243
826.910	3305
827.006	930
827.102	1296
827.198	2247
827.294	2859
827.390	3465
827.486	1699
827.582	461
827.678	678
827.774	4012
827.869	944
827.965	2183
828.061	875
828.157	2996
828.252	2766
828.348	1350
828.444	1893
828.539	1268
828.635	1441
828.731	2783
828.826	1636
828.922	2355
829.017	2168
829.113	2886
829.208	1079
829.304	1237
829.399	3911
829.495	1416
829.590	1834
829.685	1351
829.781	2527
829.876	2202
829.971	637
830.066	16
830.162	2183
830.257	3131
830.352	1647
830.447	1320
830.543	983
830.638	807
830.733	3177
830.828	1121
830.923	2618
831.018	1643
831.113	2299
831.208	617
831.303	334
831.398	772
831.493	1587
831.588	3260
831.683	1795
831.778	1167
831.873	1121
831.967	2691
832.062	1062
832.157	1606
832.252	2187
832.346	307
832.441	2171
832.536	1434
832.631	1264
832.725	1247
832.820	663
832.914	1971
833.009	1271
833.104	793
833.198	1538
833.293	1062
833.387	1979
833.482	1516
833.576	1018
833.670	1663
833.765	923
833.859	1213
833.954	1889
834.048	1077
834.142	1345
834.237	630
834.331	1608
834.425	1360
834.519	645
834.613	1284
834.708	857
834.802	767
834.896	677
834.990	1174
835.084	806
835.178	1203
835.272	737
835.366	882
835.460	2312
835.554	795
835.648	-6
835.742	-119
835.836	365
835.930	288
836.024	370
836.117	1805
836.211	516
836.305	370
836.399	575
836.493	-202
836.586	1425
836.680	193
836.774	479
836.867	1321
836.961	433
837.055	48
837.148	-315
837.242	775
837.335	1
837.429	-127
837.522	21
837.616	-45
837.709	1514
837.803	-340
837.896	1490
837.989	925
838.083	403
838.176	59
838.269	-934
838.363	597
838.456	158
838.549	1281
838.642	119
838.735	499
838.829	1335
838.922	155
839.015	-370
839.108	-992
839.201	1102
839.294	1397
839.387	439
839.480	-473
839.573	-306
839.666	47
839.759	-821
839.852	784
839.945	665
840.038	-440
840.131	-901
840.223	-398
840.316	575
840.409	585
840.502	207
840.594	1226
840.687	-1166
840.780	-680
840.873	-396
840.965	167
841.058	391
841.150	662
841.243	-1003
841.336	870
841.428	733
841.521	-914
841.613	-283
841.706	163
841.798	-638
841.890	-317
841.983	-144
842.075	662
842.167	-501
842.260	726
842.352	1357
842.444	-97
842.537	-451
842.629	-470
842.721	329
842.813	126
842.905	-476
842.997	76
843.090	-113
843.182	-533
843.274	-1160
843.366	450
843.458	279
843.550	1174
843.642	47
843.734	1381
843.826	-1094
843.918	-333
844.009	27
844.101	-461
844.193	-46
844.285	251
844.377	591
844.469	633
844.560	-959
844.652	-682
844.744	1026
844.835	94
844.927	-160
845.019	-816
845.110	505
845.202	174
845.293	-40
845.385	-96
845.476	46
845.568	255
845.659	-1415
845.751	-171
845.842	-684
845.934	-253
846.025	308
846.116	-188
846.208	87
846.299	-137
846.390	-914
846.482	-586
846.573	152
846.664	-580
846.755	-955
846.846	66
846.937	-1264
847.029	-931
847.120	13
847.211	-473
847.302	-356
847.393	-1148
847.484	412
847.575	-444
847.666	-1351
847.757	106
847.847	-37
847.938	901
848.029	-183
848.120	-413
848.211	-144
848.302	-1002
848.392	-1276
848.483	-22
848.574	-227
848.664	-151
848.755	-321
848.846	-541
848.936	-532
849.027	-893
849.118	181
849.208	-400
849.299	203
849.389	1910
849.480	4927
849.570	10507
849.661	23335
849.751	33353
849.841	9557
849.932	543
850.022	-497
850.112	347
850.203	-385
850.293	-456
850.383	-941
850.474	-1221
850.564	-277
850.654	-106
850.744	-135
850.834	5
850.924	-123
851.014	405
851.104	-228
851.194	-639
851.284	22
851.374	-1146
851.464	-233
851.554	-681
851.644	-1101
851.734	-153
851.824	-312
851.914	-897
852.004	834
852.094	-659
852.183	-412
852.273	-682
852.363	50
852.452	-15
852.542	-303
852.632	-696
852.721	-6
852.811	-385
852.901	855
852.990	179
853.080	871
853.169	161
853.259	23
853.348	-55
853.438	878
853.527	988
853.617	2685
853.706	6441
853.795	11077
853.885	25003
853.974	45771
854.063	86176
854.152	107121
854.242	37985
854.331	8683
854.420	4240
854.509	2897
854.598	2233
854.687	677
854.777	385
854.866	103
854.955	534
855.044	-306
855.133	131
855.222	176
855.311	-751
855.400	823
855.488	-564
855.577	-22
855.666	-258
855.755	143
855.844	-387
855.933	-1094
856.021	70
856.110	-156
856.199	-1223
856.288	-603
856.376	-342
856.465	-324
856.554	-575
856.642	-439
856.731	347
856.819	-752
856.908	-424
856.996	-507
857.085	-903
857.173	-36
857.262	-1456
857.350	-572
857.438	-1059
857.527	-847
857.615	-384
857.703	303
857.792	-984
857.880	-1630
857.968	-866
858.056	-905
858.145	-692
858.233	-11
858.321	-1071
858.409	-453
858.497	-895
858.585	-709
858.673	198
858.761	-717
858.849	-1646
858.937	2
859.025	-1198
859.113	-10
859.201	-1120
859.289	-221
859.377	-464
859.465	-575
859.552	-671
859.640	-698
859.728	308
859.816	-1134
859.903	-766
859.991	-951
860.079	-639
860.166	-73
860.254	-639
860.342	-523
860.429	-889
860.517	-152
860.604	420
860.692	-444
860.779	-842
860.867	-478
860.954	-1048
861.042	10
861.129	-97
861.216	145
861.304	-423
861.391	-563
861.478	-335
861.565	114
861.653	184
861.740	-805
861.827	-1149
861.914	-173
862.001	-932
862.089	-113
862.176	-587
862.263	-250
862.350	-269
862.437	-891
862.524	-278
862.611	-599
862.698	-479
862.785	104
862.871	157
862.958	-274
863.045	-454
863.132	-275
863.219	-1064
863.306	-1074
863.392	-139
863.479	101
863.566	-968
863.652	326
863.739	-902
863.826	-735
863.912	-480
863.999	-786
864.086	-121
864.172	154
864.259	299
864.345	-554
864.432	-23
864.518	-220
864.604	173
864.691	-590
864.777	953
864.863	1705
864.950	2971
865.036	3648
865.122	7345
865.209	8050
865.295	6475
865.381	5947
865.467	6007
865.553	6345
865.639	7294
865.726	10229
865.812	15895
865.898	29738
865.984	41403
866.070	73208
866.156	65988
866.242	18883
866.328	8314
866.414	6801
866.499	6082
866.585	5283
866.671	5024
866.757	5610
866.843	4840
866.928	4671
867.014	3883
867.100	4073
867.186	3968
867.271	3722
867.357	4924
867.442	3454
867.528	4460
867.614	3252
867.699	4273
867.785	4246
867.870	4463
867.956	3697
868.041	3527
868.127	3996
868.212	3117
868.297	4011
868.383	4612
868.468	3941
868.553	4004
868.639	3506
868.724	3640
868.809	3765
868.894	3238
868.979	2651
869.065	3064
869.150	1773
869.235	3464
869.320	3658
869.405	2617
869.490	3394
869.575	3254
869.660	2008
869.745	3926
869.830	4132
869.915	3468
870.000	3311
870.085	3121
870.169	3800
870.254	3515
870.339	2218
870.424	2102
870.509	3280
870.593	3902
870.678	3403
870.763	2577
870.847	2215
870.932	3610
871.016	2809
871.101	1566
871.186	3736
871.270	4207
871.355	1420
871.439	2615
871.523	3637
871.608	1533
871.692	2500
871.777	3537
871.861	2829
871.945	2260
872.030	3250
872.114	2815
872.198	1499
872.282	2033
872.367	1525
872.451	2253
872.535	2513
872.619	2560
872.703	2525
872.787	1960
872.871	2436
872.955	2348
873.039	1438
873.123	2207
873.207	3186
873.291	1442
873.375	1842
873.459	2714
873.543	1081
873.627	1707
873.711	1042
873.794	2391
873.878	2191
873.962	1013
874.045	2271
874.129	2478
874.137	2430
874.213	1951
874.245	1768
874.296	1476
874.352	1262
874.380	1157
874.460	1958
874.464	1990
874.547	1541
874.568	1598
874.631	1758
874.676	1663
874.714	1586
874.784	1961
874.798	2035
874.881	2142
874.892	1965
874.965	774
874.999	1309
875.048	2026
875.107	1437
875.131	1189
875.215	1076
875.215	1075
875.298	177
875.323	590
875.381	1651
875.430	2294
875.465	2712
875.538	1285
875.548	1095
875.631	1041
875.646	916
875.714	245
875.753	408
875.798	679
875.861	1724
875.881	2019
875.964	688
875.968	692
876.047	837
876.076	1222
876.130	1864
876.183	1607
876.213	1520
876.291	1848
876.296	1864
876.379	1367
876.398	1247
876.462	822
876.506	729
876.545	661
876.613	296
876.628	240
876.711	694
876.721	880
876.794	2179
876.828	1764
876.877	1212
876.935	376
876.960	-15
877.043	956
877.043	956
877.125	1286
877.150	1639
877.208	2359
877.258	1636
877.291	1148
877.365	682
877.374	599
877.456	646
877.472	644
877.539	960
877.579	1275
877.622	1644
877.687	1907
877.704	1895
877.787	1074
877.794	1104
877.869	1443
877.901	1195
877.952	971
878.008	633
878.034	411
878.115	875
878.117	886
878.199	860
878.222	894
878.282	1026
878.329	920
878.364	814
878.437	908
878.447	893
878.529	44
878.544	5
878.611	232
878.651	773
878.694	1186
878.758	1582
878.776	1724
878.858	1958
878.865	1890
878.941	800
878.972	551
879.023	300
879.078	230
879.105	299
879.185	1033
879.187	1041
879.269	633
879.292	609
879.351	572
879.399	319
879.433	179
879.506	496
879.516	524
879.598	108
879.613	70
879.680	323
879.720	1033
879.762	1514
879.827	941
879.844	777
879.926	1163
879.933	1145
880.007	1347
880.040	1025
880.089	361
880.147	1177
880.171	1639
880.253	3379
880.254	3383
880.335	3380
880.360	3830
880.417	5456
880.467	8078
880.499	9780
880.574	9647
880.580	9379
880.662	3944
880.680	3054
880.744	1529
880.787	1248
880.825	781
880.893	721
880.907	767
880.989	678
881.000	683
881.070	1032
881.106	1188
881.152	1247
881.213	897
881.233	663
881.315	249
881.319	239
881.396	906
881.426	937
881.478	715
881.532	1120
881.559	1385
881.639	801
881.641	774
881.722	376
881.745	293
881.803	801
881.852	982
881.885	722
881.958	444
881.966	492
882.047	904
882.064	940
882.129	332
882.171	-130
882.210	-129
882.277	52
882.291	74
882.372	597
882.383	656
882.454	978
882.489	1002
882.535	1017
882.596	1083
882.616	1106
882.697	826
882.702	821
882.778	300
882.808	144
882.859	349
882.914	610
882.940	536
883.020	265
883.021	271
883.102	747
883.127	1005
883.183	1024
883.233	601
883.264	415
883.339	-10
883.345	-49
883.426	-78
883.445	-115
883.507	374
883.551	806
883.587	855
883.657	1108
883.668	1252
883.749	1571
883.763	1617
883.830	534
883.869	115
883.910	219
883.975	517
883.991	631
884.072	1028
884.081	1028
884.152	934
884.187	979
884.233	1015
884.292	1016
884.314	820
884.394	-79
884.398	-124
884.475	107
884.504	358
884.555	503
884.610	568
884.636	543
884.716	237
884.716	238
884.797	580
884.821	575
884.877	590
884.927	501
884.958	490
885.033	658
885.038	631
885.118	275
885.139	143
885.199	668
885.244	1237
885.279	1028
885.350	239
885.359	310
885.439	1253
885.456	1337
885.520	725
885.561	588
885.600	436
885.667	-300
885.680	-188
885.760	967
885.773	1095
885.840	474
885.878	328
885.920	541
885.984	558
886.000	620
886.080	1217
886.089	1234
886.160	837
886.195	540
886.240	517
886.300	952
886.320	900
886.400	544
886.406	507
886.480	699
886.511	797
886.560	570
886.616	238
886.640	375
886.720	832
886.722	841
886.800	652
886.827	564
886.879	964
886.932	1400
886.959	1445
887.038	1203
887.039	1204
887.119	1148
887.143	1089
887.198	590
887.248	178
887.278	272
887.354	392
887.358	397
887.437	502
887.459	513
887.517	792
887.564	1086
887.596	953
887.669	489
887.676	487
887.755	549
887.774	534
887.835	631
887.880	817
887.914	1007
887.985	1107
887.994	1085
888.073	1066
888.090	1029
888.153	764
888.195	574
888.232	633
888.300	772
888.311	813
888.391	1121
888.405	1144
888.470	564
888.510	249
888.549	516
888.615	1029
888.628	1042
888.708	1008
888.720	997
888.787	1499
888.825	1752
888.866	1189
888.930	382
888.945	375
889.024	288
889.035	274
889.103	558
889.140	701
889.182	752
889.245	851
889.261	922
889.340	1226
889.349	1258
889.419	1406
889.454	1464
889.498	1079
889.559	564
889.577	600
889.656	755
889.664	772
889.735	490
889.768	360
889.814	967
889.873	1768
889.978	-91
890.083	1860
890.187	953
890.292	1210
890.397	1160
890.501	676
890.606	873
890.710	1011
890.815	917
890.919	1155
891.024	258
891.128	900
891.233	-138
891.337	1241
891.442	415
891.546	1179
891.650	126
891.755	1248
891.859	1059
891.963	1410
892.068	290
892.172	373
892.276	899
892.380	1189
892.484	707
892.589	1639
892.693	102
892.797	363
892.901	529
893.005	719
893.109	643
893.213	748
893.317	231
893.421	1031
893.525	115
893.629	1109
893.733	1097
893.837	1259
893.941	825
894.045	1309
894.148	452
894.252	924
894.356	856
894.460	1854
894.564	329
894.667	1099
894.771	242
894.875	924
894.978	771
895.082	1228
895.186	794
895.289	1663
895.393	446
895.496	373
895.600	732
895.703	444
895.807	705
895.910	358
896.014	684
896.117	466
896.221	94
896.324	886
896.427	1135
896.531	721
896.634	659
896.737	688
896.840	27
896.944	1165
897.047	1206
897.150	625
897.253	-96
897.356	1668
897.460	-10
897.563	1166
897.666	606
897.769	723
897.872	111
897.975	200
898.078	-78
898.181	-270
898.284	542
898.387	1047
898.490	396
898.593	1340
898.695	-87
898.798	649
898.901	269
899.004	1213
899.107	676
899.209	172
899.312	1024
899.415	966
899.518	695
899.620	-156
899.723	471
899.826	226
899.928	690
900.031	1371
900.133	1057
900.236	256
900.338	51
900.441	561
900.543	8
900.646	595
900.748	580
900.851	1306
900.953	-100
901.055	1277
901.158	637
901.260	404
901.362	-231
901.465	141
901.567	461
901.669	366
901.771	-581
901.873	410
901.976	675
902.078	617
902.180	426
902.282	592
902.384	-447
902.486	966
902.588	1162
902.690	24
902.792	-12
902.894	934
902.996	227
903.098	728
903.200	501
903.302	973
903.404	603
903.505	128
903.607	620
903.709	1422
903.811	885
903.913	1031
904.014	-414
904.116	335
904.218	357
904.319	316
904.421	1112
904.523	1649
904.624	50
904.726	866
904.827	-138
904.929	1049
905.030	188
905.132	1414
905.233	403
905.335	292
905.436	353
905.537	176
905.639	491
905.740	571
905.841	-551
905.943	1503
906.044	793
906.145	265
906.247	-68
906.348	666
906.449	192
906.550	274
906.651	1099
906.752	458
906.854	176
906.955	112
907.056	709
907.157	1283
907.258	890
907.359	482
907.460	-470
907.561	570
907.662	-195
907.762	683
907.863	-403
907.964	1188
908.065	1457
908.166	848
908.267	-168
908.367	728
908.468	393
908.569	445
908.670	549
908.770	1336
908.871	31
908.971	302
909.072	12
909.173	757
909.273	631
909.374	639
909.474	-272
909.575	-27
909.675	279
909.776	574
909.876	53
909.977	975
910.077	533
910.177	1165
910.278	510
910.378	737
910.478	300
910.579	1735
910.679	1017
910.779	117
910.879	573
910.980	779
911.080	786
911.180	801
911.280	-344
911.380	454
911.480	-159
911.580	459
911.680	345
911.780	348
911.880	-82
911.980	138
912.080	636
912.180	1418
912.280	-81
912.380	420
912.480	-831
912.580	-360
912.679	85
912.779	947
912.879	180
912.979	339
913.078	122
913.178	180
913.278	-239
913.377	184
913.477	-421
913.577	838
913.676	1324
913.776	841
913.875	245
913.975	585
914.074	-169
914.174	647
914.273	108
914.373	1040
914.472	601
914.572	598
914.671	423
914.770	597
914.870	419
914.969	486
915.068	964
915.167	960
915.267	103
915.366	502
915.465	720
915.564	892
915.663	337
915.763	1121
915.862	800
915.961	1390
916.060	241
916.159	497
916.258	-502
916.357	528
916.456	889
916.555	1053
916.654	654
916.752	1280
916.851	7
916.950	1080
917.049	1317
917.148	359
917.247	303
917.345	1083
917.444	771
917.543	1028
917.642	88
917.740	769
917.839	1613
917.937	1243
918.036	1440
918.135	155
918.233	-298
918.332	303
918.430	218
918.529	1041
918.627	-946
918.726	1619
918.824	272
918.923	553
919.021	194
919.119	90
919.218	-117
919.316	748
919.414	23
919.512	1266
919.611	288
919.709	647
919.807	737
919.905	1450
920.003	123
920.102	1081
920.200	619
920.298	774
920.396	531
920.494	1499
920.592	63
920.690	769
920.788	579
920.886	907
920.984	215
921.082	995
921.180	1425
921.277	728
921.375	728
921.473	2112
921.571	1067
921.669	1541
921.766	1642
921.864	1668
921.962	1881
922.060	1676
922.157	1212
922.255	1406
922.352	1431
922.450	2199
922.548	416
922.645	2164
922.743	1761
922.840	4436
922.938	3916
923.035	3642
923.133	4016
923.230	4522
923.327	5178
923.425	4997
923.522	3791
923.619	4003
923.717	3021
923.814	4623
923.911	3340
924.008	3971
924.106	3274
924.203	3534
924.300	2554
924.397	3583
924.494	4301
924.591	2841
924.688	2198
924.786	4419
924.883	3772
924.979	3636
925.077	3256
925.173	2647
925.270	3470
925.367	2892
925.464	3886
925.561	3501
925.658	3317
925.755	3895
925.852	4060
925.948	3462
926.045	3369
926.142	3068
926.239	3293
926.335	3310
926.432	3025
926.529	4379
926.625	4207
926.722	2685
926.818	2801
926.915	3216
927.011	2501
927.108	3636
927.204	2879
927.301	3193
927.397	2522
927.494	4324
927.590	2481
927.687	2727
927.783	3653
927.879	3283
927.976	3087
928.072	2613
928.168	2946
928.264	3572
928.361	2575
928.457	3307
928.553	2411
928.649	3194
928.745	2977
928.841	2982
928.937	2498
929.033	2293
929.129	3036
929.225	2307
929.321	2145
929.417	2758
929.513	2106
929.609	2665
929.705	2730
929.801	2799
929.897	1179
929.993	2246
930.089	1148
930.184	2692
930.280	2147
930.376	3645
930.471	2194
930.567	2391
930.663	2045
930.758	2341
930.854	1380
930.950	3033
931.045	1698
931.141	2702
931.236	2060
931.332	2017
931.427	1198
931.523	3280
931.618	1723
931.714	1702
931.809	1746
931.905	2789
932.000	1570
932.095	1976
932.191	2417
932.286	3211
932.381	1389
932.476	1779
932.572	530
932.667	1706
932.762	1404
932.857	2757
932.952	2197
933.047	2842
933.142	897
933.237	1874
933.332	1891
933.427	2463
933.522	1416
933.617	1778
933.712	2470
933.807	2592
933.902	2270
933.997	2908
934.092	1278
934.187	1996
934.282	2192
934.376	1277
934.471	2107
934.566	1324
934.661	1343
934.755	2357
934.850	1935
934.945	1203
935.039	1055
935.134	1562
935.228	1272
935.323	2759
935.417	1205
935.512	1638
935.606	-24
935.701	1567
935.795	875
935.890	1736
935.984	668
936.079	1088
936.173	888
936.267	2684
936.362	470
936.456	1943
936.550	1709
936.644	2194
936.738	552
936.833	1178
936.927	579
937.021	1960
937.115	1298
937.209	1427
937.303	1443
937.397	2004
937.491	1235
937.585	1964
937.679	1333
937.773	1834
937.867	49
937.961	1346
938.055	1465
938.149	1567
938.243	-24
938.337	1098
938.430	924
938.524	2605
938.618	1987
938.712	1436
938.805	333
938.899	1211
938.993	1273
939.086	1628
939.180	860
939.274	1506
939.367	1493
939.461	1042
939.554	232
939.648	1281
939.741	363
939.835	915
939.928	2325
940.022	2243
940.115	1011
940.208	1230
940.302	1330
940.395	2423
940.488	-179
940.582	1449
940.675	405
940.768	1458
940.861	1642
940.954	1964
941.048	165
941.141	1057
941.234	-33
941.327	243
941.420	695
941.513	1826
941.606	608
941.699	1480
941.792	959
941.885	1629
941.978	2016
942.071	820
942.164	-70
942.257	1009
942.349	1047
942.442	928
942.535	-191
942.628	995
942.721	900
942.813	283
942.906	1587
942.999	1225
943.091	-81
943.184	515
943.277	-171
943.369	688
943.462	-176
943.554	1833
943.647	45
943.739	1693
943.832	411
943.924	-211
944.017	80
944.109	257
944.201	961
944.294	1221
944.386	1043
944.478	542
944.571	-52
944.663	890
944.755	276
944.847	1708
944.940	442
945.032	-225
945.124	484
945.216	1770
945.308	110
945.400	703
945.492	497
945.584	470
945.676	793
945.768	1995
945.860	1178
945.952	704
946.044	695
946.136	692
946.228	-200
946.320	611
946.412	316
946.503	1809
946.595	951
946.687	619
946.779	242
946.870	860
946.962	-64
947.054	1255
947.145	936
947.237	986
947.329	799
947.420	943
947.512	-149
947.603	88
947.695	488
947.786	12
947.878	120
947.969	1063
948.061	408
948.152	4
948.243	402
948.335	1334
948.426	-370
948.517	133
948.609	-164
948.700	577
948.791	-39
948.882	393
948.973	-33
949.065	423
949.156	-208
949.247	-814
949.338	-124
949.429	-289
949.520	745
949.611	277
949.702	635
949.793	287
949.884	222
949.975	625
950.066	-296
950.157	710
950.247	857
950.338	892
950.429	24
950.520	293
950.611	-180
950.701	649
950.792	516
950.883	1021
950.973	130
951.064	556
951.155	13
951.245	1597
951.336	265
951.427	751
951.517	577
951.608	905
951.698	990
951.788	26
951.879	-5
951.969	-150
952.060	181
952.150	358
952.240	320
952.331	-838
952.421	1234
952.511	-570
952.602	762
952.692	111
952.782	-315
952.872	1001
952.962	375
953.052	312
953.143	-866
953.233	513
953.323	863
953.413	90
953.503	1308
953.593	788
953.683	-441
953.773	53
953.863	340
953.953	512
954.042	339
954.132	191
954.222	514
954.312	-523
954.402	428
954.492	762
954.581	188
954.671	87
954.761	55
954.850	855
954.940	-474
955.030	337
955.119	-747
955.209	658
955.298	-425
955.388	832
955.477	1237
955.567	-975
955.656	549
955.746	115
955.835	-352
955.925	-289
956.014	394
956.103	601
956.193	1102
956.282	722
956.371	263
956.461	420
956.550	91
956.639	77
956.728	-525
956.817	311
956.906	-27
956.995	948
957.085	-80
957.174	364
957.263	-36
957.352	513
957.441	-77
957.530	742
957.619	-311
957.708	-226
957.796	149
957.885	230
957.974	-281
958.063	757
958.152	-871
958.241	436
958.329	250
958.418	70
958.507	-707
958.596	1238
958.684	-1225
958.773	294
958.861	-342
958.950	65
959.039	-37
959.127	71
959.216	738
959.304	-67
959.393	43
959.481	348
959.570	-110
959.658	-783
959.746	-601
959.835	1095
959.923	-607
960.011	-232
960.100	-29
960.188	877
960.276	-1221
960.365	255
960.453	-1001
960.541	-666
960.629	-237
960.717	-191
960.805	-1324
960.893	708
960.981	-1221
961.069	1071
961.158	-45
961.245	-154
961.333	144
961.421	232
961.509	-263
961.597	300
961.685	-563
961.773	327
961.861	-130
961.949	1153
962.036	-370
962.124	770
962.212	-647
962.299	-590
962.387	-464
962.475	5
962.562	-976
962.650	124
962.738	76
962.825	-885
962.913	-6
963.000	465
963.088	-271
963.175	1035
963.263	-763
963.350	109
963.438	-359
963.525	-526
963.612	125
963.700	-58
963.787	270
963.874	-108
963.962	281
964.049	-668
964.136	-772
964.223	-792
964.310	52
964.398	-222
964.485	-516
964.572	418
964.659	-71
964.746	-693
964.833	-224
964.920	-61
965.007	-330
965.094	529
965.181	-596
965.268	246
965.355	-558
965.441	171
965.528	-814
965.615	77
965.702	-278
965.789	73
965.875	-681
965.962	554
966.049	-118
966.136	17
966.222	-560
966.309	978
966.395	-726
966.482	662
966.569	-575
966.655	663
966.742	-238
966.828	252
966.915	-247
967.001	603
967.087	-1393
967.174	-342
967.260	323
967.347	319
967.433	-426
967.519	165
967.605	-461
967.692	563
967.778	-774
967.864	-88
967.950	-605
968.036	-562
968.123	-106
968.209	-180
968.295	-813
968.381	736
968.467	-115
968.553	-1089
968.639	-350
968.725	-211
968.811	-326
968.897	291
968.983	-1055
969.069	-1007
969.154	144
969.240	540
969.326	-1130
969.412	-106
969.497	-1576
969.583	-375
969.669	903
969.755	441
969.840	-716
969.926	592
970.012	-44
970.097	2059
970.183	-115
970.268	-66
970.354	-281
970.439	-1108
970.525	458
970.610	-1240
970.696	641
970.781	-677
970.866	-818
970.952	491
971.037	-1157
971.122	-813
971.208	-449
971.293	-90
971.378	-2104
971.463	225
971.549	-363
971.634	-149
971.719	-127
971.804	-441
971.889	257
971.974	-559
972.059	-1369
972.144	-226
972.229	-644
972.314	-539
972.399	-628
972.484	-357
972.569	-467
972.654	-1361
972.739	-28
972.824	-346
972.908	-1086
972.993	369
973.078	-1128
973.163	-473
973.247	-143
973.332	-502
973.417	-417
973.501	-875
973.586	-830
973.671	68
973.755	-954
973.840	502
973.924	-50
974.009	769
974.093	-333
974.178	984
974.262	-1018
974.346	61
974.431	-658
974.515	-517
974.600	-867
974.684	805
974.768	-297
974.852	169
974.937	-598
975.021	-369
975.105	-456
975.189	-194
975.273	426
975.358	-390
975.442	-1300
975.526	1343
975.610	-1707
975.694	-986
975.778	826
975.862	245
975.946	-1971
976.030	1044
976.114	-885
976.198	-498
976.281	-1240
976.365	473
976.449	-778
976.533	167
976.617	-868
976.700	-304
976.784	-737
976.868	50
976.951	-379
977.035	-402
977.119	-605
977.202	-444
977.286	-140
977.369	321
977.453	1029
977.536	-568
977.620	-765
977.703	784
977.787	-1485
977.870	190
977.953	114
978.037	-1265
978.120	-192
978.203	-206
978.287	-516
978.370	-11
978.453	-1129
978.536	-1010
978.620	-240
978.703	114
978.786	-1507
978.869	-719
978.952	-1631
979.035	757
979.118	-300
979.201	-392
979.284	293
979.367	-570
979.450	-600
979.533	-575
979.616	-1077
979.699	-883
979.782	-502
979.865	-214
979.948	-756
980.030	-1104
980.113	65
980.196	-1193
980.279	43
980.361	-506
980.444	-621
980.526	-309
980.609	635
980.692	-63
980.774	349
980.857	-556
980.939	503
981.022	-577
981.104	-822
981.187	-156
981.269	-52
981.352	-38
981.434	-1123
981.516	-617
981.599	321
981.681	27
981.763	-589
981.846	-38
981.928	-717
982.010	-7
982.092	-1181
982.174	587
982.256	-978
982.339	220
982.421	-489
982.503	-282
982.585	-1772
982.667	-483
982.749	-30
982.831	-126
982.913	-1772
982.995	1063
983.077	-1669
983.158	1160
983.240	-2087
983.322	1031
983.404	183
983.486	-18
983.568	114
983.649	-273
983.731	50
983.813	-208
983.894	257
983.976	-492
984.058	-877
984.139	925
984.221	-1894
984.302	-204
984.384	-462
984.465	-576
984.547	-644
984.628	-648
984.710	97
984.791	-395
984.872	-797
984.954	90
985.035	-310
985.116	-332
985.198	-1143
985.279	1605
985.360	-657
985.441	248
985.522	-214
985.604	-314
985.685	-2030
985.766	30
985.847	527
985.928	-820
986.009	-724
986.090	353
986.171	625
986.252	-408
986.333	-812
986.414	112
986.495	-477
986.576	-363
986.656	641
986.737	443
986.818	203
986.899	-993
986.980	-509
987.060	885
987.141	-1001
987.222	335
987.302	-257
987.383	567
987.464	-140
987.544	798
987.625	-749
987.705	1276
987.786	-206
987.866	636
987.947	-1095
988.027	914
988.108	-643
988.188	671
988.268	-31
988.349	1015
988.429	-517
988.509	1050
988.589	-454
988.670	-1182
988.750	1056
988.830	160
988.910	-264
988.990	-110
989.070	-140
989.151	328
989.231	-851
989.311	1137
989.391	-586
989.471	400
989.551	-1184
989.631	-809
989.711	115
989.791	-724
989.870	-307
989.950	1148
990.030	-531
990.110	50
990.190	-706
990.269	31
990.349	-857
990.429	-603
990.509	96
990.588	926
990.668	-284
990.747	156
990.827	-688
990.907	1162
990.986	-617
991.066	-485
991.145	-702
991.225	229
991.304	119
991.383	539
991.463	-1125
991.542	-84
991.622	-44
991.701	-349
991.780	-297
991.859	681
991.939	-1106
992.018	-494
992.097	233
992.176	-653
992.256	-803
992.335	-853
992.414	-605
992.493	-824
992.572	-652
992.651	708
992.730	-515
992.809	-219
992.888	-484
992.967	-288
993.046	-348
993.125	-659
993.203	518
993.282	-275
993.361	-383
993.440	-26
993.519	-759
993.597	-557
993.676	-1385
993.755	353
993.834	-1312
993.912	-969
993.991	75
994.069	-1192
994.148	234
994.226	-833
994.305	-411
994.384	-879
994.462	589
994.540	-1041
994.619	-1394
994.697	291
994.776	-907
994.854	-141
994.932	-1066
995.011	-567
995.089	-1628
995.167	-630
995.245	-512
995.324	-1360
995.402	-723
995.480	-520
995.558	-665
995.636	-906
995.714	-1346
995.792	396
995.870	-1657
995.948	-946
996.026	-709
996.104	-1075
996.182	-544
996.260	-204
996.338	-895
996.416	-1014
996.494	-1836
996.572	1023
996.649	-2001
996.727	-910
996.805	-1159
996.883	-442
996.960	-1471
997.038	-666
997.116	-969
997.193	-1370
997.271	199
997.348	-663
997.426	-688
997.504	-1501
997.581	-457
997.658	-602
997.736	-1813
997.813	-1442
997.891	-362
997.968	-1265
998.046	-304
998.123	-890
998.200	-950
998.277	-988
998.355	-1767
998.432	-2002
998.509	-648
998.586	-47
998.663	-1309
998.741	-681
998.818	-753
998.895	-513
998.972	-801
999.049	-488
999.126	-1904
999.203	-554
999.280	-1316
999.357	-1740
999.434	-1442
999.511	-821
999.587	-762
999.664	-1970
999.741	-902
999.818	-342
999.895	-1775
999.971	-1346
1000.048	-1665
1000.125	-540
1000.202	-1322
1000.278	-1428
1000.355	-1649
1000.431	-985
1000.508	-2546
1000.584	-910
1000.661	-1512
1000.738	-1389
1000.814	-1217
1000.890	-1211
1000.967	-1506
1001.043	-1056
1001.120	-2638
1001.196	-1087
1001.272	-1400
1001.349	-1514
1001.425	-1005
1001.501	-776
1001.577	-2483
1001.654	-538
1001.730	-1535
1001.806	-1091
1001.882	-2216
1001.958	-1109
1002.034	-981
1002.110	-693
1002.186	-2182
1002.262	-1605
1002.338	-2135
1002.414	-1213
1002.490	-1323
1002.566	-1759
1002.642	-2033
1002.718	-1243
1002.794	-921
1002.870	-1003
1002.945	-1438
1003.021	-998
1003.097	-1892
1003.173	-748
1003.248	-1909
1003.324	-1509
1003.400	-1187
1003.475	-934
1003.551	-1900
1003.626	-1216
1003.702	-1680
1003.777	-1093
1003.853	-2091
1003.928	-1396
1004.004	-1128
1004.079	-805
1004.155	-1482
1004.230	-1258
1004.305	-644
1004.381	-1750
1004.456	-2362
1004.531	-1524
1004.607	-1425
1004.682	-1235
1004.757	-1521
1004.832	-736
1004.907	-1691
1004.982	-1611
1005.057	-1273
1005.133	-1389
1005.208	-1643
1005.283	-1739
1005.358	-1442
1005.433	-2193
1005.508	-1961
1005.583	-1602
1005.657	-2203
1005.732	-988
1005.807	-2304
1005.882	-926
1005.957	-1753
1006.032	-738
1006.106	-1284
1006.181	-1080
1006.256	-1813
1006.331	-1443
1006.405	-3005
1006.480	-405
1006.554	-1144
1006.629	-754
1006.704	-1857
1006.778	-1450
1006.853	-1314
1006.927	-854
1007.002	-2187
1007.076	-1390
1007.150	-1986
1007.225	-1044
1007.299	-1494
1007.373	-2049
1007.448	-2124
1007.522	-449
1007.596	-1811
1007.671	-1730
1007.745	-1716
1007.819	-1687
1007.893	-2127
1007.967	-995
1008.041	-2249
1008.115	-1300
1008.190	-1491
1008.264	-801
1008.338	-2500
1008.412	-2094
1008.486	-2020
1008.560	-1285
1008.633	-2477
1008.707	-1370
1008.781	-1632
1008.855	-1799
1008.929	-1674
1009.003	-1371
1009.076	-2106
1009.150	-1295
1009.224	-2026
1009.298	-368
1009.371	-2169
1009.445	-316
1009.519	-1755
1009.592	-2179
1009.666	-1612
1009.739	-1277
1009.813	-2642
1009.886	-896
1009.960	-3084
1010.033	-601
1010.107	-2175
1010.180	-2257
1010.253	-1395
1010.327	-2108
1010.400	-1793
1010.473	-1576
1010.547	-296
1010.620	-2063
1010.693	-2189
1010.766	-1635
1010.840	-1223
1010.913	-918
1010.986	-2142
1011.059	-776
1011.132	-2461
1011.205	-514
1011.278	-1526
1011.351	-1552
1011.424	-1303
1011.497	-2324
1011.570	-1863
1011.643	-1899
1011.716	-2627
1011.789	-251
1011.862	-780
1011.934	-509
1012.007	-2704
1012.080	-1339
1012.153	-1814
1012.225	-502
1012.298	-2537
1012.371	-795
1012.443	-1242
1012.516	-2579
1012.588	-1793
1012.661	-1611
1012.733	-2415
1012.806	-548
1012.879	-2272
1012.951	-1771
1013.023	-1905
1013.096	-2208
1013.168	-1505
1013.241	-1452
1013.313	-2241
1013.385	-2386
1013.458	-929
1013.530	-352
1013.602	-2333
1013.674	-371
1013.746	-2619
1013.819	-1710
1013.891	-1640
1013.963	-1661
1014.035	-1166
1014.107	-1350
1014.179	-1782
1014.251	-2289
1014.323	-1392
1014.395	-1541
1014.467	-671
1014.539	-2176
1014.611	-2845
1014.683	-1650
1014.754	-2378
1014.826	-2395
1014.898	-1957
1014.970	-1993
1015.042	-827
1015.113	-1251
1015.185	-2057
1015.257	-1710
1015.328	-1717
1015.400	-1943
1015.471	-2329
1015.543	-2352
1015.615	-2224
1015.686	-1314
1015.757	-2107
1015.829	-1905
1015.901	-2174
1015.972	-823
1016.043	-1620
1016.115	-1100
1016.186	-1892
1016.257	-2339
1016.328	-1280
1016.400	-1090
1016.471	-2603
1016.542	-2205
1016.613	-2544
1016.685	-1574
1016.756	-1772
1016.827	-1867
1016.898	-2810
1016.969	-698
1017.040	-2189
1017.111	-1455
1017.182	-2001
1017.253	-1221
1017.324	-1649
1017.395	-1897
1017.466	-1174
1017.537	-1342
1017.608	-2677
1017.678	-1536
1017.749	-1793
1017.820	-2133
1017.891	-2980
1017.961	-1154
1018.032	-2244
1018.103	-887
1018.173	-1832
1018.244	-1737
1018.315	-1859
1018.385	-991
1018.456	-1372
1018.526	-1658
1018.597	-1938
1018.667	-951
1018.738	-1647
1018.808	-1464
1018.878	-1514
1018.949	-1744
1019.019	-1423
1019.089	-1175
1019.160	-2088
1019.230	-1942
1019.300	-1509
1019.371	-2166
1019.441	-1724
1019.511	-1549
1019.581	-2311
1019.651	-1781
1019.721	-1818
1019.791	-1575
1019.861	-1642
1019.931	-1155
1020.001	-2117
1020.071	-1169
1020.141	-2085
1020.211	-2185
1020.281	-3391
1020.351	-1856
1020.421	-1335
1020.491	-1511
1020.560	-2809
1020.630	-2321
1020.700	-2256
1020.770	-2639
1020.839	-2600
1020.909	-1960
1020.979	-2488
1021.048	-1692
1021.118	-1637
1021.187	-1721
1021.257	-2061
1021.326	-1348
1021.396	-1467
1021.465	-1009
1021.535	-1600
1021.604	-2103
1021.674	-2198
1021.743	-1488
1021.812	-2710
1021.882	-965
1021.951	-882
1022.020	-2064
1022.089	-1809
1022.159	-1686
1022.228	-2083
1022.297	-1822
1022.366	-2145
1022.435	-1388
1022.504	-2657
1022.573	-2158
1022.642	-2205
1022.711	-1531
1022.781	-1699
1022.849	-1603
1022.918	-2212
1022.987	-1762
1023.056	-2736
1023.125	-1130
1023.194	-1851
1023.263	-1582
1023.331	-1743
1023.400	-2093
1023.469	-2652
1023.538	-1148
1023.606	-2134
1023.675	-1008
1023.744	-2025
1023.812	-2171
1023.881	-1591
1023.949	-1521
1024.018	-2133
1024.086	-2323
1024.155	-2113
1024.223	-2138
1024.292	-1327
1024.360	-2124
1024.429	-1085
1024.497	-1675
1024.565	-2663
1024.634	-1746
1024.702	-2539
1024.770	-1474
1024.838	-1567
1024.907	-1344
1024.975	-1790
1025.043	-771
1025.111	-1681
1025.179	-1642
1025.247	-2425
1025.315	-1821
1025.383	-1443
1025.451	-1882
1025.519	-1908
1025.587	-1958
1025.655	-964
1025.723	-2035
1025.791	-2110
1025.859	-1049
1025.927	-1509
1025.995	-1688
1026.062	-1945
1026.130	-2017
1026.198	-1900
1026.266	-2261
1026.333	-2349
1026.401	-797
1026.469	-1688
1026.536	-1672
1026.604	-2301
1026.671	-1370
1026.739	-1852
1026.806	-1162
1026.874	-2871
1026.941	-1653
1027.009	-1897
1027.076	-1509
1027.144	-870
1027.211	-1933
1027.278	-2032
1027.345	-1947
1027.413	-2300
1027.480	-1518
1027.547	-1984
1027.614	-1246
1027.682	-1258
1027.749	-1046
1027.816	-2264
1027.883	-1667
1027.950	-2459
1028.017	-2215
1028.084	-1462
1028.151	-1976
1028.218	-1978
1028.285	-1139
1028.352	-1855
1028.419	-1895
1028.486	-2191
1028.553	-2000
1028.619	-2255
1028.686	-1410
1028.753	-1611
1028.820	-2055
1028.886	-2301
1028.953	-1362
1029.020	-1881
1029.086	-1570
1029.153	-1934
1029.220	-1842
1029.286	-2040
1029.353	-2001
1029.419	-2051
1029.486	-1605
1029.552	-2461
1029.619	-1827
1029.685	-2353
1029.751	-1827
1029.818	-1345
1029.884	-2653
1029.951	-1626
1030.017	-1109
1030.083	-1824
1030.149	-1803
1030.216	-2227
1030.282	-1572
1030.348	-2411
1030.414	-2615
1030.480	-2596
1030.546	-2041
1030.612	-2012
1030.678	-1787
1030.744	-1408
1030.810	-1871
1030.876	-1711
1030.942	-1849
1031.008	-1360
1031.074	-2360
1031.140	-2244
1031.206	-1228
1031.272	-2882
1031.337	-1836
1031.403	-1629
1031.469	-1246
1031.534	-2731
1031.600	-1279
1031.666	-3160
1031.731	-2366
1031.797	-2316
1031.863	-2744
1031.928	-1812
1031.994	-2188
1032.059	-2129
1032.125	-1371
1032.190	-2271
1032.256	-2101
1032.321	-2670
1032.386	-1399
1032.452	-1627
1032.517	-2055
1032.582	-2733
1032.647	-1558
1032.713	-2034
1032.778	-1694
1032.843	-2285
1032.908	-1748
1032.974	-1837
1033.039	-2378
1033.104	-1538
1033.169	-1581
1033.234	-2265
1033.299	-1718
1033.364	-1540
1033.429	-2228
1033.494	-2635
1033.559	-2603
1033.624	-1709
1033.688	-1770
1033.753	-2463
1033.818	-1354
1033.883	-1880
1033.948	-1765
1034.013	-2810
1034.077	-657
1034.142	-1569
1034.207	-1497
1034.271	-141
1034.336	-278
1034.400	-689
1034.465	-1763
1034.530	-1604
1034.594	-1980
1034.658	-1769
1034.723	-2328
1034.787	-1823
1034.852	-2387
1034.916	-2513
1034.981	-2105
1035.045	-2003
1035.109	-2123
1035.173	-2276
1035.238	-2207
1035.302	-2504
1035.366	-1240
1035.430	-2130
1035.495	-1977
1035.559	-1558
1035.623	-1741
1035.687	-2834
1035.751	-1203
1035.815	-2364
1035.879	-1452
1035.943	-1580
1036.007	-2295
1036.071	-2682
1036.135	-1784
1036.198	-2615
1036.262	-1906
1036.326	-2307
1036.390	-2356
1036.454	-2180
1036.517	-1756
1036.581	-2237
1036.645	-1686
1036.709	-2199
1036.772	-1200
1036.836	-2143
1036.900	-2259
1036.963	-3440
1037.026	-1487
1037.090	-2103
1037.154	-2725
1037.217	-1631
1037.280	-2808
1037.344	-3085
1037.407	-2231
1037.471	-1968
1037.534	-2008
1037.597	-2148
1037.661	-1772
1037.724	-2737
1037.787	-2501
1037.850	-2844
1037.913	-1953
1037.977	-1659
1038.040	-1766
1038.103	-1887
1038.166	-1315
1038.229	-2229
1038.292	-2576
1038.355	-2362
1038.418	-1544
1038.481	-2132
1038.544	-2089
1038.607	-2942
1038.670	-2223
1038.732	-2172
1038.795	-1886
1038.858	-2264
1038.921	-1657
1038.984	-2045
1039.046	-2236
1039.109	-2559
1039.172	-1367
1039.234	-1916
1039.297	-1490
1039.360	-2548
1039.422	-2642
1039.485	-2496
1039.547	-2002
1039.610	-2947
1039.672	-1383
1039.734	-2671
1039.797	-2141
1039.859	-2438
1039.922	-2265
1039.984	-2232
1040.046	-2115
1040.109	-2553
1040.171	-1830
1040.233	-1895
1040.295	-3031
1040.358	-2843
1040.420	-2030
1040.482	-1782
1040.544	-1958
1040.606	-2048
1040.668	-1269
1040.730	-2075
1040.792	-2006
1040.854	-2096
1040.916	-2006
1040.978	-2949
1041.040	-2339
1041.102	-2911
1041.164	-2164
1041.225	-2011
1041.287	-2266
1041.349	-1967
1041.411	-1777
1041.472	-2956
1041.534	-1064
1041.596	-2670
1041.657	-738
1041.719	-1563
1041.781	-1879
1041.842	-2157
1041.904	-1479
1041.965	-2568
1042.027	-1621
1042.088	-1995
1042.150	-1252
1042.211	-2251
1042.272	-1201
1042.334	-2713
1042.395	-1921
1042.456	-2239
1042.518	-2227
1042.579	-1928
1042.640	-1275
1042.701	-1975
1042.763	-1360
1042.824	-2496
1042.885	-1411
1042.946	-2477
1043.007	-902
1043.068	-2149
1043.129	-899
1043.190	-2113
1043.251	-1214
1043.312	-2765
1043.373	-1846
1043.434	-2390
1043.495	-2140
1043.556	-1876
1043.616	-1328
1043.677	-1493
1043.738	-1534
1043.799	-2398
1043.859	-1190
1043.920	-2479
1043.981	-1878
1044.041	-2062
1044.102	-1784
1044.162	-1983
1044.223	-1850
1044.284	-1667
1044.344	-1230
1044.405	-2056
1044.465	-1710
1044.525	-1821
1044.586	-2237
1044.646	-2842
1044.707	-1633
1044.767	-2206
1044.827	-1207
1044.887	-2534
1044.948	-902
1045.008	-2309
1045.068	-1642
1045.128	-2530
1045.188	-1919
1045.249	-1809
1045.309	-1498
1045.369	-1916
1045.429	-891
1045.489	-1983
1045.549	-1718
1045.609	-2301
1045.669	-2349
1045.729	-2292
1045.789	-1311
1045.848	-2271
1045.908	-1199
1045.968	-2152
1046.028	-1000
1046.088	-1997
1046.147	-953
1046.207	-2305
1046.267	-1156
1046.326	-2122
1046.386	-1612
1046.446	-1958
1046.505	-1280
1046.565	-1861
1046.624	-72
1046.684	-1369
1046.743	-600
1046.803	-1203
1046.862	160
1046.922	0
