'Start Wavelength	183.907
'End Wavelength	1046.922
'Gate Delay	5.000
'Gate Width (ms)	1.050
'Laser Output Level	0.000
'X Position	0.000
'Y Position	0.000
'Z Position	0.000
'Grid Point Number	1.000
'Shot Number	100.000
183.907	-519.000
183.977	-693.000
184.047	-58
184.116	725
184.186	719
184.256	39
184.325	154
184.395	-553
184.465	159
184.534	597
184.604	-521
184.674	1013
184.743	-665
184.813	793
184.883	-747
184.952	489
185.022	-240
185.092	987
185.161	-56
185.231	-253
185.301	-440
185.370	782
185.440	-374
185.509	-511
185.579	112
185.649	577
185.718	560
185.788	1250
185.857	-101
185.927	-199
185.996	-564
186.066	262
186.136	-394
186.205	141
186.275	302
186.344	-297
186.414	-210
186.483	-333
186.553	519
186.622	849
186.692	-127
186.761	872
186.831	267
186.900	69
186.970	371
187.039	1066
187.109	312
187.178	454
187.248	421
187.317	283
187.387	-588
187.456	892
187.526	58
187.595	404
187.664	13
187.734	-304
187.803	292
187.873	520
187.942	-159
188.012	1262
188.081	-78
188.150	218
188.220	-770
188.289	-42
188.358	46
188.428	985
188.497	-1527
188.567	1058
188.636	-641
188.705	-206
188.775	-851
188.844	-280
188.913	136
188.983	498
189.052	-237
189.121	-83
189.191	45
189.260	255
189.329	-78
189.399	314
189.468	-37
189.537	549
189.606	-236
189.676	366
189.745	-420
189.814	451
189.883	-1068
189.953	680
190.022	-679
190.091	97
190.161	-392
190.230	-260
190.299	-397
190.368	-212
190.437	-188
190.507	678
190.576	-123
190.645	-624
190.714	29
190.783	291
190.853	451
190.922	386
190.991	-14
191.060	336
191.129	-544
191.198	276
191.268	-451
191.337	-184
191.406	-132
191.475	19
191.544	-230
191.613	420
191.682	-324
191.752	-252
191.821	-800
191.890	-599
191.959	-1002
192.028	456
192.097	-601
192.166	877
192.235	-377
192.304	139
192.373	-507
192.442	494
192.511	451
192.580	272
192.650	-558
192.719	91
192.788	217
192.857	621
192.926	-370
192.995	141
193.064	286
193.133	143
193.202	-265
193.271	361
193.340	-222
193.409	226
193.478	318
193.547	1165
193.615	-322
193.684	94
193.753	-901
193.822	-361
193.891	-214
193.960	46
194.029	-862
194.098	206
194.167	-336
194.236	555
194.305	-19
194.374	-4
194.443	-255
194.512	123
194.580	-819
194.649	246
194.718	-648
194.787	-500
194.856	-1647
194.925	-188
194.994	-837
195.062	40
195.131	-150
195.200	-3
195.269	-286
195.338	156
195.407	152
195.475	-318
195.544	425
195.613	119
195.682	-584
195.751	-386
195.819	-1195
195.888	629
195.957	364
196.026	-445
196.094	-423
196.163	758
196.232	-291
196.301	-690
196.369	-91
196.438	251
196.507	-301
196.576	-382
196.644	-384
196.713	-223
196.782	-92
196.850	-173
196.919	-681
196.988	111
197.056	-87
197.125	-364
197.194	-106
197.262	-156
197.331	72
197.400	22
197.468	-468
197.537	-527
197.606	-842
197.674	-217
197.743	-358
197.812	-24
197.880	-1361
197.949	-369
198.017	-773
198.086	864
198.155	-1099
198.223	411
198.292	-834
198.360	-722
198.429	-34
198.497	-358
198.566	-734
198.635	332
198.703	151
198.772	-604
198.840	-548
198.909	-169
198.977	-916
199.046	250
199.114	-546
199.183	-394
199.251	-549
199.320	29
199.388	-660
199.457	-308
199.525	-667
199.594	-352
199.662	-84
199.731	-51
199.799	-588
199.867	-102
199.936	-1057
200.004	7
200.073	-726
200.141	-7
200.210	-673
200.278	-3
200.346	-1832
200.415	95
200.483	-748
200.552	247
200.620	-385
200.688	-175
200.757	317
200.825	-152
200.893	-430
200.962	210
201.030	-490
201.098	-125
201.167	-264
201.235	387
201.303	-652
201.372	-67
201.440	-674
201.508	162
201.577	-234
201.645	291
201.713	-324
201.781	-134
201.850	179
201.918	473
201.986	-669
202.055	502
202.123	308
202.191	40
202.259	-142
202.327	204
202.396	-307
202.464	486
202.532	-570
202.600	286
202.669	-614
202.737	-52
202.805	-471
202.873	442
202.941	-805
203.009	7
203.078	-279
203.146	-70
203.214	-614
203.282	-1053
203.350	248
203.418	416
203.487	-745
203.555	86
203.623	-89
203.691	-254
203.759	-294
203.827	-647
203.895	-573
203.963	-735
204.031	-512
204.099	-814
204.168	-840
204.236	213
204.304	-507
204.372	245
204.440	-1145
204.508	-573
204.576	-705
204.644	4
204.712	-595
204.780	71
204.848	314
204.916	-151
204.984	-356
205.052	127
205.120	-775
205.188	274
205.256	-670
205.324	-377
205.392	-841
205.460	-484
205.528	-1495
205.596	-214
205.664	-719
205.732	-106
205.799	-175
205.867	-46
205.935	-1360
206.003	561
206.071	-1072
206.139	-342
206.207	-714
206.275	-3
206.343	-280
206.411	-247
206.478	-361
206.546	-358
206.614	-326
206.682	-149
206.750	-1281
206.818	1047
206.885	-389
206.953	-867
207.021	42
207.089	10
207.157	-1257
207.225	-48
207.292	-947
207.360	-348
207.428	-848
207.496	-819
207.563	-832
207.631	-271
207.699	-549
207.767	800
207.834	-326
207.902	-824
207.970	-948
208.038	-429
208.105	-1285
208.173	29
208.241	-715
208.309	-170
208.376	110
208.444	-83
208.512	-173
208.579	-1044
208.647	46
208.715	-25
208.782	-1197
208.850	-484
208.918	-1026
208.985	-175
209.053	-532
209.120	-384
209.188	-822
209.256	-223
209.323	-1291
209.391	-416
209.459	346
209.526	-318
209.594	-411
209.661	38
209.729	-418
209.796	-622
209.864	-377
209.932	-1093
209.999	605
210.067	583
210.134	-1243
210.202	-107
210.269	-161
210.337	3
210.404	-1659
210.472	-455
210.539	-688
210.607	-659
210.674	-721
210.742	-816
210.809	-767
210.877	-125
210.944	227
211.012	-790
211.079	847
211.146	-601
211.214	-330
211.281	674
211.349	-677
211.416	-470
211.484	-203
211.551	-885
211.618	-294
211.686	477
211.753	-1182
211.821	553
211.888	-1028
211.955	-715
212.023	-347
212.090	587
212.157	-58
212.225	-393
212.292	-1222
212.359	-333
212.427	-1689
212.494	-164
212.561	-814
212.629	-131
212.696	-1546
212.763	-182
212.831	-2060
212.898	413
212.965	-1449
213.032	-303
213.100	-1154
213.167	-599
213.234	-495
213.301	-528
213.369	-445
213.436	-34
213.503	-1678
213.570	234
213.638	-897
213.705	-749
213.772	-1759
213.839	-178
213.906	-290
213.973	-1293
214.041	-2123
214.108	-71
214.175	-342
214.242	-149
214.309	-489
214.376	-580
214.444	-477
214.511	-90
214.578	-1041
214.645	-479
214.712	-254
214.779	-25
214.846	-1514
214.913	-182
214.980	-558
215.048	-674
215.115	-257
215.182	-764
215.249	-965
215.316	-706
215.383	197
215.450	-351
215.517	-1193
215.584	-824
215.651	-725
215.718	157
215.785	-956
215.852	-1241
215.919	-94
215.986	250
216.053	-1285
216.120	-809
216.187	-740
216.254	303
216.321	-437
216.388	-617
216.455	-1163
216.522	-577
216.589	-1267
216.656	-115
216.722	-1659
216.789	-132
216.856	-509
216.923	43
216.990	145
217.057	-810
217.124	-786
217.191	-759
217.258	-398
217.324	-825
217.391	-565
217.458	-555
217.525	-688
217.592	448
217.659	-1512
217.725	345
217.792	-1620
217.859	-34
217.926	-1626
217.993	-863
218.059	-356
218.126	-1063
218.193	-1304
218.260	274
218.327	-1090
218.393	-1079
218.460	-1563
218.527	-78
218.594	-1079
218.660	-1291
218.727	-846
218.794	-1350
218.860	-282
218.927	-450
218.994	-791
219.061	-1398
219.127	-905
219.194	-1014
219.261	-134
219.327	-1083
219.394	-45
219.461	-1382
219.527	-1060
219.594	-352
219.661	-1417
219.727	-939
219.794	-677
219.860	-1206
219.927	-473
219.994	-749
220.060	-156
220.127	541
220.193	-456
220.260	-20
220.326	-867
220.393	-627
220.460	-1563
220.526	-1429
220.593	-1477
220.659	1250
220.726	-1278
220.792	-275
220.859	-1243
220.925	-551
220.992	-831
221.058	-424
221.125	-527
221.191	-1032
221.258	-1311
221.324	-84
221.391	-956
221.457	-159
221.524	-1430
221.590	-261
221.657	-351
221.723	-875
221.789	-1680
221.856	698
221.922	-1461
221.989	433
222.055	-900
222.121	-1774
222.188	391
222.254	55
222.321	-775
222.387	-594
222.453	-762
222.520	-406
222.586	-1558
222.652	-588
222.719	-1295
222.785	-242
222.851	-882
222.918	-717
222.984	-378
223.050	-968
223.116	-2434
223.183	-92
223.249	-1247
223.315	-460
223.382	-1008
223.448	-852
223.514	-1444
223.580	-870
223.647	-1574
223.713	-1684
223.779	-631
223.845	-120
223.911	-1251
223.978	-1414
224.044	-716
224.110	-1069
224.176	-1017
224.242	-17
224.309	-1874
224.375	145
224.441	-692
224.507	-823
224.573	-1473
224.639	99
224.705	-1173
224.772	-333
224.838	-1320
224.904	156
224.970	-1516
225.036	-679
225.102	-2250
225.168	283
225.234	-685
225.300	-217
225.366	-927
225.432	-512
225.499	-1280
225.565	-685
225.631	-1459
225.697	-180
225.763	-1095
225.829	-609
225.895	-1311
225.961	214
226.027	-310
226.093	-1490
226.159	40
226.225	57
226.291	-209
226.357	-1030
226.423	-781
226.489	-300
226.554	-694
226.620	56
226.686	-1482
226.752	-364
226.818	-1902
226.884	64
226.950	-445
227.016	-545
227.082	-309
227.148	-943
227.214	-764
227.279	-313
227.345	-641
227.411	-722
227.477	-929
227.543	646
227.609	-242
227.674	-20
227.740	-1083
227.806	133
227.872	-1744
227.938	256
228.003	-480
228.069	-1248
228.135	-1604
228.201	-367
228.267	-1390
228.332	-719
228.398	-2027
228.464	-422
228.530	-1689
228.595	-601
228.661	-1369
228.727	-1097
228.792	334
228.858	-173
228.924	-2400
228.990	812
229.055	-1586
229.121	92
229.187	-1809
229.252	-730
229.318	-932
229.384	-132
229.449	-1137
229.515	-1747
229.581	-1196
229.646	438
229.712	-1158
229.777	-936
229.843	-1534
229.909	-377
229.974	-354
230.040	-567
230.105	-1543
230.171	-1125
230.236	-907
230.302	-757
230.368	-805
230.433	-1623
230.499	-1475
230.564	795
230.630	-2227
230.695	-699
230.761	-478
230.826	-1462
230.892	-261
230.957	-1044
231.023	-1420
231.088	-52
231.154	-1053
231.219	-55
231.284	-2180
231.350	-216
231.415	-2216
231.481	-268
231.546	-962
231.612	-96
231.677	-1212
231.742	-1187
231.808	170
231.873	-629
231.939	-2842
232.004	233
232.069	-526
232.135	-1119
232.200	-1541
232.265	424
232.331	-1826
232.396	-767
232.461	-1652
232.527	-838
232.592	-1953
232.657	-996
232.723	-1212
232.788	-858
232.853	-459
232.918	-469
232.984	-1598
233.049	-675
233.114	-1588
233.179	-586
233.245	-458
233.310	-470
233.375	-2205
233.440	206
233.506	-1295
233.571	-866
233.636	-944
233.701	-1301
233.766	-1001
233.832	-947
233.897	-1460
233.962	-1793
234.027	-100
234.092	-283
234.157	-892
234.222	-950
234.288	-1013
234.353	-742
234.418	-384
234.483	-227
234.548	-625
234.613	-899
234.678	-1355
234.743	-1511
234.808	45
234.873	-2311
234.938	179
235.004	28
235.069	-1522
235.134	-1699
235.199	-1099
235.264	-912
235.329	-2463
235.394	-363
235.459	-321
235.524	-1646
235.589	-701
235.654	-489
235.719	-1954
235.784	211
235.849	-2470
235.913	-1011
235.978	-1295
236.043	-1158
236.108	-1024
236.173	-701
236.238	-468
236.303	-507
236.368	-1466
236.433	378
236.498	-1371
236.563	-701
236.627	-1197
236.692	-141
236.757	-870
236.822	-777
236.887	-2339
236.952	354
237.017	-2452
237.081	443
237.146	-1874
237.211	-899
237.276	-879
237.341	-416
237.405	-2104
237.470	-507
237.535	-1237
237.600	-249
237.664	-1014
237.729	-1718
237.794	-2231
237.859	209
237.923	-868
237.988	-810
238.053	-845
238.118	-631
238.182	-1373
238.247	647
238.312	-1790
238.376	351
238.441	-3091
238.506	-23
238.570	-1934
238.635	264
238.700	-550
238.764	-921
238.829	-957
238.893	-2077
238.958	-491
239.023	-388
239.087	-1599
239.152	-554
239.216	-2054
239.281	-1080
239.346	-254
239.410	-628
239.475	-1228
239.539	-26
239.604	-2295
239.668	-241
239.733	-673
239.797	139
239.862	1010
239.926	1442
239.991	141
240.055	88
240.120	-1629
240.184	304
240.249	-885
240.313	-1190
240.378	-1114
240.442	-482
240.507	-794
240.571	-962
240.635	-1438
240.700	-558
240.764	-1180
240.829	-1357
240.893	-2442
240.957	449
241.022	-365
241.086	48
241.151	-2887
241.215	-1471
241.279	131
241.344	-312
241.408	-810
241.472	-1137
241.537	291
241.601	288
241.665	-2427
241.730	-1364
241.794	-568
241.858	-402
241.922	-1064
241.987	-489
242.051	-1132
242.115	-1673
242.179	-374
242.244	-946
242.308	-458
242.372	-726
242.436	-1786
242.501	-361
242.565	-1826
242.629	-1351
242.693	-1333
242.757	-1296
242.822	-943
242.886	-571
242.950	-275
243.014	-1195
243.078	-952
243.142	-856
243.206	-1136
243.271	-350
243.335	-1470
243.399	-178
243.463	-1488
243.527	-636
243.591	-1159
243.655	-865
243.719	-1413
243.783	119
243.847	-464
243.911	-382
243.975	-1480
244.040	-1346
244.104	336
244.168	-781
244.232	-1364
244.296	-861
244.360	-927
244.424	-1733
244.488	-997
244.552	-168
244.615	-2147
244.679	135
244.743	-1282
244.807	-1057
244.871	-1064
244.935	-101
244.999	-2207
245.063	-1574
245.127	-369
245.191	-609
245.255	-1297
245.319	-332
245.383	-2611
245.446	-207
245.510	-2028
245.574	-220
245.638	-1044
245.702	-2260
245.766	-902
245.829	688
245.893	-1792
245.957	-1258
246.021	-176
246.085	-1199
246.149	-1226
246.212	165
246.276	-941
246.340	-44
246.404	-1528
246.467	471
246.531	-3360
246.595	651
246.659	83
246.722	-1766
246.786	-658
246.850	-811
246.913	-1364
246.977	-1708
247.041	-587
247.104	65
247.168	-876
247.232	-237
247.295	-562
247.359	-313
247.423	-1476
247.486	-736
247.550	-54
247.614	-364
247.677	-1064
247.741	-733
247.804	-1053
247.868	23
247.932	-1688
247.995	938
248.059	-1790
248.122	-2203
248.186	-341
248.249	-225
248.313	-330
248.376	1015
248.440	-1570
248.503	-1510
248.567	564
248.630	-1283
248.694	-1173
248.757	138
248.821	41
248.884	1137
248.948	-1459
249.011	133
249.075	652
249.138	622
249.202	-663
249.265	-1034
249.328	-517
249.392	-936
249.455	-543
249.519	-226
249.582	-2081
249.645	298
249.709	-787
249.772	-1229
249.835	-1563
249.899	-607
249.962	-951
250.025	-844
250.089	-421
250.152	199
250.215	-224
250.279	-1879
250.342	-271
250.405	-725
250.468	-1239
250.532	-848
250.595	-328
250.658	-739
250.721	11
250.785	-1238
250.848	9
250.911	-700
250.974	-209
251.038	-1080
251.101	335
251.164	-1035
251.227	-1251
251.290	-1077
251.354	-1070
251.417	-238
251.480	292
251.543	-1503
251.606	354
251.669	1719
251.732	-918
251.795	-194
251.859	-396
251.922	-456
251.985	-49
252.048	351
252.111	-1143
252.174	-1667
252.237	-560
252.300	868
252.363	-1233
252.426	1918
252.489	-1269
252.552	-337
252.615	-1931
252.678	-407
252.741	-41
252.804	-142
252.867	373
252.930	204
252.993	-126
253.056	-50
253.119	-975
253.182	-1275
253.245	-637
253.308	179
253.371	-2003
253.434	-574
253.497	-763
253.559	267
253.622	-1481
253.685	-1152
253.748	-1212
253.811	-217
253.874	-273
253.937	-1071
254.000	-1255
254.062	-163
254.125	-602
254.188	-26
254.251	-1382
254.314	-1544
254.376	-1414
254.439	-694
254.502	-1253
254.565	-586
254.628	185
254.690	-81
254.753	-1538
254.816	-1026
254.878	-1008
254.941	245
255.004	-91
255.067	-1130
255.129	-1457
255.192	-1009
255.255	-2743
255.317	-376
255.380	-710
255.443	-443
255.505	-1687
255.568	-1470
255.631	-1531
255.693	-633
255.756	-1988
255.819	557
255.881	-1219
255.944	-259
256.006	-1633
256.069	-969
256.132	-1336
256.194	-938
256.257	-1323
256.319	14
256.382	-1865
256.444	1199
256.507	-1696
256.569	-639
256.632	-1085
256.694	-1508
256.757	-615
256.819	109
256.882	-1777
256.944	-1237
257.007	-180
257.069	-629
257.132	-1330
257.194	-33
257.257	-1246
257.319	-1240
257.381	-1304
257.444	313
257.506	-1699
257.569	-496
257.631	-900
257.693	-359
257.756	-999
257.818	-1445
257.880	-1746
257.943	-755
258.005	-1702
258.067	-1041
258.130	-910
258.192	-423
258.254	-1373
258.317	-1401
258.379	-789
258.441	-695
258.503	-617
258.566	-894
258.628	89
258.690	-1207
258.753	-751
258.815	-466
258.877	-1161
258.939	-273
259.001	63
259.064	-1009
259.126	-1339
259.188	-730
259.250	-1025
259.312	-497
259.375	-1539
259.437	-756
259.499	-679
259.561	-364
259.623	-1052
259.685	-948
259.747	-342
259.809	-107
259.872	-658
259.934	452
259.996	76
260.058	415
260.120	-1761
260.182	-244
260.244	-794
260.306	-973
260.368	-1175
260.430	-1075
260.492	-1180
260.554	-304
260.616	-2262
260.678	-463
260.740	-1139
260.802	-984
260.864	-614
260.926	-1640
260.988	-106
261.050	-940
261.112	-1654
261.174	132
261.236	-780
261.298	-625
261.359	-939
261.421	834
261.483	-1831
261.545	253
261.607	-2265
261.669	-813
261.731	-1581
261.793	-620
261.854	-2609
261.916	-228
261.978	-767
262.040	-238
262.102	-149
262.164	-697
262.225	-531
262.287	-20
262.349	-2010
262.411	-989
262.472	-494
262.534	-1189
262.596	-1500
262.658	-256
262.719	-1273
262.781	205
262.843	-1572
262.904	201
262.966	-2123
263.028	-1009
263.090	-876
263.151	-720
263.213	-666
263.275	-990
263.336	-1561
263.398	348
263.459	-1093
263.521	-529
263.583	-683
263.644	-32
263.706	-635
263.767	-1193
263.829	-1152
263.891	-124
263.952	-831
264.014	-1221
264.075	-1556
264.137	-1034
264.198	-356
264.260	-1531
264.321	-432
264.383	-914
264.444	-715
264.506	-540
264.567	-1979
264.629	-395
264.690	-2375
264.752	-335
264.813	-1017
264.875	-1589
264.936	-139
264.998	-1286
265.059	-1440
265.120	-361
265.182	-1106
265.243	-748
265.305	-1464
265.366	-686
265.427	-1560
265.489	364
265.550	-2021
265.611	-602
265.673	-1530
265.734	-1443
265.795	-938
265.857	-1293
265.918	-1897
265.979	-361
266.040	-2011
266.102	-637
266.163	-804
266.224	-817
266.286	-622
266.347	-542
266.408	-715
266.469	199
266.530	-1718
266.592	-405
266.653	-843
266.714	-1017
266.775	-824
266.836	137
266.898	-1547
266.959	-797
267.020	-960
267.081	401
267.142	-1026
267.203	-1164
267.264	-2058
267.326	112
267.387	-846
267.448	-1177
267.509	-1113
267.570	-599
267.631	-1267
267.692	-1421
267.753	-1014
267.814	-1466
267.875	-950
267.936	-263
267.997	-1136
268.058	-804
268.119	-1561
268.180	-1203
268.241	-1014
268.302	-114
268.363	-519
268.424	-429
268.485	-717
268.546	-477
268.607	-1441
268.668	-1293
268.729	-2354
268.790	-582
268.851	-1181
268.912	-912
268.972	-1448
269.033	-645
269.094	-2101
269.155	-742
269.216	-1233
269.277	-2232
269.338	-1124
269.398	-767
269.459	-1702
269.520	-1204
269.581	-1728
269.642	-276
269.702	-1742
269.763	-464
269.824	-1061
269.885	-891
269.945	-864
270.006	-369
270.067	-1269
270.128	-460
270.188	-1328
270.249	-1121
270.310	-2034
270.370	-513
270.431	-1327
270.492	-1743
270.553	-1130
270.613	-400
270.674	-1110
270.734	-1059
270.795	-976
270.856	-589
270.916	-1967
270.977	-387
271.038	-1522
271.098	-433
271.159	-1657
271.219	-1192
271.280	-828
271.340	-137
271.401	-1102
271.462	-743
271.522	-1525
271.583	-917
271.643	-2116
271.704	-454
271.764	-1192
271.825	-690
271.885	-575
271.946	1006
272.006	-281
272.066	-254
272.127	478
272.187	586
272.248	-240
272.308	-724
272.369	333
272.429	-547
272.489	-1108
272.550	-1549
272.610	-1629
272.671	-1353
272.731	-518
272.791	-172
272.852	-970
272.912	-264
272.972	-705
273.033	-666
273.093	-1197
273.153	-125
273.214	-417
273.274	-201
273.334	-301
273.394	132
273.455	-172
273.515	366
273.575	-210
273.635	-337
273.696	-535
273.756	1330
273.816	58
273.876	23
273.936	-816
273.997	-332
274.057	-1017
274.117	-110
274.177	-1417
274.237	-103
274.297	675
274.358	57
274.418	-1085
274.478	-409
274.538	-343
274.598	-533
274.658	-1120
274.718	-310
274.778	-1663
274.838	-300
274.898	-2076
274.958	-174
275.018	63
275.078	-149
275.138	-867
275.198	-977
275.258	-1552
275.318	-55
275.378	-1528
275.438	-537
275.498	-397
275.558	-689
275.618	-1351
275.678	-583
275.738	-984
275.798	-81
275.858	-1430
275.918	-99
275.978	-803
276.038	-418
276.098	-1068
276.157	-727
276.217	-714
276.277	-228
276.337	-1105
276.397	-426
276.457	-821
276.517	-923
276.576	-515
276.636	-1325
276.696	-1309
276.756	396
276.815	-678
276.875	542
276.935	-1622
276.995	521
277.055	-1367
277.114	-705
277.174	-733
277.234	-236
277.293	-1406
277.353	287
277.413	-729
277.472	-919
277.532	-500
277.592	525
277.651	2504
277.711	10319
277.771	1459
277.830	8147
277.890	7627
277.950	4647
278.009	17456
278.069	7734
278.128	5739
278.188	10682
278.248	3444
278.307	10452
278.367	6943
278.426	1374
278.486	-52
278.545	234
278.605	-1217
278.664	137
278.724	-537
278.783	206
278.843	987
278.902	217
278.962	-619
279.021	1096
279.081	1604
279.140	1604
279.199	296
279.259	865
279.318	1671
279.378	2818
279.437	3368
279.496	11039
279.556	52638
279.615	47978
279.675	12493
279.734	5605
279.793	5142
279.853	6334
279.912	3013
279.971	628
280.031	1339
280.090	3238
280.149	4400
280.208	6409
280.268	33945
280.327	43118
280.386	9859
280.445	4000
280.505	1482
280.564	1730
280.623	-195
280.682	1045
280.742	497
280.801	727
280.860	-818
280.919	143
280.978	-580
281.037	864
281.097	-808
281.156	646
281.215	-520
281.274	-237
281.333	407
281.392	-134
281.451	-268
281.510	-389
281.569	-413
281.628	347
281.688	-820
281.747	504
281.806	-760
281.865	914
281.924	-715
281.983	-368
282.042	-525
282.101	-223
282.160	-301
282.219	-465
282.278	-341
282.337	-229
282.396	-973
282.454	-1033
282.513	-398
282.572	282
282.631	-447
282.690	159
282.749	-1487
282.808	-301
282.867	-565
282.926	-660
282.985	-281
283.043	-258
283.102	-787
283.161	-293
283.220	-939
283.279	539
283.338	-1065
283.396	-515
283.455	83
283.514	309
283.573	-986
283.631	-241
283.690	238
283.749	57
283.808	213
283.866	746
283.925	-160
283.984	996
284.043	-411
284.101	225
284.160	122
284.219	142
284.277	434
284.336	1036
284.395	2035
284.453	1961
284.512	1985
284.570	2213
284.629	2186
284.688	3111
284.746	3568
284.805	4739
284.863	6657
284.922	9993
284.981	10323
285.039	15258
285.098	23336
285.156	40073
285.215	52537
285.273	47026
285.332	42377
285.390	30018
285.449	19490
285.507	14126
285.566	9723
285.624	8273
285.683	6101
285.741	5062
285.799	3717
285.858	2665
285.916	1689
285.975	2009
286.033	1285
286.091	998
286.150	-52
286.208	938
286.267	240
286.325	772
286.383	115
286.442	451
286.500	345
286.558	535
286.616	734
286.675	820
286.733	-404
286.791	74
286.850	483
286.908	-334
286.966	357
287.024	1000
287.083	-452
287.141	-257
287.199	273
287.257	219
287.315	-288
287.374	102
287.432	-635
287.490	404
287.548	-1354
287.606	-89
287.664	-381
287.723	114
287.781	-351
287.839	39
287.897	-943
287.955	64
288.013	-1235
288.071	29
288.129	-1029
288.187	5025
288.245	2259
288.303	-132
288.361	-996
288.419	89
288.477	-949
288.535	-246
288.593	-763
288.651	154
288.709	-1142
288.767	-881
288.825	-648
288.883	-323
288.941	-1151
288.999	-369
289.057	-220
289.115	-483
289.173	-909
289.231	-152
289.289	-1184
289.346	313
289.404	-381
289.462	-231
289.520	-782
289.578	-280
289.636	-949
289.694	-463
289.751	-1221
289.809	-633
289.867	-1026
289.925	296
289.983	-1604
290.040	-171
290.098	-1538
290.156	-76
290.214	-1198
290.271	216
290.329	-781
290.387	23
290.444	-1330
290.502	-647
290.560	-1195
290.617	-1009
290.675	-933
290.733	-416
290.790	-531
290.848	-278
290.906	-1154
290.963	-954
291.021	-869
291.078	-559
291.136	-941
291.194	-934
291.251	-599
291.309	-648
291.366	-1804
291.424	-943
291.481	-765
291.539	71
291.596	-505
291.654	-914
291.711	-740
291.769	-201
291.826	-244
291.884	-460
291.941	-1148
291.999	-100
292.056	-910
292.114	-88
292.171	-684
292.228	-88
292.286	-1281
292.343	-1376
292.401	-195
292.458	-254
292.515	-1304
292.573	952
292.630	-748
292.687	113
292.745	-11
292.802	-990
292.859	-16
292.917	346
292.974	-769
293.031	-227
293.089	-544
293.146	141
293.203	-723
293.260	-773
293.318	-1276
293.375	429
293.432	-608
293.489	-43
293.546	-1067
293.604	275
293.661	45
293.718	2500
293.775	400
293.832	600
293.889	572
293.947	926
294.004	-103
294.061	-847
294.118	-1455
294.175	710
294.232	2061
294.289	1552
294.346	-618
294.403	-369
294.460	-1182
294.517	-258
294.574	-1161
294.631	-363
294.688	-495
294.745	314
294.802	350
294.859	1426
294.916	-438
294.973	-204
295.030	-587
295.087	-306
295.144	-692
295.201	37
295.258	-787
295.315	-568
295.372	-1095
295.429	372
295.486	-858
295.542	-676
295.599	332
295.656	1079
295.713	-332
295.770	659
295.827	-866
295.883	-630
295.940	-1325
295.997	-144
296.054	-1011
296.111	-102
296.167	-254
296.224	-1027
296.281	-715
296.338	-193
296.394	-912
296.451	-173
296.508	-1139
296.564	373
296.621	-656
296.678	1404
296.734	1842
296.791	-32
296.848	-910
296.904	-648
296.961	-652
297.018	886
297.074	-333
297.131	389
297.187	-386
297.244	-177
297.301	447
297.357	2724
297.414	620
297.470	-581
297.527	-1133
297.583	-468
297.640	-985
297.696	-147
297.753	-1402
297.809	-358
297.866	-1653
297.922	-504
297.979	-1725
298.035	-871
298.092	-630
298.148	-349
298.204	-534
298.261	-731
298.317	-417
298.374	1578
298.430	430
298.486	167
298.543	-712
298.599	-371
298.656	-1305
298.712	-409
298.768	-1033
298.824	-913
298.881	-1942
298.937	-499
298.993	-394
299.050	-936
299.106	-1058
299.162	-1047
299.218	-1375
299.275	-251
299.331	-718
299.387	-115
299.443	1373
299.500	6010
299.556	4850
299.612	2171
299.668	-345
299.724	2973
299.780	6078
299.837	1770
299.893	328
299.949	2578
300.005	4726
300.061	4353
300.117	6847
300.173	3975
300.229	-133
300.285	7
300.341	-707
300.397	50
300.453	-87
300.510	108
300.566	-1015
300.622	1779
300.678	6248
300.734	11557
300.790	4915
300.845	2253
300.901	3079
300.957	6528
301.013	2695
301.069	610
301.125	-389
301.181	177
301.237	-292
301.293	-16
301.349	-521
301.405	8
301.461	-712
301.516	-249
301.572	-1096
301.628	-828
301.684	-470
301.740	302
301.796	-385
301.851	555
301.907	-736
301.963	95
302.019	224
302.074	5380
302.130	6074
302.186	2698
302.242	-52
302.297	-170
302.353	-1261
302.409	-523
302.464	288
302.520	92
302.576	-94
302.631	1665
302.687	-250
302.743	-561
302.798	-1414
302.854	-691
302.910	-751
302.965	-929
303.021	259
303.076	-284
303.132	-1366
303.187	-323
303.243	-1319
303.299	-1139
303.354	-1551
303.410	-245
303.465	-814
303.521	-823
303.576	-1169
303.632	-98
303.687	-1370
303.743	898
303.798	615
303.853	98
303.909	-1010
303.964	-460
304.020	-529
304.075	-640
304.130	-856
304.186	-356
304.241	438
304.297	214
304.352	-1275
304.358	-1177
304.407	-384
304.449	-804
304.463	-943
304.518	-338
304.539	-396
304.573	-516
304.629	-891
304.630	-892
304.684	-906
304.720	-297
304.739	9
304.794	367
304.811	567
304.850	1015
304.902	-767
304.905	-889
304.960	-83
304.992	-753
305.015	-1224
305.071	-316
305.083	-540
305.126	-1299
305.173	-46
305.181	152
305.236	-745
305.264	-792
305.292	-868
305.347	-1000
305.354	-903
305.402	-129
305.445	-113
305.457	-147
305.512	-1004
305.535	-1145
305.567	-1248
305.622	-925
305.626	-900
305.678	-570
305.716	268
305.733	634
305.788	106
305.807	178
305.843	304
305.897	1076
305.898	1087
305.953	1908
305.988	633
306.008	-105
306.063	-182
306.078	-338
306.118	-709
306.168	-266
306.173	-226
306.228	-426
306.259	-123
306.283	166
306.338	-572
306.349	-394
306.393	-51
306.440	-824
306.448	-878
306.503	-761
306.530	-501
306.558	-297
306.613	-137
306.620	-176
306.668	-432
306.711	326
306.723	497
306.778	-29
306.801	60
306.833	210
306.888	-281
306.892	-284
306.943	-233
306.982	-451
306.997	-524
307.052	-532
307.072	-511
307.107	-499
307.162	-168
307.163	-173
307.217	-502
307.253	-203
307.272	-100
307.327	-616
307.343	-474
307.381	-42
307.434	-255
307.436	-256
307.491	114
307.524	327
307.546	337
307.600	896
307.614	676
307.655	-98
307.704	-410
307.710	-397
307.765	31
307.795	98
307.819	67
307.874	309
307.885	339
307.929	592
307.975	482
307.984	415
308.038	450
308.065	218
308.093	399
308.148	1776
308.156	2019
308.202	3062
308.246	4253
308.257	4384
308.312	2317
308.336	1721
308.366	1187
308.421	243
308.426	226
308.475	268
308.517	250
308.530	301
308.585	938
308.607	926
308.639	909
308.694	1033
308.697	1037
308.748	1150
308.787	1536
308.803	1535
308.857	1061
308.877	1037
308.912	1494
308.967	1671
308.967	1685
309.021	3299
309.058	4230
309.076	4797
309.130	8645
309.148	9334
309.185	11801
309.238	15374
309.239	15428
309.293	20910
309.328	22707
309.348	21378
309.402	13633
309.418	11344
309.457	8736
309.508	6489
309.511	6468
309.566	8163
309.598	9338
309.620	12438
309.674	23083
309.688	25944
309.729	25145
309.778	19845
309.783	19327
309.837	11515
309.868	7906
309.892	6668
309.946	4115
309.959	3845
310.001	3109
310.049	2241
310.055	2174
310.109	2142
310.139	1875
310.163	1511
310.218	1146
310.229	1054
310.272	1269
310.319	1468
310.326	1346
310.381	282
310.409	-4
310.435	224
310.489	462
310.499	521
310.543	578
310.589	455
310.598	380
310.652	224
310.679	60
310.706	101
310.760	336
310.769	335
310.814	537
310.859	875
310.868	822
310.923	398
310.948	183
310.977	462
311.031	970
311.038	1092
311.085	974
311.128	417
311.139	409
311.193	622
311.218	647
311.247	383
311.301	58
311.308	-3
311.356	197
311.398	433
311.410	450
311.464	459
311.488	502
311.518	422
311.572	190
311.578	169
311.626	186
311.668	138
311.680	219
311.734	655
311.758	826
311.788	546
311.842	48
311.847	-4
311.896	632
311.937	1207
311.950	1073
312.004	456
312.027	195
312.058	199
312.112	207
312.117	212
312.165	560
312.207	866
312.297	2
312.386	322
312.476	526
312.566	78
312.656	115
312.745	635
312.835	877
312.925	510
313.015	512
313.104	732
313.194	736
313.284	586
313.374	328
313.463	462
313.553	845
313.643	12
313.732	989
313.822	667
313.912	1415
314.001	597
314.091	840
314.180	1598
314.270	428
314.360	513
314.449	1138
314.539	26
314.628	977
314.718	41
314.808	1737
314.897	1049
314.987	1731
315.076	1529
315.166	886
315.255	1072
315.345	1458
315.434	768
315.524	1669
315.613	766
315.703	2043
315.792	4510
315.881	19295
315.971	4418
316.060	1603
316.150	1399
316.239	717
316.328	525
316.418	1094
316.507	510
316.597	1576
316.686	1937
316.775	551
316.865	1452
316.954	1820
317.043	610
317.133	1191
317.222	873
317.311	947
317.400	-214
317.490	1673
317.579	416
317.668	843
317.757	2317
317.847	9351
317.936	30499
318.025	7937
318.114	6266
318.203	3065
318.293	1518
318.382	2263
318.471	1923
318.560	2075
318.649	3167
318.738	1513
318.828	540
318.917	717
319.006	955
319.095	515
319.184	2525
319.273	1929
319.362	759
319.451	874
319.540	285
319.629	319
319.718	982
319.807	1397
319.896	826
319.985	3460
320.074	1733
320.163	982
320.252	699
320.341	633
320.430	940
320.519	987
320.608	774
320.697	612
320.786	655
320.875	1846
320.964	1456
321.053	1381
321.142	826
321.230	2328
321.319	1922
321.408	2991
321.497	2918
321.586	2218
321.675	798
321.764	1824
321.852	1145
321.941	1310
322.030	1398
322.119	1720
322.207	2245
322.296	3398
322.385	2954
322.474	4064
322.562	4347
322.651	3116
322.740	2388
322.829	1952
322.917	1640
323.006	1118
323.095	1182
323.183	1150
323.272	1325
323.361	599
323.449	2390
323.538	1180
323.626	1273
323.715	1090
323.804	849
323.892	1958
323.981	890
324.069	1929
324.158	891
324.246	1468
324.335	750
324.424	915
324.512	259
324.601	938
324.689	64
324.778	507
324.866	672
324.954	990
325.043	-172
325.131	-12
325.220	1419
325.308	197
325.397	138
325.485	219
325.574	-208
325.662	424
325.750	-1209
325.839	1473
325.927	-26
326.015	778
326.104	127
326.192	-742
326.280	169
326.369	376
326.457	205
326.545	218
326.634	63
326.722	490
326.810	204
326.898	924
326.987	965
327.075	-240
327.163	1411
327.251	187
327.340	254
327.428	1150
327.516	1663
327.604	682
327.692	276
327.781	673
327.869	334
327.957	363
328.045	-680
328.133	860
328.221	385
328.309	631
328.397	541
328.485	721
328.574	1095
328.662	1877
328.750	414
328.838	493
328.926	287
329.014	226
329.102	181
329.190	1256
329.278	-246
329.366	465
329.454	-112
329.542	762
329.630	234
329.718	754
329.806	-190
329.893	837
329.981	-481
330.069	986
330.157	1062
330.245	445
330.333	263
330.421	568
330.509	602
330.597	558
330.684	131
330.772	-128
330.860	-166
330.948	1182
331.036	582
331.123	45
331.211	346
331.299	246
331.387	410
331.475	1030
331.562	377
331.650	1134
331.738	-276
331.825	487
331.913	121
332.001	174
332.089	285
332.176	656
332.264	285
332.352	770
332.439	343
332.527	735
332.614	-317
332.702	1040
332.790	472
332.877	1499
332.965	2272
333.052	2151
333.140	2096
333.228	6950
333.315	457
333.403	538
333.490	695
333.578	2796
333.665	11150
333.753	3926
333.840	587
333.928	902
334.015	618
334.103	1757
334.190	3853
334.278	2775
334.365	3759
334.452	4722
334.540	1879
334.627	1539
334.715	2079
334.802	3430
334.889	8066
334.977	13915
335.064	8427
335.151	2476
335.239	1314
335.326	1358
335.413	2077
335.501	2719
335.588	1756
335.675	1611
335.762	1607
335.850	3014
335.937	4062
336.024	8254
336.111	17455
336.199	19101
336.286	5732
336.373	2857
336.460	1050
336.547	1078
336.635	1133
336.722	1057
336.809	355
336.896	726
336.983	1587
337.070	2012
337.157	2859
337.245	2261
337.332	1587
337.419	1069
337.506	796
337.593	430
337.680	996
337.767	2546
337.854	227
337.941	363
338.028	353
338.115	-131
338.202	1186
338.289	526
338.376	1169
338.463	514
338.550	708
338.637	1589
338.724	-539
338.811	1021
338.898	374
338.984	437
339.071	41
339.158	252
339.245	87
339.332	324
339.419	827
339.506	131
339.593	-225
339.679	700
339.766	-163
339.853	659
339.940	-139
340.027	764
340.113	241
340.200	1007
340.287	-230
340.374	-524
340.460	-46
340.547	-560
340.634	489
340.720	1127
340.807	9
340.894	482
340.980	-592
341.067	248
341.154	1856
341.240	-9
341.327	421
341.414	540
341.500	-455
341.587	915
341.674	438
341.760	946
341.847	577
341.933	411
342.020	-1012
342.106	394
342.193	418
342.279	419
342.366	111
342.452	404
342.539	477
342.625	803
342.712	295
342.798	-363
342.885	-23
342.971	-207
343.058	-696
343.144	-635
343.230	511
343.317	710
343.403	-442
343.490	-312
343.576	-402
343.662	271
343.749	44
343.835	125
343.921	-34
344.008	2423
344.094	5405
344.180	1639
344.267	585
344.353	648
344.439	1244
344.525	900
344.612	-29
344.698	32
344.784	-666
344.870	824
344.957	521
345.043	1066
345.129	-750
345.215	304
345.301	377
345.387	99
345.474	-360
345.560	223
345.646	-1050
345.732	-37
345.818	-577
345.904	805
345.990	-178
346.076	265
346.162	-82
346.249	295
346.335	-471
346.421	339
346.507	77
346.593	578
346.679	-676
346.765	1093
346.851	469
346.937	552
347.023	458
347.108	665
347.194	313
347.280	-107
347.366	1488
347.452	2940
347.538	2503
347.624	3009
347.710	928
347.796	163
347.882	-23
347.967	272
348.053	-65
348.139	465
348.225	524
348.311	227
348.397	-428
348.482	1255
348.568	557
348.654	1266
348.740	3363
348.825	2276
348.911	1801
348.997	946
349.083	1697
349.168	-279
349.254	51
349.340	473
349.425	476
349.511	857
349.597	-78
349.682	454
349.768	772
349.854	-54
349.939	-168
350.025	-562
350.110	-112
350.196	156
350.282	-909
350.367	1535
350.453	-24
350.538	48
350.624	-114
350.709	457
350.795	-823
350.880	-123
350.966	567
351.051	84
351.137	-225
351.222	1026
351.308	-539
351.393	142
351.479	-241
351.564	10
351.649	291
351.735	-16
351.820	-240
351.906	408
351.991	-310
352.076	546
352.162	613
352.247	-95
352.332	206
352.418	-665
352.503	-461
352.588	1271
352.673	-599
352.759	-31
352.844	-220
352.929	103
353.014	-224
353.100	649
353.185	147
353.270	-343
353.355	-17
353.441	785
353.526	-217
353.611	117
353.696	-270
353.781	1451
353.866	-1126
353.952	1120
354.037	-1145
354.122	733
354.207	328
354.292	200
354.377	978
354.462	173
354.547	-1240
354.632	662
354.717	465
354.802	-448
354.887	289
354.972	-251
355.057	388
355.142	-245
355.227	-724
355.312	-234
355.397	-546
355.482	-322
355.567	-589
355.652	628
355.737	-61
355.822	684
355.907	-232
355.991	1051
356.076	-950
356.161	841
356.246	-543
356.331	467
356.416	-1524
356.501	2876
356.585	944
356.670	-744
356.755	2065
356.840	320
356.924	1902
357.009	5774
357.094	2045
357.179	-216
357.263	-155
357.348	316
357.433	133
357.517	232
357.602	249
357.687	17
357.771	492
357.856	166
357.941	-12
358.025	1447
358.110	8008
358.195	3671
358.279	165
358.364	-317
358.448	451
358.533	2036
358.617	81
358.702	822
358.787	122
358.871	515
358.956	-533
359.040	-544
359.125	-61
359.209	339
359.294	-453
359.378	549
359.462	437
359.547	1332
359.631	-446
359.716	-797
359.800	67
359.885	1677
359.969	-174
360.053	1015
360.138	-488
360.222	581
360.306	-732
360.391	577
360.475	42
360.559	-265
360.644	452
360.728	-1146
360.812	2189
360.896	3298
360.981	-166
361.065	140
361.149	209
361.233	654
361.318	-588
361.402	141
361.486	661
361.570	-614
361.654	-777
361.739	285
361.823	1367
361.907	4238
361.991	637
362.075	575
362.159	-601
362.243	3773
362.327	8907
362.411	20139
362.495	5599
362.580	2034
362.664	2220
362.748	1498
362.832	2410
362.916	5935
363.000	27273
363.084	48406
363.168	16064
363.252	3410
363.336	1809
363.420	1612
363.503	2778
363.587	2048
363.671	685
363.755	-467
363.839	1998
363.923	354
364.007	871
364.091	1470
364.175	2288
364.258	13402
364.342	27710
364.426	70149
364.510	33985
364.594	9479
364.677	3558
364.761	2895
364.845	2265
364.929	528
365.013	197
365.096	1131
365.180	-1235
365.264	1304
365.347	4252
365.431	1109
365.515	-29
365.598	-47
365.682	1516
365.766	-773
365.849	366
365.933	-708
366.017	1332
366.100	-1053
366.184	-406
366.267	691
366.351	-179
366.435	-293
366.518	-365
366.602	770
366.685	42
366.769	64
366.852	344
366.936	290
367.019	259
367.103	181
367.186	1325
367.270	570
367.353	-1057
367.436	787
367.520	-551
367.603	784
367.687	-429
367.770	292
367.853	1029
367.937	2243
368.020	828
368.104	-91
368.187	892
368.270	339
368.353	74
368.437	83
368.520	941
368.603	247
368.687	-1108
368.770	952
368.853	-543
368.936	415
369.020	57
369.103	415
369.186	-732
369.269	284
369.352	379
369.436	-229
369.519	268
369.602	-907
369.685	1745
369.768	-686
369.851	646
369.934	-1248
370.018	-225
370.101	-2031
370.184	2337
370.267	515
370.350	162
370.433	-217
370.516	2845
370.599	9771
370.682	2186
370.765	2231
370.848	1781
370.931	1238
371.014	1099
371.097	-405
371.180	1400
371.263	1521
371.346	-1096
371.429	992
371.511	-642
371.594	132
371.677	943
371.760	1175
371.843	837
371.926	4701
372.009	8147
372.091	5694
372.174	1503
372.257	3478
372.340	1166
372.423	1961
372.505	2401
372.588	594
372.671	1844
372.754	652
372.836	1028
372.919	2492
373.002	2540
373.085	684
373.167	1175
373.250	578
373.332	1645
373.415	5362
373.498	7457
373.580	5537
373.663	15025
373.746	15414
373.828	1352
373.911	1837
373.993	210
374.076	2139
374.159	1570
374.241	1304
374.324	1155
374.406	1488
374.489	1195
374.571	6445
374.654	1102
374.736	1828
374.819	2550
374.901	5686
374.983	5267
375.066	2438
375.148	1051
375.231	2199
375.313	3547
375.395	1518
375.478	857
375.560	347
375.643	433
375.725	2448
375.807	2848
375.890	3993
375.972	367
376.054	1054
376.136	1034
376.219	190
376.301	969
376.383	1726
376.465	1240
376.548	241
376.630	257
376.712	1634
376.794	763
376.877	-48
376.959	-571
377.041	82
377.123	-241
377.205	589
377.287	-784
377.369	628
377.452	-371
377.534	683
377.616	-225
377.698	284
377.780	-199
377.862	-842
377.944	1691
378.026	-263
378.108	801
378.190	832
378.272	686
378.354	-118
378.436	-91
378.518	-958
378.600	210
378.682	893
378.764	-261
378.846	413
378.928	-757
379.010	-800
379.091	776
379.173	-187
379.255	-458
379.337	-309
379.419	-331
379.501	1781
379.583	174
379.664	225
379.746	-1149
379.828	1220
379.910	1
379.991	1949
380.073	-445
380.155	111
380.237	-445
380.318	164
380.400	-46
380.482	1134
380.564	171
380.645	663
380.727	254
380.809	1717
380.890	-373
380.972	-492
381.053	904
381.135	1439
381.217	-726
381.298	2153
381.380	535
381.461	278
381.543	2288
381.624	2534
381.706	478
381.787	1776
381.869	1259
381.951	2270
382.032	4462
382.113	6677
382.195	-195
382.276	2999
382.358	1161
382.439	2647
382.521	5026
382.602	6972
382.684	4726
382.765	8898
382.846	28323
382.928	80132
383.009	41526
383.090	27127
383.172	98954
383.253	140904
383.334	38213
383.416	12547
383.497	9252
383.578	10276
383.659	21641
383.741	79920
383.822	192290
383.903	93158
383.984	18333
384.066	10795
384.147	5504
384.228	4100
384.309	2447
384.390	2641
384.471	2691
384.553	2394
384.634	2363
384.715	2508
384.796	1084
384.877	1512
384.958	2112
385.039	226
385.120	446
385.201	2661
385.282	1534
385.363	2813
385.444	1212
385.525	2608
385.606	1924
385.687	2233
385.768	1487
385.849	819
385.930	4540
386.011	7137
386.092	1940
386.173	1179
386.254	213
386.335	2189
386.416	556
386.496	1273
386.577	1742
386.658	1449
386.739	42
386.820	1450
386.901	-344
386.981	1973
387.062	2288
387.143	1791
387.224	1849
387.304	3994
387.385	2851
387.466	1355
387.547	3291
387.627	2409
387.708	3021
387.789	3994
387.869	2905
387.950	3001
388.031	656
388.111	-393
388.192	2123
388.273	3308
388.353	707
388.434	1117
388.514	447
388.595	2692
388.676	1469
388.756	991
388.837	1702
388.917	665
388.998	-1046
389.078	1232
389.159	398
389.239	-1266
389.320	2145
389.400	-1050
389.480	916
389.561	1099
389.641	1026
389.722	404
389.802	-430
389.883	632
389.963	1860
390.043	1584
390.124	-1214
390.204	1366
390.284	775
390.365	-7
390.445	2580
390.525	668
390.605	1084
390.686	-438
390.766	1689
390.846	1926
390.927	251
391.007	-642
391.087	1339
391.167	360
391.247	-1074
391.328	748
391.408	1590
391.488	1150
391.568	-887
391.648	990
391.728	1392
391.808	2342
391.888	630
391.969	1414
392.049	1051
392.129	2065
392.209	1298
392.289	3727
392.369	2669
392.449	2706
392.529	1691
392.609	4084
392.689	3521
392.769	4873
392.849	5319
392.929	8817
393.009	11184
393.089	16571
393.169	33924
393.248	93856
393.328	243591
393.408	244432
393.488	91436
393.568	33295
393.648	16016
393.728	10632
393.807	4857
393.887	6139
393.967	4214
394.047	3038
394.127	1850
394.206	2792
394.286	2030
394.366	7633
394.446	7373
394.525	1742
394.605	1365
394.685	2438
394.764	2983
394.844	4076
394.924	5687
395.003	2550
395.083	486
395.163	768
395.242	462
395.322	1934
395.402	32
395.481	2486
395.561	924
395.640	8309
395.720	14926
395.799	6907
395.879	2489
395.958	1670
396.038	2508
396.117	11293
396.197	11863
396.276	5336
396.356	3464
396.435	3949
396.515	7231
396.594	10421
396.673	25711
396.753	89431
396.832	216726
396.912	150351
396.991	39426
397.070	14808
397.150	5976
397.229	7642
397.308	11960
397.388	23011
397.467	9274
397.546	3103
397.625	-764
397.705	3576
397.784	1313
397.863	728
397.942	1109
398.022	776
398.101	59
398.180	2526
398.259	1167
398.338	1563
398.417	-70
398.497	-130
398.576	1875
398.655	-130
398.734	285
398.813	608
398.892	223
398.971	2950
399.050	156
399.129	107
399.208	708
399.287	1833
399.366	-227
399.445	-160
399.524	-714
399.603	-1252
399.682	105
399.761	-41
399.840	3267
399.919	2375
399.998	-79
400.077	-58
400.156	-1652
400.235	2331
400.313	-428
400.392	-1200
400.471	-75
400.550	735
400.629	-1035
400.708	1271
400.786	-1568
400.865	200
400.944	-1378
401.023	1325
401.102	-1010
401.180	164
401.259	-561
401.338	-15
401.416	-627
401.495	-491
401.574	283
401.652	-582
401.731	1204
401.810	-857
401.888	-691
401.967	-986
402.046	-756
402.124	238
402.203	-2114
402.281	-177
402.360	-1131
402.438	122
402.517	-1063
402.596	-193
402.674	-455
402.753	-1011
402.831	-324
402.910	1028
402.988	-1630
403.066	267
403.145	931
403.223	816
403.302	-572
403.380	1109
403.459	39
403.537	-282
403.615	-605
403.694	-664
403.772	455
403.850	35
403.929	-1070
404.007	-1059
404.085	445
404.164	-550
404.242	-594
404.320	262
404.398	41
404.477	-522
404.555	2525
404.633	619
404.711	-37
404.789	93
404.868	-919
404.946	-888
405.024	-777
405.102	-736
405.180	-1535
405.258	-970
405.336	232
405.415	-957
405.493	-361
405.571	16
405.649	-522
405.727	-990
405.805	682
405.883	70
405.961	41
406.039	-691
406.117	-1197
406.195	-806
406.273	-925
406.351	1310
406.429	621
406.507	-1210
406.585	-1036
406.663	-279
406.740	-760
406.818	-1343
406.896	-1183
406.974	305
407.052	-1794
407.130	-164
407.208	305
407.285	180
407.363	-1353
407.441	-525
407.519	-972
407.596	-248
407.674	151
407.752	1321
407.830	967
407.907	151
407.985	-868
408.063	-523
408.141	-1271
408.218	377
408.296	-1372
408.373	-1202
408.451	-980
408.529	-475
408.606	-676
408.684	-421
408.762	-723
408.839	-217
408.917	-142
408.994	-388
409.072	-509
409.149	328
409.227	1940
409.304	2879
409.382	2782
409.459	3453
409.537	5917
409.614	4604
409.692	1957
409.769	2826
409.846	5938
409.924	8687
410.001	2091
410.079	2147
410.156	1007
410.233	451
410.311	-384
410.388	227
410.465	-74
410.543	-95
410.620	707
410.697	-43
410.775	-16
410.852	-832
410.929	880
411.006	1264
411.083	-156
411.161	-31
411.238	384
411.315	308
411.392	-208
411.469	-95
411.547	-800
411.624	-1998
411.701	-1365
411.778	-231
411.855	-1082
411.932	-624
412.009	-653
412.086	-614
412.163	71
412.240	-61
412.317	-738
412.394	-239
412.471	-295
412.548	-675
412.625	-497
412.702	-1146
412.779	-308
412.856	-229
412.933	-1150
413.010	-582
413.087	-729
413.164	-1423
413.241	60
413.318	-696
413.395	352
413.471	-539
413.548	-686
413.625	113
413.702	-1582
413.779	-202
413.855	-819
413.932	-916
414.009	-1388
414.086	-822
414.162	70
414.239	327
414.316	-1068
414.393	879
414.469	-1701
414.546	-932
414.623	-390
414.699	-786
414.776	-1726
414.853	-849
414.929	-1148
415.006	-319
415.082	-847
415.159	-611
415.236	-804
415.312	311
415.389	-585
415.465	-1470
415.542	-1106
415.618	-614
415.695	-182
415.771	-1747
415.848	-930
415.924	-553
416.000	-616
416.077	621
416.153	-1946
416.230	-984
416.306	-767
416.383	-1059
416.459	-512
416.535	-951
416.612	-568
416.688	-675
416.764	-584
416.841	-917
416.917	-479
416.993	-486
417.069	-30
417.146	-1004
417.222	-1275
417.298	-787
417.374	-1708
417.451	-703
417.527	-1148
417.603	-835
417.679	-731
417.755	-1239
417.831	-1583
417.908	-1032
417.984	-924
418.060	-1187
418.136	-1384
418.212	-1270
418.288	-667
418.364	-83
418.440	-1819
418.516	621
418.592	-1696
418.668	22
418.744	-1601
418.820	-377
418.896	-679
418.972	-1213
419.048	-740
419.124	608
419.200	-1881
419.276	-761
419.352	-796
419.428	-613
419.504	-1752
419.579	-881
419.655	-1039
419.731	-732
419.807	-666
419.883	-404
419.959	-950
420.034	-447
420.110	-879
420.186	-804
420.262	-161
420.337	-307
420.413	-406
420.489	39
420.565	487
420.640	-146
420.716	-313
420.792	-1593
420.867	808
420.943	-303
421.019	-432
421.094	-66
421.170	385
421.245	499
421.321	920
421.397	-212
421.472	1319
421.548	1091
421.623	1822
421.699	1737
421.774	2553
421.850	1880
421.925	3066
422.001	3672
422.076	4908
422.152	5576
422.227	8852
422.302	12556
422.378	19840
422.453	33642
422.529	66502
422.604	111390
422.679	120091
422.755	109458
422.830	70232
422.905	37889
422.981	21900
423.056	14481
423.131	10480
423.207	7069
423.282	6096
423.357	5384
423.432	3134
423.508	3424
423.583	2209
423.658	1415
423.733	2028
423.808	1162
423.883	1384
423.959	1854
424.034	3050
424.109	2872
424.184	432
424.259	604
424.334	307
424.409	-242
424.484	510
424.559	-34
424.634	-236
424.709	77
424.784	-349
424.859	107
424.934	-845
425.009	-48
425.084	241
425.159	-28
425.234	251
425.309	-305
425.384	-300
425.459	-1085
425.534	-171
425.609	-852
425.683	-1060
425.758	-216
425.833	-780
425.908	-50
425.983	-1431
426.058	552
426.132	-516
426.207	-67
426.282	-450
426.357	-603
426.431	-89
426.506	-491
426.581	-208
426.655	211
426.730	-932
426.805	-1269
426.879	-199
426.954	-336
427.029	-764
427.103	10
427.178	394
427.253	62
427.327	-1251
427.402	-1289
427.476	-1446
427.551	-664
427.625	-503
427.700	-1212
427.774	-1190
427.849	-364
427.923	-1634
427.998	-1069
428.072	-1010
428.147	681
428.221	10181
428.296	38948
428.370	18531
428.444	1011
428.519	-486
428.593	-536
428.667	67
428.742	83
428.816	2202
428.890	22262
428.965	35331
429.039	6481
429.113	1066
429.188	-305
429.262	-866
429.336	-392
429.410	-520
429.485	-407
429.559	-476
429.633	-243
429.707	-110
429.781	2857
429.855	20462
429.930	30378
430.004	5678
430.078	4128
430.152	11778
430.226	49579
430.300	47686
430.374	7629
430.448	1734
430.522	677
430.596	1594
430.670	6013
430.744	28672
430.818	30108
430.892	4421
430.966	18
431.040	-57
431.114	-1145
431.188	-1000
431.262	-781
431.336	-1419
431.410	-319
431.484	-1699
431.557	-792
431.631	-705
431.705	1156
431.779	7006
431.853	36457
431.927	21666
432.000	1891
432.074	307
432.148	-863
432.222	-1637
432.295	-765
432.369	-1167
432.443	-964
432.516	-482
432.590	778
432.664	-679
432.737	-836
432.811	-1270
432.885	-962
432.958	-572
433.032	-1013
433.106	-1496
433.179	-1395
433.253	-1008
433.326	-891
433.400	-1408
433.473	-408
433.547	-2194
433.620	-847
433.694	-1570
433.767	-1315
433.841	-792
433.914	-1628
433.988	-1018
434.061	-193
434.134	-1309
434.208	-1425
434.281	-1637
434.355	-1290
434.428	-728
434.501	-1005
434.575	-1638
434.648	-1097
434.721	-1904
434.795	-1113
434.868	-1353
434.941	-1191
435.014	-1287
435.088	-1116
435.161	-577
435.234	-221
435.307	-620
435.381	-21
435.454	329
435.527	3394
435.600	2483
435.673	1547
435.746	543
435.819	-753
435.892	-282
435.966	-635
436.039	-1015
436.112	-166
436.185	-1654
436.258	-1693
436.331	-1579
436.404	-879
436.477	-1088
436.550	-1319
436.623	-986
436.696	-347
436.769	-1364
436.842	-1146
436.915	-630
436.987	-654
437.060	-1454
437.133	-1288
437.206	-1588
437.279	-526
437.352	-1801
437.425	-722
437.498	-1201
437.570	-492
437.643	-1396
437.716	-856
437.789	-1199
437.861	-1288
437.934	-1239
438.007	-877
438.080	-1703
438.152	-1036
438.225	-961
438.298	-173
438.370	1743
438.443	1046
438.516	-1325
438.588	-1230
438.661	-1804
438.734	-1162
438.806	-1582
438.879	-1206
438.951	-1363
439.024	-1332
439.096	-2055
439.169	-739
439.241	-1342
439.314	-935
439.386	-2261
439.459	-1392
439.531	-1523
439.604	-1464
439.676	-1265
439.749	-1179
439.821	-1432
439.893	124
439.966	-1043
440.038	-1171
440.110	-998
440.183	-1093
440.255	-1498
440.327	-939
440.400	-878
440.472	424
440.544	-957
440.617	-1116
440.689	-13
440.761	-598
440.833	-208
440.905	-360
440.978	-1116
441.050	-980
441.122	-1082
441.194	-1351
441.266	-1373
441.338	-1458
441.411	-1334
441.483	-1215
441.555	-832
441.627	-455
441.699	-1066
441.771	-880
441.843	-873
441.915	-269
441.987	-935
442.059	-750
442.131	-762
442.203	-164
442.275	-183
442.347	815
442.419	4156
442.491	26657
442.563	59728
442.635	21130
442.706	2834
442.778	1061
442.850	-751
442.922	-322
442.994	-905
443.066	-262
443.137	580
443.209	1107
443.281	1665
443.353	7002
443.425	29630
443.496	93931
443.568	92725
443.640	35779
443.711	5991
443.783	2261
443.855	581
443.926	305
443.998	-104
444.070	396
444.141	-385
444.213	150
444.285	-233
444.356	-589
444.428	-583
444.499	-304
444.571	-1012
444.642	197
444.714	-584
444.785	-424
444.857	-231
444.928	300
445.000	105
445.071	1090
445.143	1041
445.214	3035
445.285	4686
445.357	14784
445.428	60210
445.500	118680
445.571	83889
445.642	53933
445.714	16350
445.785	5786
445.856	413
445.928	1102
445.999	503
446.070	-33
446.141	-157
446.213	40
446.284	-660
446.355	-790
446.426	-1082
446.497	-1066
446.569	-855
446.640	-1121
446.711	-1189
446.782	-778
446.853	-702
446.924	-295
446.995	-991
447.066	-958
447.138	-655
447.209	-479
447.280	-1602
447.351	-1305
447.422	-716
447.493	-852
447.564	-1121
447.635	-996
447.706	-1749
447.777	-505
447.847	-1299
447.918	-1389
447.989	-1452
448.060	-1354
448.131	-873
448.202	-1027
448.273	-1389
448.344	-913
448.414	-887
448.485	-772
448.556	-753
448.627	-1642
448.698	-518
448.768	-1532
448.839	-1724
448.910	-2170
448.981	-1639
449.051	-526
449.122	-1368
449.193	-1050
449.263	-1191
449.334	-776
449.405	-699
449.475	-852
449.546	-1193
449.616	-797
449.687	-1298
449.758	-567
449.828	-1583
449.899	-1320
449.969	-898
450.040	-539
450.110	-1044
450.181	-385
450.251	-2026
450.322	-947
450.392	-668
450.463	-850
450.533	-1405
450.604	-1208
450.674	-1220
450.744	-867
450.815	-817
450.885	-306
450.955	-813
451.026	-297
451.096	-947
451.166	-964
451.237	-890
451.307	-462
451.377	-834
451.447	-1160
451.518	-1153
451.588	-1130
451.658	-1536
451.728	-475
451.799	-1173
451.869	-173
451.939	-1673
452.009	-1248
452.079	-1556
452.149	-832
452.219	-1624
452.289	-140
452.360	-1049
452.430	-480
452.500	-1090
452.570	70
452.640	2649
452.710	9115
452.780	8927
452.850	3675
452.920	152
452.990	-202
453.060	-921
453.129	-918
453.199	-1552
453.269	326
453.339	1286
453.409	2259
453.479	1260
453.549	2067
453.619	2061
453.688	149
453.758	-448
453.828	-1068
453.898	-1163
453.968	-1520
454.037	-940
454.087	-1332
454.107	-1503
454.168	-1514
454.177	-1528
454.247	-757
454.249	-777
454.316	-1669
454.330	-1560
454.386	-1166
454.411	-1189
454.456	-1307
454.492	-718
454.525	-181
454.574	-589
454.595	-788
454.655	-1223
454.665	-1297
454.734	-970
454.736	-955
454.804	-1021
454.817	-989
454.873	-964
454.898	-625
454.943	-17
454.979	-556
455.013	-1066
455.060	-856
455.082	-773
455.141	-1080
455.152	-1160
455.221	-96
455.222	-91
455.291	-999
455.303	-1021
455.360	-972
455.384	-1046
455.430	-1175
455.465	-672
455.499	-343
455.546	-235
455.569	-203
455.627	-559
455.638	-624
455.707	-929
455.708	-921
455.777	-1201
455.789	-1162
455.846	-1024
455.869	-883
455.916	-823
455.950	-908
455.985	-878
456.031	-947
456.054	-1040
456.112	-294
456.124	-120
456.193	-146
456.193	-156
456.262	-623
456.274	-538
456.332	-121
456.355	-244
456.401	-437
456.436	-185
456.470	-10
456.516	-736
456.540	-1133
456.597	-1009
456.609	-954
456.678	-65
456.678	-73
456.747	-483
456.759	-589
456.817	-717
456.840	-509
456.886	-376
456.920	-209
456.955	42
457.001	199
457.024	214
457.082	-743
457.093	-958
457.162	155
457.163	166
457.232	-173
457.243	-208
457.301	-44
457.324	60
457.370	69
457.405	259
457.439	544
457.485	659
457.508	725
457.566	835
457.577	929
457.646	2336
457.647	2362
457.715	7394
457.727	8737
457.784	17391
457.808	22805
457.853	27386
457.889	30628
457.922	28951
457.969	18217
457.991	19301
458.050	26872
458.060	28277
458.129	48832
458.130	49428
458.198	40822
458.211	35598
458.267	17826
458.292	11267
458.336	7383
458.372	7423
458.405	12538
458.453	21201
458.474	27895
458.533	52087
458.543	53238
458.611	72717
458.614	72999
458.680	37550
458.694	27608
458.749	11588
458.775	7674
458.818	3918
458.855	2633
458.887	2178
458.936	1911
458.955	1740
459.016	1267
459.024	1235
459.093	1384
459.097	1350
459.162	684
459.177	772
459.230	842
459.257	913
459.299	1467
459.338	1548
459.368	1091
459.418	618
459.437	669
459.499	709
459.505	715
459.574	1342
459.579	1380
459.643	1373
459.659	1288
459.711	968
459.740	800
459.780	717
459.820	732
459.849	820
459.900	1114
459.917	1143
459.981	1032
459.986	1007
460.054	857
460.061	894
460.123	899
460.141	750
460.191	1104
460.222	1176
460.260	765
460.302	737
460.328	1029
460.382	1102
460.397	886
460.462	528
460.465	563
460.534	1391
460.543	1483
460.602	4169
460.623	5210
460.671	7656
460.703	10176
460.739	9160
460.783	6447
460.808	5436
460.864	2027
460.876	1695
460.944	689
460.945	679
461.013	757
461.024	689
461.081	381
461.104	637
461.150	1327
461.184	1528
461.218	1607
461.264	1408
461.286	1120
461.345	753
461.355	834
461.423	1251
461.425	1257
461.491	421
461.505	434
461.559	1166
461.585	1105
461.628	997
461.665	1406
461.696	1887
461.745	2251
461.764	1938
461.825	1052
461.832	1053
461.901	930
461.905	945
461.969	985
461.985	923
462.037	1489
462.065	1812
462.105	1542
462.145	1440
462.173	1497
462.225	1374
462.241	1483
462.305	1887
462.310	1859
462.378	1514
462.385	1488
462.446	1403
462.465	1340
462.514	1365
462.545	1319
462.582	1137
462.625	1051
462.650	1020
462.705	933
462.718	957
462.785	882
462.786	880
462.854	927
462.865	914
462.922	1447
462.945	1654
462.990	1521
463.025	1477
463.058	1608
463.104	1567
463.126	1412
463.184	1531
463.194	1631
463.262	1536
463.264	1560
463.330	2107
463.344	2047
463.398	1764
463.424	1793
463.466	1869
463.504	1876
463.533	1963
463.583	2042
463.601	1871
463.663	1456
463.669	1501
463.737	1929
463.743	1956
463.805	2085
463.823	2174
463.873	2647
463.903	2857
463.940	2582
463.982	2177
464.008	2018
464.062	1787
464.076	1787
464.142	1891
464.144	1896
464.211	1437
464.221	1460
464.279	1357
464.301	1203
464.347	1855
464.381	2438
464.414	2281
464.461	2090
464.482	2105
464.540	2120
464.550	2104
464.617	1439
464.620	1431
464.685	2052
464.699	2147
464.753	1679
464.779	1437
464.820	1612
464.859	1726
464.888	1370
464.938	961
464.956	1345
465.018	2333
465.023	2307
465.091	2247
465.098	2213
465.158	1758
465.177	1640
465.226	1834
465.257	1982
465.293	2182
465.336	2314
465.361	2205
465.416	1979
465.428	2062
465.495	2578
465.496	2584
465.563	2389
465.575	2393
465.631	3191
465.654	3502
465.698	2788
465.734	2223
465.765	2065
465.813	1626
465.833	1677
465.893	2054
465.900	2107
465.968	2399
465.972	2419
466.035	1814
466.052	1631
466.102	1606
466.131	1565
466.170	1620
466.210	1689
466.237	1863
466.290	2235
466.304	2197
466.369	1903
466.372	1891
466.439	1430
466.449	1347
466.506	1646
466.528	1793
466.573	2578
466.607	3072
466.641	3079
466.687	3143
466.708	3439
466.766	4219
466.775	4003
466.842	2333
466.845	2248
466.909	2146
466.925	2116
466.977	2161
467.004	2183
467.044	2402
467.083	2640
467.111	2662
467.163	2655
467.178	2641
467.242	2560
467.245	2572
467.312	2730
467.321	2746
467.379	2486
467.400	2384
467.446	2615
467.480	2775
467.559	3400
467.638	1524
467.717	2131
467.796	2557
467.875	3810
467.955	3342
468.034	3872
468.113	5348
468.192	7516
468.271	6898
468.350	10267
468.429	15496
468.508	16330
468.588	8702
468.667	5182
468.746	3230
468.825	2722
468.904	2610
468.983	3365
469.062	2959
469.141	3509
469.220	2342
469.299	2815
469.378	526
469.456	3041
469.535	2781
469.614	2815
469.693	2755
469.772	3974
469.851	3148
469.930	3539
470.009	2416
470.088	3126
470.166	6650
470.245	12973
470.324	16213
470.403	8835
470.482	4716
470.560	3243
470.639	2668
470.718	3424
470.797	2191
470.875	2994
470.954	2713
471.033	2855
471.111	2715
471.190	2346
471.269	1036
471.347	2320
471.426	2106
471.505	2694
471.583	2327
471.662	2569
471.740	2170
471.819	1727
471.898	1683
471.976	2104
472.055	1411
472.133	1874
472.212	2639
472.290	2499
472.369	2145
472.447	2539
472.526	1240
472.604	2479
472.683	2359
472.761	2877
472.839	1323
472.918	2540
472.996	2053
473.075	3302
473.153	2580
473.231	2487
473.310	2555
473.388	3770
473.466	2120
473.545	2661
473.623	2468
473.701	1941
473.780	2474
473.858	1252
473.936	4201
474.014	3083
474.093	1719
474.171	3361
474.249	3221
474.327	2579
474.405	1966
474.484	2926
474.562	2180
474.640	2104
474.718	2108
474.796	2446
474.874	2408
474.952	2297
475.030	1827
475.108	1835
475.187	2901
475.265	2299
475.343	3430
475.421	2758
475.499	1799
475.577	2163
475.655	3454
475.733	3482
475.811	3169
475.889	2857
475.966	3270
476.044	1857
476.122	1835
476.200	3418
476.278	1143
476.356	2193
476.434	2716
476.512	2745
476.590	2454
476.667	2956
476.745	2027
476.823	3308
476.901	1970
476.979	2769
477.056	2719
477.134	2408
477.212	1386
477.290	2638
477.367	2130
477.445	3076
477.523	1696
477.601	1970
477.678	2476
477.756	2903
477.834	2638
477.911	2315
477.989	1814
478.066	1641
478.144	2048
478.222	2135
478.299	2493
478.377	2203
478.454	2076
478.532	1811
478.609	1906
478.687	2051
478.764	1951
478.842	2497
478.919	1805
478.997	2792
479.074	2082
479.152	1963
479.229	2078
479.307	1077
479.384	2316
479.461	2716
479.539	1962
479.616	2890
479.694	2247
479.771	3042
479.848	1949
479.926	1362
480.003	4102
480.080	2642
480.157	2509
480.235	1769
480.312	1353
480.389	3004
480.467	2234
480.544	3240
480.621	3106
480.698	3624
480.775	3147
480.853	3003
480.930	2320
481.007	2546
481.084	983
481.161	3373
481.238	3191
481.315	1681
481.392	2451
481.470	2963
481.547	1943
481.624	1722
481.701	2668
481.778	2194
481.855	2177
481.932	3074
482.009	4215
482.086	3866
482.163	3535
482.240	4728
482.317	5332
482.393	5277
482.470	3891
482.547	3642
482.624	3054
482.701	3360
482.778	2890
482.855	2066
482.932	2385
483.009	3311
483.085	2848
483.162	4223
483.239	5976
483.316	4226
483.393	5795
483.469	4034
483.546	3827
483.623	4169
483.699	3259
483.776	2260
483.853	2657
483.930	3144
484.006	3586
484.083	5107
484.160	2073
484.236	3601
484.313	2819
484.389	2458
484.466	4246
484.543	4689
484.619	7135
484.696	9160
484.772	4702
484.849	3663
484.925	2831
485.002	2993
485.078	2546
485.155	2307
485.231	1747
485.308	1899
485.384	2497
485.461	2438
485.537	3056
485.614	4360
485.690	2328
485.766	2357
485.843	2167
485.919	3034
485.995	2322
486.072	2618
486.148	2637
486.224	1537
486.301	2239
486.377	1915
486.453	1045
486.530	2647
486.606	2695
486.682	2618
486.758	3315
486.835	3233
486.911	2204
486.987	4458
487.063	4242
487.139	5120
487.215	4019
487.292	7382
487.368	6930
487.444	8854
487.520	12309
487.596	18513
487.672	54523
487.748	180512
487.824	251129
487.900	61078
487.976	16593
488.052	9073
488.128	6868
488.204	3569
488.280	4866
488.356	3732
488.432	4522
488.508	4431
488.584	2988
488.660	2706
488.736	2937
488.812	1855
488.888	2617
488.964	1997
489.039	2332
489.115	3258
489.191	2897
489.267	2294
489.343	2077
489.418	2662
489.494	2614
489.570	274
489.646	3415
489.722	2241
489.797	2014
489.873	2563
489.949	3703
490.024	3637
490.100	1393
490.176	2240
490.251	2722
490.327	2243
490.403	2312
490.478	1782
490.554	2767
490.629	2027
490.705	1765
490.781	2898
490.856	2022
490.932	3033
491.007	1327
491.083	1748
491.158	1584
491.234	2090
491.309	4107
491.385	3074
491.460	1550
491.536	2539
491.611	1726
491.686	2230
491.762	1784
491.837	2862
491.913	2803
491.988	4075
492.063	2580
492.139	3675
492.214	2404
492.289	2382
492.365	1633
492.440	1990
492.515	1297
492.590	1933
492.666	2135
492.741	2133
492.816	2279
492.891	1652
492.967	2377
493.042	2075
493.117	1454
493.192	1989
493.267	2114
493.342	2437
493.418	2643
493.493	2295
493.568	2435
493.643	2610
493.718	2400
493.793	1763
493.868	2527
493.943	2941
494.018	2508
494.093	2225
494.168	3279
494.243	855
494.318	2539
494.393	2381
494.468	2102
494.543	2356
494.618	2980
494.693	2131
494.768	2386
494.842	1799
494.917	3005
494.992	2702
495.067	2204
495.142	2262
495.217	1544
495.292	2732
495.366	1943
495.441	1769
495.516	3157
495.591	2498
495.665	3661
495.740	5153
495.815	2798
495.890	2568
495.964	914
496.039	4531
496.114	2805
496.188	4004
496.263	2507
496.338	2700
496.412	1908
496.487	2466
496.561	2652
496.636	2507
496.710	1903
496.785	2734
496.860	3118
496.934	2475
497.009	2625
497.083	2152
497.158	2905
497.232	2648
497.307	3686
497.381	3489
497.455	3172
497.530	3526
497.604	2833
497.679	3282
497.753	3355
497.827	2493
497.902	3008
497.976	4334
498.050	8108
498.125	26402
498.199	19676
498.273	3260
498.348	3733
498.422	4283
498.496	3885
498.570	4489
498.645	2115
498.719	825
498.793	2698
498.867	3008
498.941	4032
499.016	11123
499.090	24454
499.164	6867
499.238	3518
499.312	3137
499.386	2729
499.460	3503
499.534	4830
499.609	5286
499.683	3867
499.757	3609
499.831	5422
499.905	16449
499.979	12449
500.053	3670
500.127	2795
500.201	1829
500.275	2860
500.349	3095
500.422	2427
500.496	3644
500.570	4833
500.644	12262
500.718	17200
500.792	3970
500.866	2893
500.940	2248
501.013	3056
501.087	1568
501.161	2713
501.235	684
501.309	7036
501.382	11752
501.456	10668
501.530	3319
501.603	2932
501.677	2381
501.751	616
501.825	2855
501.898	1604
501.972	5461
502.046	2924
502.119	1247
502.193	2986
502.266	5306
502.340	2948
502.413	3494
502.487	4959
502.561	1821
502.634	2596
502.708	1888
502.781	575
502.855	3223
502.928	1862
503.002	2220
503.075	982
503.149	1588
503.222	1656
503.295	1088
503.369	2961
503.442	2208
503.516	5753
503.589	9512
503.662	7785
503.736	5296
503.809	9557
503.882	9333
503.956	16305
504.029	32653
504.102	98109
504.175	131436
504.249	38210
504.322	12944
504.395	6544
504.468	4502
504.542	1852
504.615	2232
504.688	2459
504.761	519
504.834	2452
504.907	1093
504.980	2681
505.053	1691
505.127	-1829
505.200	4012
505.273	1169
505.346	700
505.419	635
505.492	2847
505.565	417
505.638	1753
505.711	468
505.784	720
505.857	1125
505.930	2872
506.003	-224
506.076	2865
506.149	12
506.221	-125
506.294	2515
506.367	1394
506.440	6750
506.513	3121
506.586	1646
506.659	638
506.731	762
506.804	800
506.877	762
506.950	404
507.022	1479
507.095	-3
507.168	1235
507.241	2001
507.313	-175
507.386	-374
507.459	940
507.531	625
507.604	538
507.677	1839
507.749	-492
507.822	2450
507.894	816
507.967	893
508.040	607
508.112	1369
508.185	502
508.257	183
508.330	2557
508.402	-275
508.475	548
508.547	869
508.620	199
508.692	972
508.765	2309
508.837	395
508.909	1374
508.982	704
509.054	901
509.127	655
509.199	974
509.271	418
509.344	621
509.416	1197
509.488	585
509.560	1110
509.633	255
509.705	990
509.777	413
509.849	1725
509.922	-760
509.994	174
510.066	1261
510.138	-809
510.210	3086
510.283	509
510.355	884
510.427	1715
510.499	74
510.571	582
510.643	-210
510.715	1958
510.787	-356
510.859	2986
510.931	-262
511.003	926
511.076	1295
511.148	-150
511.219	-218
511.291	1988
511.363	1003
511.435	1317
511.507	-366
511.579	1636
511.651	1262
511.723	1836
511.795	550
511.867	-127
511.939	623
512.010	1070
512.082	1521
512.154	-627
512.226	707
512.298	2815
512.369	-218
512.441	1435
512.513	1076
512.585	-887
512.656	929
512.728	291
512.800	950
512.871	1812
512.943	793
513.015	-466
513.086	982
513.158	878
513.230	-737
513.301	367
513.373	1934
513.444	1084
513.516	1711
513.588	303
513.659	1162
513.731	919
513.802	-105
513.874	3067
513.945	731
514.016	-705
514.088	915
514.159	-496
514.231	1020
514.302	1078
514.374	939
514.445	-460
514.516	4174
514.588	261
514.659	706
514.730	1734
514.802	2049
514.873	-448
514.944	3708
515.016	1512
515.087	620
515.158	152
515.229	2586
515.301	-273
515.372	1948
515.443	-120
515.514	752
515.585	-549
515.656	1728
515.728	1714
515.799	631
515.870	2052
515.941	2121
516.012	951
516.083	2816
516.154	2051
516.225	4246
516.296	6419
516.367	5104
516.438	6607
516.509	9946
516.580	18380
516.651	77038
516.722	239975
516.793	66178
516.864	14320
516.935	12962
517.006	17325
517.077	23461
517.148	62688
517.219	316118
517.289	380947
517.360	46210
517.431	14137
517.502	6267
517.573	7073
517.643	6322
517.714	5751
517.785	6965
517.856	8848
517.926	12453
517.997	15196
518.068	17825
518.138	29077
518.209	49791
518.280	204628
518.350	622174
518.421	186241
518.492	29293
518.562	18580
518.633	19051
518.703	25503
518.774	63515
518.845	174961
518.915	140536
518.986	32028
519.056	12988
519.127	9382
519.197	7129
519.268	8885
519.338	6180
519.408	2577
519.479	2526
519.549	2048
519.620	2775
519.690	2107
519.760	1687
519.831	2230
519.901	1163
519.971	2103
520.042	1489
520.112	621
520.182	1510
520.253	1701
520.323	285
520.393	205
520.463	2933
520.534	-878
520.604	4059
520.674	1993
520.744	239
520.814	358
520.885	1614
520.955	2457
521.025	7515
521.095	2719
521.165	1520
521.235	182
521.305	421
521.375	1272
521.445	1172
521.515	911
521.585	1411
521.655	-695
521.725	2105
521.795	1541
521.865	-1346
521.935	3410
522.005	200
522.075	1020
522.145	1082
522.215	271
522.285	2019
522.355	2002
522.424	3139
522.494	355
522.564	1113
522.634	2168
522.704	2853
522.774	652
522.843	1880
522.913	1271
522.983	274
523.053	-97
523.122	2151
523.192	300
523.262	1268
523.331	417
523.401	2389
523.471	1216
523.540	1665
523.610	347
523.680	1678
523.749	1562
523.819	1967
523.888	733
523.958	1558
524.027	1743
524.097	1399
524.166	1082
524.236	-6
524.305	2738
524.375	730
524.444	439
524.514	2574
524.583	1294
524.653	94
524.722	2211
524.791	-85
524.861	2955
524.930	1207
524.999	783
525.069	2186
525.138	1311
525.207	1280
525.277	3014
525.346	1510
525.415	3528
525.484	3930
525.554	3821
525.623	5214
525.692	6999
525.761	8345
525.830	12128
525.900	15734
525.969	25992
526.038	49360
526.107	115245
526.176	309801
526.245	199082
526.314	60039
526.383	158606
526.452	182610
526.522	305623
526.591	221177
526.660	33361
526.729	22051
526.797	24873
526.867	35341
526.935	123177
527.004	453890
527.073	221626
527.142	25498
527.211	10734
527.280	8504
527.349	5385
527.418	2725
527.487	5164
527.555	1740
527.624	2016
527.693	1143
527.762	2839
527.831	630
527.899	2780
527.968	868
528.037	145
528.106	2175
528.174	1844
528.243	2260
528.312	2229
528.380	1656
528.449	935
528.518	2687
528.586	146
528.655	2313
528.723	1365
528.792	704
528.861	1246
528.929	-131
528.998	1805
529.066	1227
529.135	980
529.203	989
529.272	-370
529.340	1314
529.409	2948
529.477	-537
529.545	220
529.614	2667
529.682	-255
529.751	1883
529.819	3605
529.887	1072
529.956	370
530.024	2498
530.092	227
530.161	2138
530.229	1579
530.297	936
530.365	1600
530.434	1462
530.502	764
530.570	1541
530.638	-364
530.707	1126
530.775	3232
530.843	1140
530.911	652
530.979	1543
531.047	1027
531.115	1423
531.183	923
531.252	2219
531.320	1249
531.388	403
531.456	2166
531.524	-29
531.592	2134
531.660	3178
531.728	396
531.796	371
531.864	2743
531.932	1321
532.000	2215
532.067	1039
532.135	2005
532.203	2626
532.271	1206
532.339	1826
532.407	2899
532.475	2193
532.542	2636
532.610	1903
532.678	-121
532.746	3114
532.814	5219
532.881	2238
532.949	2190
533.017	1234
533.084	1598
533.152	2126
533.220	2876
533.287	345
533.355	1466
533.423	1487
533.490	1313
533.558	1636
533.625	2201
533.693	1767
533.761	2484
533.828	2243
533.896	1242
533.963	1743
534.031	3173
534.098	4246
534.166	3465
534.233	2410
534.300	6403
534.368	3923
534.435	4511
534.503	6051
534.570	5155
534.637	7390
534.705	8803
534.772	12047
534.840	28121
534.907	140079
534.974	136283
535.041	13166
535.109	7007
535.176	4000
535.243	5311
535.310	4494
535.378	3290
535.445	4169
535.512	4923
535.579	4062
535.646	3313
535.714	4151
535.781	4828
535.848	4632
535.915	3890
535.982	3206
536.049	3833
536.116	5283
536.183	3467
536.250	4092
536.317	4190
536.384	3618
536.451	4711
536.518	4017
536.585	2727
536.652	6059
536.719	4084
536.786	2517
536.853	4451
536.920	4360
536.987	4734
537.053	3014
537.120	6383
537.187	5088
537.254	4287
537.321	4585
537.388	6130
537.454	3980
537.521	4626
537.588	4185
537.654	5116
537.721	4563
537.788	5944
537.855	4587
537.921	4212
537.988	3843
538.055	5672
538.121	2280
538.188	3882
538.254	3972
538.321	4785
538.388	5146
538.454	4900
538.521	5351
538.587	4538
538.654	5604
538.720	4948
538.787	4524
538.853	5019
538.920	4773
538.986	3742
539.053	3797
539.119	4457
539.185	4171
539.252	5398
539.318	4915
539.385	6100
539.451	3341
539.517	5416
539.583	4920
539.650	4640
539.716	5430
539.782	4662
539.849	3772
539.915	5135
539.981	4760
540.047	4881
540.114	4562
540.180	5660
540.246	3532
540.312	5414
540.378	6043
540.444	5785
540.510	6138
540.576	5591
540.643	4463
540.709	3360
540.775	3860
540.841	4488
540.907	4851
540.973	5352
541.039	4026
541.105	6018
541.171	4990
541.237	4625
541.303	5530
541.369	7826
541.435	5280
541.500	5074
541.566	2945
541.632	5129
541.698	4773
541.764	5745
541.830	4271
541.896	4804
541.961	5912
542.027	4223
542.093	5094
542.159	5643
542.224	4251
542.290	5710
542.356	4253
542.421	5003
542.487	5580
542.553	4154
542.618	5178
542.684	4766
542.750	4492
542.815	6745
542.881	5123
542.947	5203
543.012	5385
543.078	4770
543.143	3791
543.209	4821
543.274	4034
543.340	4720
543.405	4919
543.471	4959
543.536	4694
543.602	5072
543.667	3824
543.732	6759
543.798	4854
543.863	5605
543.928	4406
543.994	4372
544.059	5401
544.124	5741
544.190	4862
544.255	6040
544.320	5175
544.386	4948
544.451	6464
544.516	4936
544.581	4910
544.646	5957
544.712	6708
544.777	6946
544.842	5896
544.907	5200
544.972	5386
545.037	5812
545.102	5893
545.168	6072
545.233	6268
545.298	7116
545.363	6185
545.428	6793
545.493	8884
545.558	6306
545.623	7104
545.688	6094
545.753	7470
545.818	8547
545.883	8142
545.947	7826
546.012	9538
546.077	9216
546.142	10444
546.207	9545
546.272	10421
546.337	10059
546.401	10832
546.466	12329
546.531	11823
546.596	13213
546.661	14786
546.725	16044
546.790	15235
546.855	18140
546.919	17872
546.984	21632
547.049	22741
547.113	26493
547.178	29282
547.243	33376
547.307	38550
547.372	43439
547.436	42149
547.501	45769
547.565	48194
547.630	43914
547.695	41837
547.759	42942
547.823	43233
547.888	44811
547.952	46614
548.017	47414
548.081	48525
548.146	47988
548.210	48542
548.274	54799
548.339	52672
548.403	46896
548.468	43817
548.532	44248
548.596	44252
548.660	45550
548.725	50081
548.789	52682
548.853	52107
548.917	49144
548.982	48041
549.046	43908
549.110	39260
549.174	40799
549.238	48347
549.303	52791
549.367	56396
549.431	51846
549.495	47798
549.559	48643
549.623	57244
549.687	60995
549.751	60000
549.815	71813
549.879	73048
549.943	70423
550.007	73676
550.071	72558
550.135	63639
550.199	60351
550.263	59687
550.327	56774
550.391	58407
550.455	66274
550.519	69458
550.582	73883
550.646	82927
550.710	84328
550.774	82327
550.838	84662
550.901	86163
550.965	91934
551.029	96106
551.093	104128
551.156	113709
551.220	128310
551.284	142975
551.347	105950
551.411	91067
551.475	88105
551.538	90180
551.602	84102
551.666	80135
551.729	73590
551.793	73902
551.856	72722
551.920	69970
551.983	71839
552.047	70433
552.110	71997
552.174	72756
552.237	73820
552.301	68235
552.364	65416
552.428	63146
552.491	65830
552.554	68583
552.618	68465
552.681	69433
552.745	67964
552.808	79403
552.871	87707
552.934	72838
552.998	68002
553.061	65658
553.124	64611
553.187	63340
553.251	64862
553.314	64818
553.377	65058
553.440	68343
553.503	71820
553.567	71047
553.630	70018
553.693	70990
553.756	71121
553.819	68894
553.882	68186
553.945	68227
554.008	67606
554.071	68763
554.134	68554
554.197	66582
554.260	64837
554.323	64464
554.386	66398
554.449	68169
554.512	68470
554.575	64626
554.638	65711
554.701	64883
554.764	64903
554.827	62909
554.889	59497
554.952	56219
555.015	54864
555.078	57066
555.141	56573
555.203	55274
555.266	55977
555.329	55702
555.391	52767
555.454	52577
555.517	49954
555.580	47794
555.642	47077
555.705	46494
555.768	45331
555.830	44764
555.893	43351
555.955	41562
556.018	39989
556.080	40749
556.143	42474
556.206	41416
556.268	40475
556.330	38910
556.393	37742
556.455	36721
556.518	37215
556.580	35186
556.643	34458
556.705	32239
556.767	32234
556.830	32148
556.892	30587
556.955	31419
557.017	31239
557.079	29426
557.142	29482
557.204	28647
557.266	28532
557.328	26811
557.391	24530
557.453	24916
557.515	25357
557.577	24589
557.639	25723
557.701	25722
557.764	25505
557.826	25210
557.888	27876
557.950	28904
558.012	31876
558.074	42302
558.136	97315
558.198	189072
558.260	55945
558.322	29149
558.384	28972
558.446	30539
558.508	34980
558.570	37642
558.632	44029
558.694	57677
558.756	100644
558.818	282732
558.880	514403
558.942	184189
559.003	204444
559.065	81019
559.127	38743
559.189	36159
559.251	41619
559.312	63257
559.374	154773
559.436	401424
559.498	161622
559.559	40292
559.621	37506
559.683	44640
559.744	76461
559.806	233560
559.868	271390
559.929	55518
559.991	41799
560.052	73403
560.114	193445
560.176	99111
560.237	119909
560.299	152631
560.360	29803
560.422	15270
560.483	13905
560.545	12147
560.606	11985
560.667	11186
560.729	10349
560.790	10189
560.852	10320
560.913	8917
560.974	9389
561.036	9598
561.097	8952
561.158	8700
561.220	10025
561.281	8765
561.342	8374
561.403	9087
561.465	8208
561.526	8928
561.587	8601
561.648	6766
561.709	7055
561.771	7819
561.832	7601
561.893	7126
561.954	7518
562.015	6737
562.076	7355
562.137	6180
562.198	6549
562.259	6458
562.320	5895
562.381	6584
562.442	7262
562.503	7073
562.564	6010
562.625	5429
562.686	6317
562.747	6622
562.808	6094
562.869	6138
562.930	6465
562.991	6032
563.051	6182
563.112	6074
563.173	6166
563.234	5475
563.294	6030
563.355	5250
563.416	5564
563.477	5456
563.537	5063
563.598	5691
563.659	5974
563.720	4687
563.780	6331
563.841	5806
563.901	6467
563.962	5671
564.023	4879
564.083	5328
564.144	5692
564.204	5129
564.265	5136
564.325	5602
564.386	6053
564.446	5103
564.507	5413
564.567	3961
564.628	5215
564.688	4842
564.749	4836
564.809	5200
564.869	5736
564.930	4781
564.990	5589
565.050	4486
565.111	4803
565.171	5464
565.231	4873
565.292	5412
565.352	4306
565.412	4873
565.472	4880
565.532	3796
565.593	5463
565.653	4800
565.713	4627
565.773	5537
565.833	5218
565.893	6424
565.953	4757
566.013	4447
566.074	5336
566.134	4979
566.194	4329
566.254	4719
566.314	4962
566.374	4604
566.434	4587
566.494	5095
566.554	4878
566.614	5557
566.673	4359
566.733	5430
566.793	5693
566.853	5048
566.913	5637
566.973	4946
567.033	6328
567.092	3970
567.152	4579
567.212	5687
567.272	5351
567.331	5247
567.391	4423
567.451	4874
567.511	6565
567.570	5297
567.630	5562
567.690	4873
567.749	5393
567.809	5613
567.868	5457
567.928	4676
567.988	4913
568.047	5382
568.107	5029
568.166	6055
568.226	5560
568.285	5377
568.345	5007
568.404	6153
568.464	5678
568.523	5013
568.582	5620
568.642	5354
568.701	4971
568.761	4831
568.820	5309
568.879	4798
568.939	5495
568.998	5116
569.057	4535
569.116	5233
569.176	5551
569.235	5475
569.294	5459
569.353	5395
569.413	5420
569.472	4494
569.531	5745
569.590	4572
569.649	5175
569.708	4943
569.767	5354
569.827	5676
569.886	4834
569.945	4952
570.004	5297
570.063	5331
570.122	4988
570.181	5447
570.240	5327
570.299	5185
570.358	5112
570.417	5238
570.475	5138
570.534	6172
570.593	6281
570.652	5914
570.711	6352
570.770	4577
570.829	5385
570.887	5204
570.946	6078
571.005	5384
571.064	7253
571.122	6953
571.181	5378
571.240	5494
571.299	5020
571.357	5305
571.416	5577
571.475	5844
571.533	5797
571.592	5553
571.650	6770
571.709	5753
571.768	7520
571.826	7236
571.885	6848
571.943	6010
572.002	5707
572.060	5618
572.119	6062
572.177	6056
572.236	6228
572.294	5071
572.352	7104
572.411	5291
572.469	6241
572.528	5275
572.586	5952
572.644	5371
572.703	5656
572.761	5600
572.819	5351
572.877	5116
572.936	5325
572.994	5450
573.052	5334
573.110	4964
573.169	6814
573.227	5536
573.285	5756
573.343	5420
573.401	4497
573.459	5635
573.517	5771
573.576	5649
573.634	5465
573.692	6051
573.750	4919
573.808	4947
573.866	5182
573.924	5030
573.982	5700
574.040	4708
574.098	5107
574.155	5270
574.213	4796
574.271	5029
574.329	5287
574.387	4543
574.445	4391
574.503	4524
574.560	4063
574.618	4056
574.676	4806
574.734	4739
574.792	5338
574.849	3926
574.907	4315
574.965	3944
575.022	3669
575.080	2866
575.138	3504
575.195	3553
575.253	3782
575.311	3534
575.368	3122
575.426	3560
575.483	4533
575.541	4606
575.598	2994
575.656	4217
575.713	3677
575.771	4367
575.828	3087
575.886	4013
575.943	3601
576.001	2722
576.058	3391
576.115	4114
576.173	4219
576.230	4350
576.287	3074
576.345	4187
576.402	3791
576.459	4042
576.517	4745
576.574	3600
576.631	3780
576.688	2950
576.746	3246
576.803	3892
576.860	3363
576.917	2978
576.974	4664
577.031	3313
577.089	3631
577.146	2666
577.203	3469
577.260	2765
577.317	3155
577.374	4067
577.431	3306
577.488	3283
577.545	2731
577.602	3712
577.659	3748
577.716	3932
577.773	3747
577.830	2737
577.886	3637
577.943	3493
578.000	2943
578.057	3720
578.114	3742
578.171	3922
578.227	2897
578.284	2264
578.341	4302
578.398	3610
578.454	3481
578.511	3896
578.568	3858
578.625	3492
578.681	3776
578.738	3298
578.794	4003
578.851	3462
578.908	3786
578.964	3233
579.021	4234
579.077	3175
579.134	3692
579.190	2302
579.247	4287
579.303	3033
579.360	3426
579.416	3135
579.473	3122
579.529	2530
579.586	3837
579.642	3489
579.698	4044
579.755	4960
579.811	3809
579.867	3997
579.924	3535
579.980	3264
580.036	4074
580.093	2534
580.149	4513
580.205	4232
580.261	4163
580.317	4611
580.374	4732
580.430	4230
580.486	3657
580.542	3515
580.598	4613
580.619	4384
580.654	3990
580.692	3838
580.710	3764
580.765	3661
580.767	3662
580.823	5330
580.838	5048
580.879	4311
580.911	4351
580.935	4406
580.984	4320
580.991	4311
581.047	5650
581.057	5396
581.103	4268
581.130	4462
581.159	4685
581.203	4501
581.215	4454
581.270	4496
581.276	4463
581.326	4194
581.349	3936
581.382	3563
581.422	3910
581.438	4035
581.494	4434
581.494	4425
581.550	3861
581.567	3968
581.606	4173
581.640	3711
581.661	3406
581.713	5440
581.717	5611
581.773	3493
581.786	3604
581.829	3934
581.859	4049
581.885	4184
581.932	4397
581.940	4442
581.996	4487
582.004	4564
582.052	4888
582.077	4949
582.107	5031
582.150	4613
582.163	4484
582.219	3687
582.223	3741
582.274	4522
582.296	4419
582.330	4220
582.368	3916
582.386	3827
582.441	3980
582.441	3979
582.497	3702
582.514	3737
582.552	4025
582.587	4229
582.608	4274
582.659	3855
582.663	3820
582.719	4590
582.732	4557
582.774	4629
582.805	4343
582.830	4068
582.877	4509
582.885	4590
582.941	4745
582.950	4726
582.996	4459
583.023	4409
583.052	4515
583.095	4689
583.107	4657
583.162	3979
583.168	4036
583.218	4773
583.240	4551
583.273	4131
583.313	3764
583.328	3764
583.384	4531
583.385	4511
583.439	3296
583.458	3418
583.494	3766
583.531	3648
583.549	3743
583.603	4860
583.605	4877
583.660	4215
583.676	4347
583.715	5042
583.748	4751
583.770	4431
583.820	4757
583.825	4780
583.881	4854
583.893	4591
583.936	3943
583.965	4191
583.991	4251
584.038	3890
584.046	3843
584.101	4083
584.110	4163
584.156	4620
584.183	4607
584.211	4603
584.255	4548
584.266	4517
584.321	4063
584.328	4100
584.376	4643
584.400	5205
584.431	5825
584.472	5212
584.486	4932
584.541	5005
584.545	5014
584.596	5370
584.617	5151
584.651	5163
584.689	5837
584.706	5875
584.761	5423
584.762	5420
584.816	5221
584.834	5473
584.871	6199
584.906	6692
584.926	6833
584.978	7014
584.980	7032
585.035	7601
585.051	7892
585.090	8626
585.123	9626
585.145	10295
585.195	10923
585.200	11018
585.254	12304
585.267	12848
585.309	14733
585.340	16408
585.364	17708
585.412	20276
585.419	20728
585.473	26310
585.484	27792
585.528	36545
585.556	46471
585.583	64524
585.628	106180
585.637	120124
585.692	246371
585.700	264252
585.747	313367
585.772	256921
585.801	152806
585.845	52475
585.856	40719
585.910	21895
585.917	20039
585.965	15017
585.989	13486
586.019	12354
586.061	10674
586.074	10259
586.128	10230
586.133	10169
586.183	9481
586.205	9633
586.237	9871
586.277	8879
586.292	8675
586.346	9087
586.349	9125
586.401	9474
586.421	9419
586.455	9327
586.493	9695
586.509	10029
586.564	10328
586.565	10346
586.618	10987
586.637	11418
586.672	12750
586.709	13634
586.727	13873
586.781	15196
586.781	15195
586.835	11452
586.853	10710
586.889	9883
586.925	9435
586.944	9502
586.996	10128
586.998	10120
587.052	9059
587.068	8924
587.106	9552
587.140	10059
587.161	10196
587.212	9994
587.215	9974
587.269	9606
587.284	9713
587.323	9881
587.356	9892
587.377	10184
587.427	10828
587.431	10835
587.485	10842
587.499	10850
587.539	11069
587.571	11208
587.593	11437
587.643	12046
587.648	12111
587.702	12747
587.715	12979
587.755	13055
587.786	13008
587.810	13092
587.858	12732
587.864	12691
587.917	12821
587.930	12794
587.971	12975
588.001	13111
588.025	12995
588.073	12860
588.079	12903
588.133	12895
588.145	13004
588.187	12767
588.217	12515
588.241	12813
588.288	13493
588.295	13553
588.348	14315
588.360	14365
588.402	14575
588.431	14797
588.456	14757
588.503	15084
588.510	15193
588.564	15796
588.575	15973
588.617	16964
588.646	17649
588.671	18282
588.718	19837
588.725	20167
588.778	23284
588.789	24170
588.832	35228
588.861	44656
588.886	64693
588.932	109701
588.939	113623
588.993	138333
589.004	136289
589.047	69910
589.075	34234
589.100	27024
589.147	18578
589.154	18303
589.207	17102
589.218	16913
589.261	17481
589.290	18112
589.314	18530
589.361	19530
589.368	20092
589.421	25594
589.433	27089
589.475	47014
589.504	62968
589.528	82682
589.576	124761
589.582	120638
589.635	56995
589.647	44968
589.689	27074
589.718	17548
589.742	16823
589.790	15343
589.795	15236
589.849	14799
589.861	14618
589.902	14470
589.932	14353
589.955	14311
590.004	14173
590.009	14159
590.062	14171
590.075	14193
590.115	14147
590.146	13985
590.168	13847
590.218	13514
590.222	13535
590.275	14023
590.289	14135
590.328	14375
590.360	14464
590.381	14759
590.431	15635
590.435	15615
590.488	14797
590.503	14724
590.541	15340
590.574	15602
590.594	15674
590.645	16248
590.647	16276
590.700	16526
590.716	16711
590.753	17064
590.787	17384
590.806	17548
590.859	18144
590.859	18145
590.912	17944
590.930	18035
590.965	18734
591.001	19291
591.018	18998
591.071	18201
591.072	18191
591.124	18251
591.143	18305
591.177	18524
591.214	18676
591.230	18627
591.283	18658
591.285	18652
591.336	18695
591.356	18704
591.389	18548
591.427	18305
591.442	18296
591.495	18324
591.498	18321
591.547	18784
591.569	19061
591.600	19211
591.640	19226
591.653	19378
591.706	20126
591.711	20203
591.759	20228
591.782	20207
591.811	20979
591.853	22073
591.864	22004
591.917	21634
591.924	21570
591.969	21458
591.995	21382
592.022	21404
592.066	21491
592.075	21624
592.127	22372
592.137	22514
592.180	22509
592.208	22493
592.233	22741
592.279	23207
592.285	23258
592.338	23715
592.350	23807
592.390	24041
592.421	24235
592.443	24535
592.491	25186
592.495	25221
592.548	25666
592.562	25786
592.600	25452
592.633	25165
592.653	25090
592.704	24769
592.705	24926
592.775	25775
592.846	27920
592.916	27381
592.987	26424
593.058	27300
593.128	27970
593.199	27261
593.270	28489
593.341	28562
593.411	29159
593.482	29473
593.553	32961
593.623	31381
593.694	32852
593.764	32584
593.835	33255
593.906	33434
593.976	34257
594.047	35205
594.117	36907
594.188	37748
594.258	37593
594.329	36814
594.399	39711
594.470	40272
594.540	41477
594.611	41405
594.681	41595
594.751	41108
594.822	43971
594.892	44267
594.963	46832
595.033	47745
595.103	49329
595.174	50675
595.244	51763
595.314	52676
595.384	54442
595.455	55723
595.525	56815
595.595	59551
595.665	59421
595.736	57904
595.806	59000
595.876	59980
595.946	60063
596.016	62470
596.087	65169
596.157	65487
596.227	65847
596.297	70026
596.367	74110
596.437	77723
596.507	78942
596.577	77323
596.647	81594
596.717	84756
596.787	85140
596.857	85686
596.927	85001
596.997	86087
597.067	87217
597.137	88778
597.207	88958
597.277	88110
597.347	85843
597.417	83822
597.487	83997
597.557	85629
597.626	88775
597.696	88655
597.766	89187
597.836	83482
597.906	77705
597.975	77389
598.045	78704
598.115	82858
598.185	87913
598.254	100593
598.324	108293
598.394	109827
598.464	105557
598.533	103464
598.603	96841
598.672	94170
598.742	96807
598.812	96068
598.881	99397
598.951	97709
599.020	99911
599.090	105059
599.159	105403
599.229	101653
599.299	100598
599.368	102072
599.437	99574
599.507	92147
599.576	88952
599.646	87532
599.715	86950
599.785	86008
599.854	83671
599.924	82435
599.993	81356
600.062	82666
600.132	85176
600.201	91058
600.270	105727
600.340	112078
600.409	108677
600.478	109291
600.547	110357
600.617	97813
600.686	77412
600.755	71367
600.824	67043
600.894	64964
600.963	66791
601.032	65754
601.101	62260
601.170	58713
601.239	58517
601.308	58305
601.378	57817
601.447	59036
601.516	58350
601.585	59708
601.654	59277
601.723	60549
601.792	62015
601.861	63987
601.930	65271
601.999	65855
602.068	66499
602.137	66445
602.206	68881
602.275	69101
602.343	69782
602.412	69497
602.481	70206
602.550	71100
602.619	73028
602.688	74447
602.756	74297
602.825	76112
602.894	78160
602.963	79520
603.032	80947
603.100	79728
603.169	81519
603.238	80764
603.307	82283
603.375	83649
603.444	82838
603.513	85419
603.581	87586
603.650	89091
603.719	86892
603.787	90427
603.856	93233
603.924	94743
603.993	98965
604.061	103205
604.130	106039
604.198	108522
604.267	111831
604.335	113021
604.404	114307
604.472	114702
604.541	117847
604.609	118057
604.678	118039
604.746	119018
604.815	122585
604.883	124821
604.951	124448
605.020	126289
605.088	128833
605.156	134034
605.225	135207
605.293	134520
605.361	134706
605.429	135730
605.498	139244
605.566	142919
605.634	151004
605.702	157372
605.771	161228
605.839	161195
605.907	158093
605.975	151576
606.043	149968
606.111	151653
606.180	151261
606.248	147614
606.316	147738
606.384	145969
606.452	148304
606.520	152149
606.588	159228
606.656	160465
606.724	155394
606.792	146280
606.860	131762
606.928	121342
606.996	116782
607.064	114046
607.132	118340
607.200	125349
607.267	130301
607.335	132826
607.403	134491
607.471	128653
607.539	126423
607.607	126749
607.674	110445
607.742	108957
607.810	108889
607.878	110049
607.946	112494
608.013	116948
608.081	120609
608.149	121474
608.216	126599
608.284	130963
608.352	130817
608.419	127023
608.487	126944
608.555	124919
608.622	128168
608.690	137746
608.757	151873
608.825	153837
608.893	149996
608.960	139965
609.028	134097
609.095	135495
609.163	134428
609.230	119023
609.298	110852
609.365	116829
609.432	125339
609.500	138218
609.567	159212
609.635	180479
609.702	189923
609.769	177597
609.837	132261
609.904	118205
609.971	122345
610.039	132257
610.106	162929
610.173	277633
610.241	543306
610.308	285536
610.375	143648
610.442	127633
610.509	122644
610.577	126600
610.644	127941
610.711	130685
610.778	134801
610.845	139414
610.912	148532
610.980	153437
611.047	152507
611.114	150379
611.181	145935
611.248	145092
611.315	157054
611.382	159181
611.449	163940
611.516	166873
611.583	163490
611.650	166463
611.717	166857
611.784	170134
611.851	174957
611.918	181622
611.984	203538
612.051	263271
612.118	442804
612.185	858834
612.252	521995
612.319	235238
612.386	209529
612.452	195715
612.519	186639
612.586	183740
612.653	189300
612.719	196424
612.786	186471
612.853	175927
612.919	172298
612.986	174270
613.053	165767
613.120	154636
613.186	149180
613.253	150159
613.319	151682
613.386	151410
613.453	154354
613.519	155881
613.586	151956
613.652	155509
613.719	151024
613.785	155267
613.852	156635
613.918	155397
613.985	158859
614.051	164280
614.118	161229
614.184	154634
614.250	156081
614.317	159700
614.383	158918
614.449	160244
614.516	160016
614.582	160639
614.648	156220
614.715	155525
614.781	153266
614.847	153131
614.914	150883
614.980	146518
615.046	150526
615.112	154348
615.179	154277
615.245	156340
615.311	154168
615.377	154580
615.443	156820
615.509	159576
615.575	163840
615.642	160520
615.708	165271
615.774	173754
615.840	179074
615.906	185762
615.972	210514
616.038	286152
616.104	518254
616.170	954776
616.236	724577
616.302	301464
616.368	253458
616.434	196553
616.500	188081
616.565	209398
616.631	243433
616.697	205429
616.763	213432
616.829	307224
616.895	491450
616.961	424469
617.026	212980
617.092	168971
617.158	165007
617.224	161733
617.289	149346
617.355	144058
617.421	143250
617.487	144551
617.552	136832
617.618	135457
617.684	135713
617.749	138047
617.815	131186
617.880	128277
617.946	129379
618.012	132137
618.077	133924
618.143	127709
618.208	129598
618.274	140990
618.339	137855
618.405	114404
618.470	117878
618.536	118050
618.601	115314
618.667	108000
618.732	102141
618.798	101644
618.863	102445
618.928	100220
618.994	102790
619.059	100684
619.124	102556
619.190	98880
619.255	98981
619.320	100611
619.386	101900
619.451	99794
619.516	97247
619.581	99459
619.647	103091
619.712	102307
619.777	98538
619.842	99039
619.907	100960
619.972	100870
620.038	101724
620.103	99113
620.168	98837
620.233	101071
620.298	99991
620.363	103174
620.428	105798
620.493	108934
620.558	108222
620.623	109837
620.688	111317
620.753	107954
620.818	112010
620.883	111772
620.948	111014
621.013	110052
621.078	107661
621.143	109523
621.207	112369
621.272	107755
621.337	106203
621.402	105877
621.467	104707
621.532	103674
621.596	103419
621.661	102600
621.726	101596
621.791	102268
621.855	102363
621.920	101096
621.985	104142
622.049	105588
622.114	105055
622.179	106005
622.243	107485
622.308	111748
622.373	117156
622.437	111531
622.502	107069
622.566	106376
622.631	105573
622.695	109435
622.760	107860
622.824	107687
622.889	107292
622.953	109178
623.018	114240
623.082	115218
623.147	113072
623.211	111392
623.276	111075
623.340	106847
623.404	105244
623.469	104902
623.533	106641
623.597	102936
623.662	102969
623.726	95064
623.790	89771
623.854	86599
623.919	89615
623.983	91801
624.047	92920
624.111	93221
624.176	94412
624.240	95317
624.304	99353
624.368	93385
624.432	95519
624.496	97407
624.560	102382
624.625	102145
624.689	102603
624.753	106190
624.817	101456
624.881	97918
624.945	89162
625.009	88083
625.073	89361
625.137	90576
625.201	95507
625.265	93783
625.329	91673
625.393	91791
625.456	92695
625.520	95537
625.584	96777
625.648	97828
625.712	101884
625.776	100152
625.839	94572
625.903	80863
625.967	75491
626.031	83923
626.095	97040
626.158	85979
626.222	68017
626.286	67954
626.349	62876
626.413	58070
626.477	59287
626.540	58265
626.604	58396
626.668	58809
626.731	56383
626.795	56013
626.858	56624
626.922	55635
626.986	57288
627.049	54024
627.113	57319
627.176	55242
627.240	53842
627.303	53302
627.366	53183
627.430	54212
627.493	53023
627.557	51449
627.620	53874
627.684	54763
627.747	55149
627.810	47986
627.874	46067
627.937	42598
628.000	46650
628.064	44345
628.127	38862
628.190	40202
628.253	38517
628.317	36663
628.380	35057
628.443	34041
628.506	32142
628.569	32595
628.632	31080
628.696	30454
628.759	30859
628.822	28899
628.885	28995
628.948	29259
629.011	28316
629.074	26479
629.137	25334
629.200	24341
629.263	26364
629.326	24096
629.389	24906
629.452	24855
629.515	23168
629.578	23693
629.641	24040
629.704	23390
629.767	24089
629.830	23485
629.892	22281
629.955	21343
630.018	23885
630.081	21179
630.144	21976
630.207	20646
630.269	23547
630.332	20055
630.395	20755
630.458	20423
630.520	18185
630.583	21106
630.646	20561
630.708	20113
630.771	20059
630.834	22260
630.896	21412
630.959	20550
631.021	18753
631.084	20307
631.146	20500
631.209	21204
631.272	19191
631.334	20743
631.397	20578
631.459	20051
631.522	21929
631.584	21924
631.646	23570
631.709	23648
631.771	23575
631.834	23245
631.896	21586
631.958	20242
632.021	21266
632.083	17901
632.145	20715
632.208	19398
632.270	19399
632.332	17974
632.395	18101
632.457	19400
632.519	19228
632.581	20322
632.643	18370
632.706	19266
632.768	16916
632.830	18889
632.892	18936
632.954	18539
633.016	20425
633.078	19820
633.141	19275
633.203	18116
633.265	18490
633.327	19414
633.389	18305
633.451	20230
633.513	18097
633.575	19499
633.637	18370
633.698	18734
633.760	21471
633.822	20856
633.884	20468
633.946	22308
634.008	22276
634.070	22845
634.132	23424
634.193	25672
634.255	28580
634.317	27848
634.379	28190
634.441	24977
634.502	22906
634.564	21698
634.626	18140
634.687	18426
634.749	18281
634.811	19227
634.873	17827
634.934	17849
634.996	18092
635.057	17698
635.119	17968
635.181	19287
635.242	20070
635.304	16912
635.365	20964
635.427	18216
635.488	18722
635.550	16799
635.611	19257
635.673	16797
635.734	21414
635.796	19942
635.857	22952
635.918	23615
635.980	26421
636.041	27151
636.102	30113
636.164	29574
636.225	29309
636.286	22871
636.348	22391
636.409	19280
636.470	19177
636.531	19012
636.593	17286
636.654	17373
636.715	18169
636.776	17473
636.838	16612
636.899	16128
636.960	16023
637.021	13588
637.082	15507
637.143	15176
637.204	13963
637.265	15056
637.326	15833
637.387	15880
637.448	15014
637.509	15534
637.570	15130
637.631	16297
637.692	13715
637.753	13480
637.814	15172
637.875	14792
637.936	15086
637.997	13805
638.058	13891
638.119	14368
638.179	13975
638.240	14024
638.301	13916
638.362	13363
638.423	14093
638.483	14508
638.544	12611
638.605	13714
638.666	12767
638.726	13412
638.787	14166
638.848	13646
638.908	13510
638.969	13288
639.030	12339
639.090	12621
639.151	12385
639.211	13568
639.272	13348
639.332	12802
639.393	13587
639.453	12801
639.514	15686
639.574	12724
639.635	12832
639.695	13185
639.756	10793
639.816	12099
639.877	11058
639.937	12678
639.997	12221
640.058	10324
640.118	11318
640.178	12648
640.239	12052
640.299	12057
640.359	11499
640.420	13864
640.480	14287
640.540	16196
640.600	15371
640.661	13946
640.721	13295
640.781	13590
640.841	10544
640.901	13356
640.961	12263
641.021	13266
641.082	12243
641.142	11834
641.202	13337
641.262	10054
641.322	11344
641.382	9759
641.442	12326
641.502	11142
641.562	12236
641.622	10820
641.682	12449
641.742	14591
641.802	13392
641.861	11572
641.921	10657
641.981	11178
642.041	11439
642.101	9464
642.161	9436
642.221	9814
642.280	10195
642.340	10143
642.400	10613
642.460	11896
642.519	12053
642.579	11344
642.639	13002
642.698	8811
642.758	13294
642.818	11491
642.877	11489
642.937	11185
642.997	11563
643.056	11234
643.116	9664
643.175	12484
643.235	12304
643.294	11559
643.354	13187
643.414	13216
643.473	14976
643.532	17230
643.592	23189
643.651	36110
643.711	62381
643.770	119740
643.830	290092
643.889	486154
643.948	114426
644.008	30461
644.067	20468
644.126	15142
644.186	14028
644.245	13726
644.304	11462
644.363	13392
644.423	9721
644.482	11756
644.541	12432
644.600	10488
644.659	15741
644.719	17787
644.778	27693
644.837	48618
644.896	101035
644.955	203169
645.014	54231
645.073	15884
645.132	13688
645.191	12982
645.250	11860
645.309	13512
645.368	14632
645.427	20391
645.486	33151
645.545	51541
645.604	14886
645.663	11583
645.722	11127
645.781	11651
645.840	13424
645.898	16236
645.957	23207
646.016	32794
646.075	59197
646.134	113652
646.192	308136
646.251	353455
646.310	57431
646.369	22184
646.427	20359
646.486	13390
646.545	12544
646.603	11251
646.662	10780
646.721	10180
646.779	10225
646.838	10392
646.896	13819
646.955	17137
647.014	30014
647.072	57310
647.131	145641
647.189	53476
647.248	11092
647.306	9631
647.365	9315
647.423	7434
647.481	9410
647.540	7475
647.598	8313
647.657	7153
647.715	8666
647.773	6614
647.832	8012
647.890	5635
647.948	6002
648.007	6641
648.065	5892
648.123	5603
648.181	6531
648.240	6491
648.298	4858
648.356	6398
648.414	6508
648.472	5965
648.531	5700
648.589	5051
648.647	5461
648.705	4945
648.763	6019
648.821	6385
648.879	5637
648.937	6872
648.995	9133
649.053	10782
649.111	16519
649.169	27568
649.227	50748
649.285	110722
649.343	281681
649.401	102828
649.459	16230
649.516	10436
649.574	6727
649.632	8350
649.690	10147
649.748	12932
649.806	18478
649.863	38714
649.921	106638
649.979	53664
650.037	8652
650.094	5059
650.152	6076
650.210	4816
650.268	5266
650.325	4568
650.383	3431
650.440	2276
650.498	4106
650.556	4170
650.613	3525
650.671	3497
650.728	4324
650.786	4182
650.843	6141
650.901	3481
650.958	3791
651.016	3452
651.073	3144
651.131	3168
651.188	3290
651.246	3239
651.303	2472
651.360	3482
651.418	2178
651.475	3077
651.532	2253
651.590	2829
651.647	2161
651.704	2017
651.762	2184
651.819	3278
651.876	2519
651.933	2614
651.990	2690
652.048	1240
652.105	2514
652.162	1776
652.219	1957
652.276	2880
652.333	2509
652.390	1984
652.448	2148
652.505	2642
652.562	1872
652.619	1729
652.676	2341
652.733	2898
652.790	2377
652.847	1336
652.904	2984
652.961	545
653.017	1653
653.074	2268
653.131	1090
653.188	1399
653.245	1902
653.302	1074
653.359	1580
653.415	1617
653.472	1383
653.529	2429
653.586	1819
653.642	1020
653.699	2494
653.756	368
653.813	1174
653.869	1264
653.926	1693
653.983	1465
654.039	2484
654.096	898
654.152	2468
654.209	361
654.266	2063
654.322	927
654.379	1537
654.435	2117
654.492	554
654.548	1723
654.605	225
654.661	2088
654.717	1467
654.774	2212
654.830	1835
654.887	1478
654.943	1195
655.000	1802
655.056	1956
655.112	1185
655.168	929
655.225	1734
655.281	1524
655.337	1644
655.394	1687
655.450	718
655.506	1707
655.562	214
655.618	1758
655.675	1247
655.731	2019
655.787	37
655.843	2972
655.899	519
655.955	1512
656.011	1920
656.067	804
656.123	1568
656.179	1617
656.235	2081
656.291	980
656.347	2411
656.403	1403
656.459	957
656.515	1887
656.571	666
656.627	1325
656.683	1497
656.739	1201
656.795	1840
656.850	1736
656.906	1749
656.962	2023
657.018	1148
657.074	2353
657.129	3055
657.185	7167
657.241	16969
657.297	6143
657.352	1037
657.408	1383
657.464	2354
657.519	1138
657.575	913
657.630	1392
657.686	782
657.742	1556
657.797	592
657.853	1014
657.908	1399
657.964	-223
658.019	566
658.075	735
658.130	1499
658.186	-61
658.241	1569
658.297	686
658.352	311
658.407	1167
658.463	939
658.518	178
658.573	727
658.629	-192
658.684	826
658.739	2013
658.795	495
658.850	884
658.905	361
658.960	491
659.016	927
659.071	1052
659.126	790
659.181	91
659.236	1291
659.291	506
659.346	895
659.401	1227
659.457	-113
659.512	77
659.567	1753
659.622	374
659.677	318
659.732	-285
659.787	1125
659.842	957
659.897	745
659.952	992
660.007	794
660.061	1566
660.116	-63
660.171	108
660.226	1086
660.281	1557
660.336	986
660.391	1132
660.445	268
660.500	184
660.555	847
660.610	360
660.664	1052
660.719	604
660.774	639
660.828	907
660.883	80
660.938	1326
660.992	-176
661.047	845
661.101	-123
661.156	-57
661.211	-94
661.265	377
661.320	492
661.374	800
661.429	-231
661.483	1178
661.538	-21
661.592	756
661.647	358
661.701	438
661.755	374
661.810	850
661.864	111
661.919	631
661.973	834
662.027	257
662.081	123
662.136	847
662.190	318
662.244	719
662.299	-160
662.353	561
662.407	82
662.461	1056
662.515	220
662.569	-6
662.624	223
662.678	854
662.732	556
662.786	493
662.840	389
662.894	523
662.948	945
663.002	354
663.056	-200
663.110	9
663.164	1229
663.218	434
663.272	1391
663.326	857
663.380	980
663.434	1034
663.488	-126
663.542	433
663.595	230
663.649	-360
663.703	710
663.757	978
663.811	-524
663.864	294
663.918	-33
663.972	34
664.026	-74
664.079	-95
664.133	555
664.187	407
664.240	680
664.294	458
664.348	266
664.401	314
664.455	393
664.508	-534
664.562	259
664.615	429
664.669	-338
664.722	537
664.776	297
664.829	444
664.883	-268
664.936	38
664.990	-523
665.043	568
665.097	-144
665.150	720
665.203	51
665.257	232
665.310	524
665.363	615
665.417	588
665.470	-263
665.523	762
665.576	1548
665.630	232
665.683	-86
665.736	904
665.789	922
665.842	247
665.895	752
665.949	317
666.002	1068
666.055	610
666.108	1015
666.161	426
666.214	758
666.267	981
666.320	567
666.373	-12
666.426	1510
666.479	85
666.532	870
666.585	583
666.638	699
666.691	-278
666.744	736
666.796	-170
666.849	348
666.902	577
666.955	930
667.008	-248
667.060	420
667.113	-38
667.166	407
667.219	937
667.271	654
667.324	117
667.377	806
667.430	485
667.482	947
667.535	509
667.587	263
667.640	527
667.693	212
667.745	132
667.798	870
667.850	-495
667.903	923
667.955	628
668.008	454
668.060	150
668.113	860
668.165	195
668.218	741
668.270	1387
668.322	497
668.375	-410
668.427	740
668.479	-3
668.532	671
668.584	838
668.636	154
668.689	894
668.741	624
668.793	537
668.845	815
668.898	400
668.950	675
669.002	-130
669.054	455
669.106	-171
669.158	967
669.211	148
669.263	638
669.315	218
669.367	175
669.419	-810
669.471	800
669.523	-46
669.575	503
669.627	-737
669.679	-533
669.731	357
669.783	65
669.835	814
669.886	736
669.938	198
669.990	309
670.042	-581
670.094	614
670.146	60
670.197	903
670.249	-433
670.301	-155
670.353	958
670.404	581
670.456	704
670.508	877
670.560	1065
670.611	1740
670.663	2728
670.715	7513
670.766	9786
670.818	1363
670.869	359
670.921	154
670.972	912
671.024	-219
671.075	-238
671.127	651
671.178	146
671.230	594
671.281	650
671.333	950
671.384	1762
671.436	2419
671.487	4932
671.538	6650
671.590	11342
671.641	22087
671.692	43987
671.744	77892
671.795	39316
671.846	11492
671.897	4867
671.949	2975
672.000	1609
672.051	1646
672.102	1270
672.153	662
672.204	581
672.256	981
672.307	144
672.358	118
672.409	124
672.460	566
672.511	219
672.562	-391
672.613	-297
672.664	-680
672.715	34
672.766	-629
672.817	-656
672.868	-704
672.919	-120
672.970	-405
673.021	-410
673.071	-1263
673.122	568
673.173	737
673.224	-758
673.275	87
673.326	-1042
673.376	-299
673.427	-705
673.478	-195
673.528	150
673.579	-104
673.630	-152
673.680	229
673.731	-828
673.782	383
673.832	-66
673.883	98
673.934	-861
673.984	-694
674.035	410
674.085	-721
674.136	75
674.186	-675
674.237	-704
674.287	-607
674.338	-84
674.388	-481
674.438	-506
674.489	-141
674.539	3
674.589	-569
674.640	-864
674.690	91
674.740	-262
674.791	-393
674.841	-441
674.891	-435
674.942	-406
674.992	-516
675.042	-1169
675.092	-734
675.142	-1327
675.193	-636
675.243	-434
675.293	-65
675.343	-1458
675.393	-914
675.443	126
675.493	-531
675.543	-1124
675.593	-1041
675.643	-299
675.693	815
675.743	-484
675.793	-222
675.843	134
675.893	-879
675.943	-179
675.993	-971
676.043	-930
676.093	-755
676.142	-1823
676.192	-854
676.242	268
676.292	-415
676.341	-325
676.391	140
676.441	-897
676.491	-502
676.540	-1038
676.590	-115
676.640	-599
676.689	-825
676.739	-933
676.789	-695
676.838	-904
676.888	-971
676.937	-1146
676.987	-781
677.037	-1378
677.086	-555
677.136	-644
677.185	-772
677.235	-311
677.284	-116
677.333	-724
677.383	-916
677.432	-1524
677.482	-1312
677.531	-1135
677.580	-855
677.630	-889
677.679	-738
677.728	-626
677.778	-405
677.827	-675
677.876	-130
677.925	-776
677.975	-482
678.024	-1012
678.073	-1051
678.122	-826
678.171	-893
678.220	-420
678.269	-508
678.319	-899
678.368	-32
678.417	-1057
678.466	-209
678.515	-679
678.564	-566
678.613	-908
678.662	-739
678.711	-1240
678.760	-943
678.809	-1532
678.857	-1024
678.906	-782
678.955	-820
679.004	-760
679.053	-1313
679.102	-1039
679.151	-763
679.199	-1057
679.248	-975
679.297	-1326
679.346	-882
679.394	-1433
679.443	-726
679.492	-286
679.540	-592
679.589	-1010
679.638	-743
679.686	-1060
679.735	-832
679.784	-433
679.832	677
679.881	-1892
679.929	-658
679.978	-1400
680.026	-864
680.075	313
680.123	-871
680.172	-1002
680.220	-771
680.268	-515
680.317	-1230
680.365	-1348
680.414	-989
680.462	-1497
680.510	-970
680.559	-1887
680.607	-1295
680.655	-1051
680.703	-455
680.752	-1543
680.800	-882
680.848	-1505
680.896	-1677
680.945	-1605
680.993	-919
681.041	-722
681.089	-792
681.137	-610
681.185	-865
681.233	-1247
681.258	-744
681.281	-297
681.329	-1029
681.377	-1402
681.380	-1340
681.425	-747
681.473	-483
681.502	-514
681.521	-592
681.569	-418
681.617	-232
681.624	-298
681.665	-968
681.713	-448
681.745	144
681.761	395
681.809	240
681.857	-80
681.867	-60
681.904	-165
681.952	67
681.989	-178
682.000	-283
682.048	-687
682.096	504
682.111	234
682.143	-442
682.191	-455
682.233	621
682.239	755
682.286	-210
682.334	603
682.354	456
682.382	191
682.430	443
682.476	696
682.477	676
682.525	1007
682.572	538
682.598	696
682.620	766
682.667	920
682.715	1044
682.720	1037
682.763	781
682.810	1564
682.841	1609
682.857	1561
682.905	902
682.952	1196
682.963	1120
683.000	817
683.047	631
683.085	1747
683.095	2017
683.142	1316
683.190	2069
683.206	1638
683.237	772
683.284	2042
683.328	1893
683.332	1856
683.379	2609
683.426	1063
683.449	1723
683.473	2390
683.521	1510
683.568	2233
683.571	2205
683.615	1458
683.662	2491
683.693	2055
683.709	1780
683.757	2129
683.804	2245
683.814	2184
683.851	1950
683.898	2038
683.936	2665
683.945	2794
683.992	2131
684.039	2960
684.057	3033
684.086	3064
684.133	2046
684.179	1739
684.180	1711
684.227	2692
684.274	2962
684.300	2938
684.321	2936
684.368	2798
684.415	3035
684.422	3002
684.462	2690
684.509	3065
684.543	2927
684.556	2859
684.603	3792
684.649	3238
684.665	3388
684.696	3635
684.743	3352
684.786	4203
684.790	4248
684.837	3143
684.883	4178
684.908	3756
684.930	3454
684.977	4333
685.023	3277
685.029	3394
685.070	4023
685.117	3512
685.150	3599
685.164	3655
685.210	4193
685.257	4545
685.272	4716
685.303	4957
685.350	4409
685.393	3774
685.396	3713
685.443	4215
685.490	4013
685.514	4260
685.536	4449
685.583	4275
685.629	4069
685.636	4045
685.675	4018
685.722	3900
685.757	4102
685.768	4116
685.815	4822
685.861	4220
685.878	4217
685.908	4316
685.954	4604
686.000	4911
686.000	4906
686.047	5143
686.093	4755
686.121	5049
686.139	5276
686.185	5040
686.232	5330
686.242	5430
686.278	5670
686.324	4800
686.363	4752
686.370	4736
686.416	5346
686.463	5782
686.484	5489
686.509	5137
686.555	5400
686.601	5236
686.606	5207
686.647	5081
686.693	5816
686.727	5414
686.739	5233
686.785	5074
686.831	5546
686.848	5649
686.877	5883
686.923	5533
686.969	5731
686.969	5731
687.015	6109
687.061	6043
687.090	6538
687.107	6712
687.153	6416
687.199	6608
687.211	6506
687.245	6137
687.291	6227
687.332	5749
687.336	5741
687.382	6870
687.428	6666
687.453	6701
687.474	6589
687.520	6389
687.565	6517
687.574	6438
687.611	6427
687.657	7058
687.695	7581
687.702	7623
687.748	6992
687.794	7494
687.816	7208
687.839	6931
687.885	7216
687.931	7572
687.937	7444
687.976	6766
688.022	7223
688.058	6981
688.067	6948
688.113	6919
688.158	7172
688.179	7368
688.204	7446
688.249	7267
688.295	6754
688.300	6746
688.340	7094
688.386	7613
688.421	7792
688.431	7818
688.477	7268
688.522	7372
688.542	7748
688.567	8396
688.613	8053
688.658	8945
688.663	8940
688.703	8520
688.749	8419
688.784	8379
688.794	8423
688.839	8241
688.884	8753
688.905	8772
688.930	8704
688.975	8421
689.020	8310
689.026	8246
689.065	7943
689.110	8036
689.146	7908
689.155	7858
689.201	8121
689.246	7973
689.267	7756
689.291	7802
689.336	7909
689.381	7951
689.388	7995
689.426	8145
689.471	8838
689.509	8308
689.516	8201
689.561	8520
689.606	8267
689.630	8546
689.651	8835
689.696	8150
689.741	8773
689.750	8707
689.785	8648
689.830	8839
689.871	8641
689.875	8608
689.920	8790
689.965	8864
689.992	8623
690.010	8612
690.054	8626
690.099	9042
690.112	9154
690.144	9222
690.189	8851
690.233	8244
690.233	8258
690.278	9133
690.323	9107
690.354	9360
690.367	9361
690.412	9386
690.457	8991
690.474	8810
690.501	8713
690.546	8781
690.590	8994
690.595	8972
690.635	8644
690.680	8484
690.716	8504
690.724	8628
690.769	8695
690.813	9442
690.836	9213
690.857	9126
690.902	9821
690.946	10256
690.957	10375
690.991	10753
691.035	10787
691.077	11486
691.080	11507
691.124	10794
691.168	10482
691.198	10213
691.213	10226
691.257	10260
691.301	9910
691.318	10046
691.346	10274
691.390	9955
691.434	9447
691.439	9440
691.478	9802
691.522	10213
691.559	10247
691.567	10246
691.611	10262
691.655	10143
691.680	10093
691.699	10177
691.743	10180
691.787	10796
691.800	10625
691.831	10139
691.875	10281
691.919	10012
691.921	9990
691.964	10223
692.008	10413
692.041	10355
692.052	10340
692.096	10585
692.139	10494
692.162	10478
692.183	10460
692.227	10560
692.271	10458
692.282	10496
692.315	10780
692.359	10523
692.402	10543
692.403	10566
692.447	10402
692.490	10726
692.523	10586
692.534	10550
692.578	10838
692.622	10473
692.643	10475
692.666	10506
692.709	10336
692.753	10304
692.763	10299
692.797	10380
692.840	10402
692.884	9915
692.884	9938
692.928	10535
692.971	10478
693.004	10468
693.015	10472
693.059	10212
693.102	10547
693.124	10491
693.146	10621
693.189	10725
693.233	10757
693.245	10841
693.276	10940
693.320	11015
693.363	10924
693.365	10889
693.407	11069
693.450	11495
693.485	11557
693.493	11496
693.537	11383
693.580	10891
693.605	10903
693.624	11305
693.667	11830
693.710	12419
693.725	12618
693.753	12736
693.797	12553
693.840	12779
693.845	12762
693.883	12666
693.926	12274
693.966	12029
693.970	12034
694.013	11713
694.056	11760
694.086	11436
694.099	11430
694.142	11563
694.185	11528
694.206	11528
694.229	11674
694.272	11899
694.315	12274
694.326	12246
694.358	12230
694.401	12558
694.444	12781
694.446	12744
694.487	12345
694.530	12106
694.566	11898
694.573	11953
694.616	12052
694.659	12264
694.686	12385
694.702	12470
694.745	12552
694.787	12504
694.806	12490
694.830	12390
694.873	12089
694.916	11893
694.926	11809
694.959	12242
695.002	12860
695.044	13455
695.046	13439
695.087	13571
695.130	13554
695.166	13930
695.172	14025
695.215	13835
695.258	14145
695.286	14210
695.301	14416
695.343	14734
695.386	15213
695.406	15455
695.428	15917
695.471	16491
695.514	17064
695.526	17224
695.556	18365
695.599	19893
695.641	21459
695.646	21575
695.684	20684
695.726	19384
695.766	18362
695.769	18382
695.811	18029
695.854	17472
695.886	17169
695.896	17301
695.938	17362
695.981	17414
696.005	17566
696.023	18176
696.065	19454
696.108	20890
696.125	21257
696.150	21379
696.192	21737
696.235	22106
696.245	22126
696.277	22227
696.319	22240
696.361	22326
696.365	22277
696.404	22219
696.446	21995
696.485	21763
696.488	21802
696.530	21635
696.572	21174
696.604	21075
696.614	21188
696.656	21144
696.698	21157
696.724	21124
696.740	21308
696.783	21687
696.825	22053
696.844	22097
696.867	22065
696.909	22038
696.951	22019
696.964	21935
696.992	22303
697.034	22755
697.076	23174
697.083	23201
697.118	23620
697.160	23924
697.202	24291
697.203	24234
697.244	24414
697.286	24654
697.323	24734
697.327	24770
697.369	24479
697.411	24191
697.442	23934
697.453	24101
697.494	24436
697.536	24845
697.562	24978
697.578	24940
697.620	24768
697.661	24513
697.682	24329
697.703	24891
697.744	25897
697.786	26961
697.801	27212
697.828	26947
697.869	26533
697.911	26106
697.921	25928
697.952	25940
697.994	25860
698.035	25772
698.040	25687
698.077	25763
698.118	25835
698.160	25836
698.160	25763
698.201	26626
698.243	27370
698.279	27982
698.284	28164
698.325	29115
698.367	30118
698.399	30760
698.408	30869
698.449	31037
698.491	31190
698.518	31181
698.532	31210
698.573	31072
698.614	30932
698.638	30766
698.656	30809
698.697	30727
698.738	30606
698.757	30472
698.779	30554
698.820	30559
698.862	30552
698.877	30464
698.903	30702
698.944	30955
698.985	31200
698.996	31183
699.026	31126
699.067	30928
699.116	30607
699.235	30653
699.354	29397
699.474	29176
699.593	28187
699.713	29280
699.832	28438
699.951	29688
700.070	29435
700.190	27977
700.309	26551
700.428	27404
700.547	25205
700.667	25777
700.786	25584
700.905	24613
701.024	25509
701.143	24754
701.262	25900
701.381	26351
701.500	26578
701.619	24771
701.738	25652
701.857	25767
701.976	24175
702.095	24943
702.214	26156
702.333	24917
702.452	25030
702.571	26059
702.690	24711
702.809	25389
702.928	23987
703.047	22869
703.165	23036
703.284	23204
703.403	23356
703.522	22522
703.640	21834
703.759	22680
703.878	21479
703.997	23034
704.115	22140
704.234	21553
704.353	21851
704.471	20137
704.590	20470
704.708	19907
704.827	20407
704.946	19416
705.064	19027
705.183	19615
705.301	20622
705.420	19991
705.538	18858
705.656	18270
705.775	17931
705.893	19885
706.012	18603
706.130	18750
706.249	19926
706.367	18486
706.485	18161
706.604	17460
706.722	17718
706.840	18894
706.958	18453
707.077	16455
707.195	15941
707.313	18816
707.431	16334
707.549	16412
707.668	16314
707.786	17982
707.904	15570
708.022	17704
708.140	15485
708.258	15960
708.376	17108
708.494	14799
708.612	16943
708.730	17225
708.848	15617
708.966	16439
709.084	15725
709.202	16488
709.320	14648
709.438	14891
709.556	15109
709.674	14025
709.791	13795
709.909	14117
710.027	14253
710.145	14635
710.263	14950
710.380	14552
710.498	14062
710.616	14044
710.733	12181
710.851	13046
710.969	14218
711.086	13380
711.204	12881
711.322	13453
711.439	12208
711.557	13102
711.674	13060
711.792	12413
711.909	12301
712.027	12438
712.144	11761
712.262	13139
712.379	13446
712.497	13174
712.614	12046
712.732	13106
712.849	11193
712.966	13373
713.084	12777
713.201	11664
713.318	13543
713.436	13090
713.553	11748
713.670	12447
713.787	13709
713.905	11957
714.022	12540
714.139	12307
714.256	14943
714.373	19739
714.490	33401
714.608	87450
714.725	324792
714.842	250158
714.959	29826
715.076	16851
715.193	13527
715.310	13532
715.427	11141
715.544	12721
715.661	11495
715.778	11091
715.895	10466
716.011	11507
716.128	10220
716.245	11570
716.362	10157
716.479	9459
716.596	10157
716.713	11188
716.829	9992
716.946	9655
717.063	9422
717.180	9277
717.296	10475
717.413	9637
717.530	8994
717.646	8781
717.763	9089
717.880	9360
717.996	8252
718.113	9360
718.229	8529
718.346	8070
718.462	8487
718.579	9434
718.695	8227
718.812	8608
718.928	8502
719.045	8553
719.161	7683
719.277	8899
719.394	9535
719.510	8802
719.626	9164
719.743	11967
719.859	17452
719.975	31295
720.092	123139
720.208	220102
720.324	25934
720.440	11654
720.557	8515
720.673	9515
720.789	8413
720.905	9576
721.021	8119
721.137	7819
721.253	7213
721.369	8249
721.486	8024
721.602	7730
721.718	7951
721.834	8079
721.950	7066
722.066	7175
722.181	5727
722.297	6740
722.413	7180
722.529	7755
722.645	7300
722.761	6970
722.877	5875
722.993	7893
723.108	9011
723.224	8157
723.340	6771
723.456	7077
723.571	6348
723.687	6312
723.803	6633
723.918	7394
724.034	6103
724.150	7231
724.265	6656
724.381	6265
724.497	5974
724.612	5972
724.728	5752
724.843	5838
724.959	6359
725.074	6534
725.190	6772
725.305	6766
725.421	5662
725.536	6539
725.651	6269
725.767	6080
725.882	6314
725.997	6288
726.113	6549
726.228	6229
726.343	6006
726.459	6300
726.574	6183
726.689	5520
726.804	5750
726.920	6660
727.035	5605
727.150	5978
727.265	5705
727.380	6024
727.495	5755
727.610	5492
727.725	4540
727.841	5237
727.956	5452
728.071	5991
728.186	5007
728.301	5164
728.416	5393
728.531	6029
728.645	4817
728.760	5021
728.875	4936
728.990	5007
729.105	5518
729.220	6362
729.335	6002
729.449	5713
729.564	4825
729.679	5472
729.794	5287
729.908	6329
730.023	6217
730.138	5587
730.253	5650
730.367	5544
730.482	5622
730.596	5211
730.711	5660
730.826	9448
730.940	7760
731.055	7904
731.169	7407
731.284	7626
731.398	6825
731.513	8000
731.627	8717
731.742	12376
731.856	13801
731.970	13051
732.085	14647
732.199	19738
732.313	31512
732.428	81516
732.542	229937
732.656	110772
732.771	25363
732.885	18315
732.999	17977
733.113	19931
733.227	18934
733.342	18416
733.456	17825
733.570	17512
733.684	17019
733.798	15712
733.912	16103
734.026	16317
734.140	15429
734.254	15267
734.368	14751
734.482	16518
734.596	15617
734.710	15279
734.824	15585
734.938	15071
735.052	14901
735.166	15044
735.280	13821
735.393	14250
735.507	14721
735.621	13784
735.735	12661
735.849	13465
735.962	12560
736.076	14240
736.190	12863
736.303	13975
736.417	13207
736.531	12230
736.644	13395
736.758	13416
736.872	11424
736.985	12685
737.099	12256
737.212	12826
737.326	12049
737.439	13094
737.553	11002
737.666	12817
737.780	11656
737.893	12933
738.007	10723
738.120	12323
738.233	10241
738.347	11480
738.460	10570
738.573	13031
738.687	10348
738.800	11689
738.913	12185
739.026	11397
739.140	9858
739.253	11001
739.366	10670
739.479	10362
739.592	10042
739.705	10058
739.818	11644
739.932	9282
740.045	10754
740.158	10938
740.271	10846
740.384	9901
740.497	8774
740.610	10061
740.723	9306
740.836	10081
740.949	10269
741.062	11126
741.174	9024
741.287	9645
741.400	9384
741.513	9027
741.626	10083
741.739	9228
741.851	8567
741.964	9214
742.077	8743
742.189	9262
742.302	9652
742.415	9374
742.527	8702
742.640	9988
742.753	7842
742.865	9601
742.978	8100
743.090	7787
743.203	9131
743.316	7733
743.428	7220
743.541	9622
743.653	6411
743.766	8594
743.878	8438
743.990	7331
744.103	8658
744.215	8608
744.327	7572
744.440	10409
744.552	8073
744.664	8045
744.777	7646
744.889	8019
745.001	6804
745.113	8434
745.226	6620
745.338	7025
745.450	8140
745.562	6789
745.674	5998
745.786	8159
745.898	6545
746.010	6367
746.122	7102
746.234	7642
746.347	6998
746.459	7378
746.570	5380
746.682	8624
746.794	8377
746.906	6703
747.018	6297
747.130	8019
747.242	5415
747.354	6024
747.466	7157
747.577	6004
747.689	6611
747.801	7153
747.913	5742
748.024	6627
748.136	6209
748.248	6129
748.359	6000
748.471	7287
748.583	4769
748.694	6421
748.806	6323
748.918	5308
749.029	5858
749.141	6844
749.252	6285
749.364	6201
749.475	5229
749.587	4782
749.698	5060
749.809	6121
749.921	5574
750.032	5217
750.144	5759
750.255	5010
750.366	5288
750.478	5048
750.589	4636
750.700	4349
750.811	5305
750.923	4992
751.034	4238
751.145	6337
751.256	4704
751.367	4417
751.479	5253
751.590	4579
751.701	5341
751.812	4641
751.923	4207
752.034	6599
752.145	5481
752.256	5066
752.367	4570
752.478	4433
752.589	5332
752.700	4794
752.811	4275
752.922	4983
753.032	4066
753.143	5565
753.254	4119
753.365	5336
753.476	5331
753.586	5158
753.697	4806
753.808	5063
753.919	3676
754.029	4663
754.140	3892
754.251	4390
754.361	5160
754.472	4470
754.582	3730
754.693	5079
754.804	5439
754.914	3872
755.025	3280
755.135	4946
755.246	5322
755.356	3593
755.466	4130
755.577	4542
755.687	4678
755.798	4096
755.908	4176
756.018	4139
756.129	3804
756.239	4308
756.349	4438
756.460	4507
756.570	3993
756.680	3526
756.790	3939
756.900	4734
757.011	3556
757.121	3515
757.231	3859
757.341	4110
757.451	3245
757.561	4245
757.671	4742
757.781	3471
757.891	3696
758.001	3308
758.111	3887
758.221	4530
758.331	4680
758.441	3677
758.551	3542
758.661	4192
758.771	3973
758.880	3363
758.990	2379
759.100	3768
759.210	3982
759.320	3749
759.429	4142
759.539	4076
759.649	4261
759.758	5382
759.868	5302
759.978	4452
760.087	5282
760.197	4916
760.307	4485
760.416	4788
760.526	3490
760.635	5098
760.745	5914
760.854	5146
760.964	5000
761.073	6474
761.182	5262
761.292	5375
761.401	4175
761.511	4109
761.620	3261
761.729	3512
761.839	2698
761.948	3296
762.057	2838
762.166	2714
762.276	1914
762.385	4837
762.494	2642
762.603	4204
762.712	3415
762.822	3526
762.931	3380
763.040	2851
763.149	2108
763.258	3548
763.367	3298
763.476	2782
763.585	2010
763.694	3205
763.803	3715
763.912	4233
764.021	3436
764.130	2977
764.238	3317
764.347	3037
764.456	3588
764.565	3986
764.674	2952
764.783	3039
764.891	4140
765.000	4190
765.109	3360
765.217	2794
765.326	3540
765.435	4938
765.543	4650
765.652	4884
765.761	4433
765.869	6570
765.978	9400
766.086	17095
766.195	30765
766.303	77735
766.412	182591
766.520	145984
766.629	46420
766.737	20613
766.846	11133
766.954	7719
767.062	6713
767.171	5131
767.279	4872
767.387	4534
767.496	3829
767.604	2834
767.712	3298
767.820	3048
767.928	3394
768.037	3302
768.145	3759
768.253	3340
768.361	3746
768.469	3982
768.577	3121
768.685	3565
768.793	4042
768.901	3711
769.009	4165
769.117	4252
769.225	4209
769.333	5831
769.441	8222
769.549	13632
769.657	28413
769.765	89169
769.873	154780
769.981	57296
770.088	15962
770.196	8799
770.304	7822
770.412	6406
770.519	5387
770.627	5130
770.735	4524
770.842	5291
770.950	4849
771.058	4529
771.165	6500
771.273	6946
771.380	6722
771.488	10150
771.595	11042
771.703	9302
771.810	8350
771.918	9505
772.025	10544
772.133	13591
772.240	12134
772.348	15185
772.455	13571
772.562	11889
772.670	10552
772.777	12592
772.884	11482
772.991	10566
773.099	12546
773.206	10872
773.313	10285
773.420	11007
773.528	11769
773.635	10695
773.742	12351
773.849	10866
773.956	11302
774.063	10916
774.170	10598
774.277	11049
774.384	9818
774.491	10187
774.598	10957
774.705	10911
774.812	9902
774.919	10131
775.026	10293
775.133	10229
775.239	10441
775.346	9270
775.453	9524
775.560	8370
775.667	10245
775.773	8223
775.880	9081
775.987	9234
776.093	8514
776.200	9993
776.307	6261
776.413	9149
776.520	10348
776.627	9029
776.733	7762
776.840	6955
776.946	11404
777.053	8665
777.159	9307
777.266	7034
777.372	8794
777.478	9207
777.585	10300
777.691	6767
777.798	9051
777.904	7969
778.010	7685
778.117	9203
778.223	7367
778.329	7883
778.435	7187
778.542	8954
778.648	6599
778.754	6579
778.860	7653
778.966	7604
779.072	6351
779.178	7641
779.284	6069
779.391	7089
779.497	6664
779.603	8546
779.708	5265
779.815	6546
779.920	7886
780.026	7711
780.132	6578
780.238	6007
780.344	6210
780.450	9636
780.556	5132
780.661	5800
780.767	7124
780.873	4559
780.979	5256
781.085	6340
781.190	5609
781.296	5687
781.402	6768
781.507	6280
781.613	4671
781.719	6080
781.824	6465
781.930	6963
782.035	5862
782.141	6988
782.246	4002
782.352	5136
782.457	5630
782.563	5281
782.668	5113
782.773	5048
782.879	4593
782.984	6192
783.090	6092
783.195	6253
783.300	6900
783.405	5230
783.511	3624
783.616	5013
783.721	5152
783.826	4131
783.932	4532
784.037	5506
784.142	4603
784.247	4740
784.352	4596
784.457	3919
784.562	5285
784.667	5298
784.772	4074
784.877	3773
784.982	6183
785.087	4962
785.192	5082
785.297	4223
785.402	5266
785.507	4900
785.611	3610
785.716	3714
785.821	4189
785.926	4055
786.031	4884
786.135	4939
786.240	4873
786.345	2214
786.450	3422
786.554	4084
786.659	4196
786.763	3934
786.868	3999
786.973	5080
787.077	3351
787.182	3740
787.286	4569
787.391	6266
787.495	2779
787.600	2324
787.704	3524
787.809	4162
787.913	3593
788.017	3578
788.122	5215
788.226	4111
788.330	1800
788.435	4942
788.539	3694
788.643	3662
788.747	2111
788.852	3687
788.956	2646
789.060	4908
789.164	3547
789.268	2958
789.372	4381
789.476	3013
789.580	2083
789.684	2399
789.788	4659
789.892	3583
789.996	2748
790.100	2309
790.204	3713
790.308	4208
790.412	2431
790.516	2592
790.620	2440
790.724	3809
790.828	2789
790.931	1728
791.035	3823
791.139	3065
791.242	2162
791.346	2969
791.450	2980
791.554	1976
791.657	461
791.761	2950
791.864	3053
791.968	3564
792.072	3610
792.175	3158
792.279	1725
792.382	2364
792.486	2584
792.589	3512
792.693	2740
792.796	1367
792.899	2968
793.003	3516
793.106	1289
793.209	1908
793.313	2930
793.416	392
793.519	2974
793.623	3980
793.726	3027
793.829	1504
793.932	992
794.035	340
794.138	3399
794.242	3703
794.345	2024
794.448	2171
794.551	-13
794.654	3678
794.757	3974
794.860	2003
794.963	2770
795.066	1343
795.169	2506
795.272	2544
795.375	2414
795.477	722
795.580	2028
795.683	811
795.786	2294
795.889	1958
795.991	2365
796.094	2406
796.197	696
796.300	3707
796.402	2087
796.505	1791
796.608	424
796.710	2168
796.813	1852
796.915	2114
797.018	2387
797.120	2798
797.223	356
797.326	3767
797.428	377
797.530	1920
797.633	1227
797.735	3260
797.838	1396
797.940	3711
798.042	1826
798.145	1634
798.247	2090
798.349	978
798.452	2626
798.554	2786
798.656	1013
798.758	3571
798.860	1925
798.962	1703
799.065	731
799.167	1844
799.269	2073
799.371	3342
799.473	3286
799.575	1662
799.677	1703
799.779	2760
799.881	166
799.983	2587
800.085	1270
800.187	2180
800.289	670
800.390	2110
800.492	2725
800.594	2514
800.696	532
800.798	1966
800.899	781
801.001	1781
801.103	1555
801.205	2036
801.306	1150
801.408	761
801.509	1276
801.611	2111
801.713	2048
801.814	697
801.916	875
802.017	1302
802.119	368
802.220	1362
802.322	-364
802.423	2760
802.525	-959
802.626	1870
802.727	2275
802.829	2346
802.930	-1414
803.031	2883
803.133	1003
803.234	1587
803.335	1981
803.436	645
803.538	1987
803.639	754
803.740	1510
803.841	1283
803.942	1477
804.043	1715
804.144	902
804.245	1656
804.346	767
804.447	547
804.548	812
804.649	1738
804.750	775
804.851	1104
804.952	1709
805.053	1943
805.154	410
805.255	1966
805.355	1125
805.456	1283
805.557	106
805.658	250
805.758	1444
805.859	1867
805.960	1279
806.061	646
806.161	197
806.262	1255
806.362	249
806.463	1365
806.564	2130
806.664	2429
806.765	684
806.865	1195
806.966	322
807.066	-474
807.166	2249
807.267	1864
807.367	556
807.468	1959
807.568	232
807.668	585
807.769	1756
807.869	311
807.969	1261
808.069	1487
808.170	1365
808.270	516
808.370	872
808.470	1772
808.570	331
808.670	588
808.770	459
808.870	720
808.970	1275
809.070	1023
809.170	563
809.271	1526
809.370	632
809.470	2164
809.570	74
809.670	438
809.770	1002
809.870	2437
809.970	813
810.070	1603
810.169	2026
810.269	-657
810.369	2180
810.469	1305
810.568	1687
810.668	767
810.768	-485
810.867	1706
810.967	401
811.066	1069
811.166	263
811.265	2296
811.365	-167
811.464	829
811.564	1229
811.663	893
811.763	-774
811.862	1518
811.962	1372
812.061	621
812.160	539
812.260	1069
812.359	289
812.458	486
812.557	963
812.657	273
812.756	776
812.855	1769
812.954	308
813.053	879
813.153	1520
813.252	-206
813.351	601
813.450	1383
813.549	486
813.648	1512
813.747	-93
813.846	1118
813.945	719
814.044	1075
814.143	631
814.242	2179
814.341	191
814.439	1841
814.538	1082
814.637	1489
814.736	1204
814.835	2714
814.933	1300
815.032	2568
815.131	2791
815.229	8077
815.328	11135
815.427	7868
815.525	6578
815.624	6919
815.722	6040
815.821	7421
815.919	7122
816.018	6274
816.116	6463
816.215	5900
816.313	7855
816.412	9116
816.510	8440
816.609	9754
816.707	9639
816.805	8224
816.904	7873
817.002	8806
817.100	9149
817.198	9702
817.296	8113
817.395	8735
817.493	9465
817.591	7501
817.689	7975
817.787	8502
817.885	7834
817.983	7215
818.081	8381
818.179	7976
818.277	10922
818.375	8536
818.473	6863
818.571	6323
818.669	8070
818.767	8557
818.865	7377
818.963	5826
819.061	8157
819.158	6921
819.256	9851
819.354	8027
819.452	11443
819.549	6480
819.647	7899
819.745	5900
819.842	6908
819.940	7213
820.038	5837
820.135	6160
820.233	7311
820.330	6834
820.428	5095
820.525	8509
820.623	6321
820.720	6083
820.818	6190
820.915	6856
821.012	6096
821.110	5638
821.207	6412
821.304	5496
821.402	5929
821.499	6664
821.596	5406
821.693	6271
821.791	6838
821.888	6185
821.985	6868
822.082	3850
822.179	6227
822.276	6252
822.373	4794
822.470	5477
822.567	5879
822.664	4358
822.761	5553
822.858	5824
822.955	5681
823.052	4659
823.149	5325
823.246	6056
823.343	3636
823.440	5006
823.536	6165
823.633	5404
823.730	3986
823.827	5678
823.923	4590
824.020	5009
824.117	5975
824.213	5234
824.310	4172
824.407	4260
824.503	5236
824.600	4964
824.696	4047
824.793	6586
824.889	5580
824.986	4339
825.082	3195
825.179	4138
825.275	4695
825.371	6093
825.468	3723
825.564	1743
825.660	5617
825.757	7150
825.853	4398
825.949	2913
826.045	3528
826.142	4527
826.238	5209
826.334	5686
826.430	3917
826.526	2693
826.622	2322
826.718	5412
826.814	4641
826.910	5492
827.006	1634
827.102	1808
827.198	4405
827.294	4874
827.390	4580
827.486	3844
827.582	1467
827.678	2376
827.774	5670
827.869	2425
827.965	3361
828.061	2192
828.157	4476
828.252	4623
828.348	3408
828.444	3214
828.539	1998
828.635	3892
828.731	3856
828.826	2819
828.922	3724
829.017	4210
829.113	3556
829.208	1913
829.304	2173
829.399	5182
829.495	2976
829.590	3581
829.685	3087
829.781	3926
829.876	3534
829.971	1404
830.066	1287
830.162	2700
830.257	4407
830.352	2176
830.447	2478
830.543	2118
830.638	2267
830.733	4412
830.828	2140
830.923	3963
831.018	3800
831.113	4462
831.208	1887
831.303	1137
831.398	1593
831.493	3440
831.588	5997
831.683	1908
831.778	1229
831.873	1742
831.967	3841
832.062	4253
832.157	2341
832.252	3074
832.346	2137
832.441	3435
832.536	1952
832.631	4099
832.725	2051
832.820	2076
832.914	1988
833.009	2344
833.104	1258
833.198	1876
833.293	1740
833.387	3453
833.482	2921
833.576	2193
833.670	1964
833.765	2123
833.859	2697
833.954	3821
834.048	2919
834.142	2570
834.237	737
834.331	3033
834.425	2162
834.519	2018
834.613	1922
834.708	2160
834.802	1314
834.896	2398
834.990	1907
835.084	1913
835.178	1270
835.272	1608
835.366	3532
835.460	4537
835.554	2567
835.648	1647
835.742	561
835.836	3174
835.930	1298
836.024	2733
836.117	3272
836.211	1145
836.305	668
836.399	1960
836.493	942
836.586	2855
836.680	1209
836.774	1708
836.867	1444
836.961	940
837.055	411
837.148	1201
837.242	1306
837.335	2341
837.429	1365
837.522	1547
837.616	997
837.709	1881
837.803	660
837.896	2751
837.989	1463
838.083	942
838.176	1138
838.269	251
838.363	1689
838.456	1200
838.549	1695
838.642	1337
838.735	1179
838.829	1020
838.922	981
839.015	1419
839.108	-173
839.201	1767
839.294	1818
839.387	1896
839.480	172
839.573	1121
839.666	166
839.759	1336
839.852	-43
839.945	1710
840.038	674
840.131	84
840.223	747
840.316	2014
840.409	1525
840.502	1016
840.594	2990
840.687	190
840.780	433
840.873	45
840.965	252
841.058	1580
841.150	1415
841.243	-224
841.336	645
841.428	1143
841.521	1079
841.613	1101
841.706	630
841.798	254
841.890	1258
841.983	248
842.075	466
842.167	1025
842.260	659
842.352	2780
842.444	1589
842.537	-5
842.629	618
842.721	147
842.813	807
842.905	603
842.997	976
843.090	239
843.182	1598
843.274	160
843.366	1023
843.458	1792
843.550	1495
843.642	872
843.734	459
843.826	-121
843.918	607
844.009	1630
844.101	836
844.193	755
844.285	469
844.377	1224
844.469	946
844.560	372
844.652	-790
844.744	1780
844.835	-24
844.927	1593
845.019	729
845.110	970
845.202	789
845.293	1068
845.385	-810
845.476	940
845.568	1303
845.659	313
845.751	617
845.842	630
845.934	457
846.025	783
846.116	1017
846.208	12
846.299	-215
846.390	492
846.482	745
846.573	339
846.664	1058
846.755	238
846.846	402
846.937	-1201
847.029	-13
847.120	256
847.211	738
847.302	1037
847.393	-468
847.484	621
847.575	-1497
847.666	-479
847.757	-585
847.847	1061
847.938	858
848.029	1000
848.120	131
848.211	127
848.302	88
848.392	-377
848.483	781
848.574	416
848.664	214
848.755	739
848.846	161
848.936	-51
849.027	279
849.118	1360
849.208	-45
849.299	600
849.389	1370
849.480	3635
849.570	8324
849.661	18481
849.751	27244
849.841	8060
849.932	181
850.022	1177
850.112	316
850.203	889
850.293	320
850.383	-534
850.474	340
850.564	698
850.654	145
850.744	36
850.834	329
850.924	383
851.014	924
851.104	687
851.194	-594
851.284	-405
851.374	-160
851.464	-468
851.554	374
851.644	527
851.734	201
851.824	1330
851.914	-108
852.004	825
852.094	-332
852.183	130
852.273	189
852.363	852
852.452	729
852.542	550
852.632	-895
852.721	454
852.811	-659
852.901	806
852.990	418
853.080	276
853.169	1261
853.259	479
853.348	505
853.438	1750
853.527	1511
853.617	2133
853.706	4797
853.795	9286
853.885	19919
853.974	35526
854.063	64674
854.152	82776
854.242	29578
854.331	7542
854.420	3101
854.509	2817
854.598	1635
854.687	1317
854.777	1055
854.866	977
854.955	1264
855.044	495
855.133	617
855.222	375
855.311	-157
855.400	1223
855.488	200
855.577	144
855.666	-123
855.755	781
855.844	-492
855.933	129
856.021	1044
856.110	1409
856.199	-1194
856.288	-38
856.376	113
856.465	-239
856.554	243
856.642	1656
856.731	284
856.819	1114
856.908	343
856.996	582
857.085	50
857.173	-121
857.262	-1228
857.350	90
857.438	-73
857.527	917
857.615	336
857.703	317
857.792	-1218
857.880	310
857.968	-447
858.056	-679
858.145	381
858.233	452
858.321	-234
858.409	-3
858.497	-243
858.585	-205
858.673	313
858.761	15
858.849	-239
858.937	-84
859.025	86
859.113	660
859.201	170
859.289	1016
859.377	-88
859.465	161
859.552	-358
859.640	570
859.728	427
859.816	44
859.903	52
859.991	-561
860.079	-139
860.166	-259
860.254	-315
860.342	-274
860.429	-313
860.517	395
860.604	82
860.692	70
860.779	-222
860.867	407
860.954	15
861.042	1049
861.129	1506
861.216	1302
861.304	1060
861.391	753
861.478	-36
861.565	1034
861.653	642
861.740	484
861.827	-16
861.914	700
862.001	71
862.089	353
862.176	792
862.263	-65
862.350	-4
862.437	554
862.524	304
862.611	147
862.698	1097
862.785	1255
862.871	835
862.958	863
863.045	1103
863.132	549
863.219	473
863.306	-165
863.392	274
863.479	1608
863.566	519
863.652	904
863.739	-118
863.826	894
863.912	1177
863.999	221
864.086	818
864.172	746
864.259	751
864.345	1462
864.432	779
864.518	1125
864.604	867
864.691	797
864.777	1500
864.863	2080
864.950	4022
865.036	5496
865.122	10058
865.209	11282
865.295	9289
865.381	8585
865.467	7696
865.553	8518
865.639	8612
865.726	10965
865.812	16335
865.898	25635
865.984	34546
866.070	58141
866.156	54304
866.242	19770
866.328	9635
866.414	8188
866.499	7561
866.585	8344
866.671	6009
866.757	7307
866.843	7031
866.928	7408
867.014	5778
867.100	7600
867.186	6845
867.271	7027
867.357	6764
867.442	6231
867.528	6643
867.614	6895
867.699	6341
867.785	6737
867.870	5601
867.956	5964
868.041	6105
868.127	6246
868.212	4764
868.297	5856
868.383	5821
868.468	5935
868.553	6627
868.639	5596
868.724	5443
868.809	6383
868.894	4911
868.979	5363
869.065	5241
869.150	5055
869.235	5394
869.320	5762
869.405	3874
869.490	6031
869.575	5522
869.660	4784
869.745	6198
869.830	7383
869.915	4510
870.000	5229
870.085	4274
870.169	5923
870.254	6491
870.339	3385
870.424	3981
870.509	5207
870.593	6158
870.678	6400
870.763	4807
870.847	4054
870.932	5122
871.016	5368
871.101	3075
871.186	5425
871.270	5881
871.355	3651
871.439	4148
871.523	5138
871.608	3333
871.692	3769
871.777	4990
871.861	5129
871.945	3537
872.030	4799
872.114	4616
872.198	4227
872.282	3596
872.367	4226
872.451	4633
872.535	3641
872.619	4306
872.703	4398
872.787	4644
872.871	4195
872.955	2957
873.039	2085
873.123	4517
873.207	4820
873.291	2401
873.375	3163
873.459	4648
873.543	3455
873.627	3094
873.711	3114
873.794	4480
873.878	3133
873.962	1813
874.045	3030
874.129	4187
874.137	4140
874.213	3677
874.245	3427
874.296	3013
874.352	2439
874.380	2166
874.460	3106
874.464	3145
874.547	3049
874.568	3361
874.631	4278
874.676	4128
874.714	4019
874.784	4451
874.798	4531
874.881	3526
874.892	3343
874.965	2128
874.999	2903
875.048	3959
875.107	3482
875.131	3295
875.215	2126
875.215	2126
875.298	2139
875.323	2327
875.381	2848
875.430	3821
875.465	4508
875.538	3439
875.548	3288
875.631	2838
875.646	2653
875.714	1664
875.753	1841
875.798	2107
875.861	2948
875.881	3205
875.964	2314
875.968	2297
876.047	2048
876.076	2340
876.130	2921
876.183	3014
876.213	3025
876.291	3942
876.296	4008
876.379	2742
876.398	2457
876.462	1335
876.506	1376
876.545	1534
876.613	1424
876.628	1407
876.711	2578
876.721	2640
876.794	3038
876.828	2905
876.877	2716
876.935	1604
876.960	1127
877.043	1698
877.043	1698
877.125	1765
877.150	2198
877.208	3192
877.258	2273
877.291	1688
877.365	2157
877.374	2199
877.456	1674
877.472	1599
877.539	1416
877.579	2242
877.622	3029
877.687	2191
877.704	1952
877.787	1911
877.794	1949
877.869	2537
877.901	2261
877.952	1711
878.008	1282
878.034	1090
878.115	1005
878.117	1005
878.199	1561
878.222	1804
878.282	2369
878.329	2724
878.364	2951
878.437	2329
878.447	2235
878.529	854
878.544	882
878.611	1126
878.651	1390
878.694	1719
878.758	1970
878.776	1991
878.858	1258
878.865	1241
878.941	1089
878.972	904
879.023	625
879.078	1180
879.105	1428
879.185	2213
879.187	2229
879.269	1293
879.292	1523
879.351	2037
879.399	1236
879.433	707
879.506	1932
879.516	2049
879.598	1185
879.613	1128
879.680	1326
879.720	1585
879.762	1669
879.827	1530
879.844	1526
879.926	1518
879.933	1539
880.007	1643
880.040	1367
880.089	920
880.147	1743
880.171	2081
880.253	2885
880.254	2890
880.335	3148
880.360	3413
880.417	4561
880.467	6941
880.499	8206
880.574	7910
880.580	7760
880.662	3442
880.680	2757
880.744	1061
880.787	1024
880.825	1083
880.893	1724
880.907	1782
880.989	765
881.000	760
881.070	1430
881.106	1730
881.152	1784
881.213	1178
881.233	951
881.315	1362
881.319	1337
881.396	1257
881.426	1326
881.478	1365
881.532	1875
881.559	2121
881.639	1659
881.641	1642
881.722	938
881.745	1039
881.803	1367
881.852	1173
881.885	1079
881.958	1179
881.966	1178
882.047	1130
882.064	1121
882.129	1214
882.171	1204
882.210	1003
882.277	582
882.291	575
882.372	1639
882.383	1689
882.454	1837
882.489	1523
882.535	1210
882.596	1866
882.616	1978
882.697	1281
882.702	1245
882.778	838
882.808	903
882.859	1248
882.914	1491
882.940	1392
883.020	1057
883.021	1058
883.102	1546
883.127	1678
883.183	1771
883.233	1494
883.264	1111
883.339	501
883.345	501
883.426	483
883.445	650
883.507	1311
883.551	1502
883.587	1462
883.657	1522
883.668	1591
883.749	1958
883.763	1888
883.830	606
883.869	300
883.910	497
883.975	981
883.991	1128
884.072	1352
884.081	1382
884.152	1243
884.187	1226
884.233	1249
884.292	1033
884.314	829
884.394	-56
884.398	-81
884.475	-182
884.504	-257
884.555	-71
884.610	467
884.636	630
884.716	783
884.716	786
884.797	1644
884.821	1615
884.877	1294
884.927	1160
884.958	925
885.033	625
885.038	626
885.118	546
885.139	554
885.199	377
885.244	150
885.279	273
885.350	948
885.359	1007
885.439	1112
885.456	1046
885.520	409
885.561	312
885.600	525
885.667	817
885.680	830
885.760	773
885.773	754
885.840	525
885.878	508
885.920	692
885.984	1067
886.000	1122
886.080	1178
886.089	1185
886.160	1034
886.195	954
886.240	1107
886.300	1288
886.320	1296
886.400	1199
886.406	1196
886.480	541
886.511	281
886.560	342
886.616	446
886.640	366
886.720	60
886.722	58
886.800	498
886.827	591
886.879	782
886.932	1043
886.959	1235
887.038	1645
887.039	1638
887.119	900
887.143	703
887.198	1029
887.248	1345
887.278	1080
887.354	161
887.358	161
887.437	404
887.459	419
887.517	998
887.564	1485
887.596	1190
887.669	641
887.676	651
887.755	739
887.774	729
887.835	575
887.880	535
887.914	696
887.985	1049
887.994	1015
888.073	681
888.090	570
888.153	1264
888.195	1790
888.232	1323
888.300	516
888.311	501
888.391	412
888.405	377
888.470	373
888.510	428
888.549	668
888.615	1084
888.628	1115
888.708	1256
888.720	1264
888.787	648
888.825	326
888.866	445
888.930	668
888.945	637
889.024	487
889.035	452
889.103	211
889.140	135
889.182	478
889.245	976
889.261	878
889.340	419
889.349	365
889.419	567
889.454	688
889.498	343
889.559	-130
889.577	60
889.656	936
889.664	1026
889.735	1044
889.768	1061
889.814	1118
889.873	1192
889.978	1411
890.083	796
890.187	577
890.292	809
890.397	889
890.501	896
890.606	583
890.710	780
890.815	1481
890.919	861
891.024	1066
891.128	1053
891.233	987
891.337	852
891.442	789
891.546	197
891.650	474
891.755	946
891.859	2051
891.963	723
892.068	1015
892.172	1497
892.276	-60
892.380	788
892.484	836
892.589	690
892.693	844
892.797	713
892.901	539
893.005	-555
893.109	696
893.213	958
893.317	1373
893.421	818
893.525	65
893.629	214
893.733	679
893.837	790
893.941	463
894.045	2017
894.148	-477
894.252	279
894.356	994
894.460	1754
894.564	982
894.667	653
894.771	348
894.875	620
894.978	235
895.082	107
895.186	1222
895.289	621
895.393	1146
895.496	735
895.600	169
895.703	356
895.807	810
895.910	1089
896.014	828
896.117	471
896.221	500
896.324	918
896.427	614
896.531	80
896.634	536
896.737	537
896.840	298
896.944	283
897.047	579
897.150	426
897.253	913
897.356	1263
897.460	581
897.563	872
897.666	452
897.769	945
897.872	579
897.975	888
898.078	384
898.181	158
898.284	179
898.387	457
898.490	498
898.593	384
898.695	-56
898.798	614
898.901	457
899.004	517
899.107	11
899.209	53
899.312	755
899.415	598
899.518	245
899.620	294
899.723	-194
899.826	191
899.928	430
900.031	764
900.133	838
900.236	48
900.338	294
900.441	1323
900.543	704
900.646	-209
900.748	425
900.851	1393
900.953	562
901.055	346
901.158	1326
901.260	-81
901.362	892
901.465	282
901.567	103
901.669	1757
901.771	587
901.873	377
901.976	305
902.078	356
902.180	527
902.282	330
902.384	470
902.486	354
902.588	147
902.690	681
902.792	-493
902.894	479
902.996	753
903.098	699
903.200	48
903.302	293
903.404	-528
903.505	253
903.607	425
903.709	190
903.811	1403
903.913	53
904.014	636
904.116	488
904.218	741
904.319	283
904.421	801
904.523	53
904.624	791
904.726	-497
904.827	-252
904.929	267
905.030	508
905.132	678
905.233	909
905.335	-64
905.436	386
905.537	-122
905.639	70
905.740	823
905.841	-215
905.943	450
906.044	389
906.145	548
906.247	-23
906.348	181
906.449	229
906.550	865
906.651	48
906.752	662
906.854	243
906.955	820
907.056	-440
907.157	520
907.258	574
907.359	364
907.460	-601
907.561	694
907.662	239
907.762	289
907.863	-157
907.964	-185
908.065	296
908.166	-358
908.267	245
908.367	-179
908.468	352
908.569	704
908.670	540
908.770	516
908.871	-98
908.971	297
909.072	107
909.173	-578
909.273	-407
909.374	311
909.474	297
909.575	0
909.675	1050
909.776	286
909.876	714
909.977	294
910.077	682
910.177	52
910.278	828
910.378	-103
910.478	451
910.579	295
910.679	-129
910.779	93
910.879	940
910.980	8
911.080	29
911.180	-9
911.280	918
911.380	-72
911.480	-59
911.580	-636
911.680	1190
911.780	269
911.880	250
911.980	-399
912.080	-385
912.180	474
912.280	537
912.380	1076
912.480	555
912.580	-81
912.679	300
912.779	103
912.879	1167
912.979	-28
913.078	-102
913.178	413
913.278	367
913.377	-357
913.477	467
913.577	301
913.676	991
913.776	1164
913.875	65
913.975	354
914.074	21
914.174	73
914.273	119
914.373	1034
914.472	639
914.572	-73
914.671	324
914.770	204
914.870	-29
914.969	274
915.068	147
915.167	1108
915.267	16
915.366	-152
915.465	-586
915.564	-29
915.663	367
915.763	294
915.862	1217
915.961	457
916.060	653
916.159	675
916.258	-750
916.357	574
916.456	278
916.555	235
916.654	239
916.752	958
916.851	-245
916.950	243
917.049	529
917.148	364
917.247	924
917.345	1105
917.444	325
917.543	1105
917.642	517
917.740	-153
917.839	182
917.937	192
918.036	493
918.135	-320
918.233	340
918.332	272
918.430	-2
918.529	-83
918.627	770
918.726	333
918.824	572
918.923	24
919.021	131
919.119	-598
919.218	4
919.316	785
919.414	596
919.512	24
919.611	510
919.709	417
919.807	67
919.905	600
920.003	356
920.102	509
920.200	495
920.298	-350
920.396	-63
920.494	399
920.592	-395
920.690	831
920.788	817
920.886	1131
920.984	-50
921.082	436
921.180	1375
921.277	1138
921.375	1001
921.473	806
921.571	613
921.669	1026
921.766	568
921.864	527
921.962	1088
922.060	1188
922.157	1388
922.255	576
922.352	1034
922.450	2132
922.548	519
922.645	1452
922.743	1100
922.840	2820
922.938	2923
923.035	2750
923.133	2784
923.230	3345
923.327	3907
923.425	3228
923.522	3332
923.619	3345
923.717	2534
923.814	2701
923.911	2533
924.008	3540
924.106	2157
924.203	1400
924.300	2146
924.397	2366
924.494	3111
924.591	2342
924.688	2982
924.786	2070
924.883	2421
924.979	2649
925.077	2306
925.173	2972
925.270	2939
925.367	2802
925.464	2642
925.561	1720
925.658	2660
925.755	2440
925.852	2601
925.948	2499
926.045	3501
926.142	2240
926.239	2355
926.335	1901
926.432	2637
926.529	2307
926.625	2238
926.722	1738
926.818	2579
926.915	3363
927.011	2080
927.108	1849
927.204	1967
927.301	1025
927.397	2253
927.494	2394
927.590	2063
927.687	2021
927.783	2795
927.879	1590
927.976	2710
928.072	1731
928.168	1714
928.264	2107
928.361	1541
928.457	2254
928.553	1492
928.649	1328
928.745	2584
928.841	1335
928.937	2133
929.033	2037
929.129	1049
929.225	1900
929.321	1329
929.417	1561
929.513	2899
929.609	1595
929.705	1975
929.801	2684
929.897	1338
929.993	1857
930.089	2518
930.184	1584
930.280	1793
930.376	2297
930.471	1281
930.567	1926
930.663	1244
930.758	735
930.854	1409
930.950	2183
931.045	1160
931.141	1811
931.236	1813
931.332	1787
931.427	1405
931.523	2476
931.618	1482
931.714	1334
931.809	1543
931.905	2889
932.000	2026
932.095	1096
932.191	1983
932.286	1366
932.381	1579
932.476	211
932.572	2164
932.667	2053
932.762	1760
932.857	1508
932.952	2212
933.047	1357
933.142	788
933.237	1808
933.332	2303
933.427	2301
933.522	1567
933.617	1419
933.712	802
933.807	1803
933.902	1812
933.997	2733
934.092	1269
934.187	1257
934.282	1477
934.376	1392
934.471	1306
934.566	716
934.661	1707
934.755	1606
934.850	1586
934.945	2242
935.039	788
935.134	187
935.228	1191
935.323	1266
935.417	1209
935.512	1321
935.606	982
935.701	1962
935.795	1344
935.890	990
935.984	1254
936.079	665
936.173	877
936.267	1089
936.362	553
936.456	717
936.550	1704
936.644	1283
936.738	1524
936.833	1684
936.927	793
937.021	1287
937.115	903
937.209	831
937.303	2392
937.397	1150
937.491	1765
937.585	2122
937.679	1591
937.773	1139
937.867	584
937.961	1358
938.055	1441
938.149	1331
938.243	676
938.337	901
938.430	983
938.524	1688
938.618	1048
938.712	830
938.805	1324
938.899	1838
938.993	1673
939.086	1019
939.180	470
939.274	1402
939.367	658
939.461	1581
939.554	869
939.648	474
939.741	724
939.835	1452
939.928	1411
940.022	1299
940.115	1369
940.208	1625
940.302	903
940.395	1562
940.488	421
940.582	1440
940.675	-216
940.768	977
940.861	1343
940.954	774
941.048	982
941.141	775
941.234	-143
941.327	649
941.420	1736
941.513	1055
941.606	604
941.699	1610
941.792	1078
941.885	1123
941.978	276
942.071	1227
942.164	858
942.257	930
942.349	1469
942.442	1529
942.535	451
942.628	1209
942.721	1149
942.813	400
942.906	514
942.999	542
943.091	818
943.184	1060
943.277	602
943.369	919
943.462	302
943.554	552
943.647	524
943.739	1582
943.832	912
943.924	113
944.017	917
944.109	-51
944.201	620
944.294	490
944.386	763
944.478	943
944.571	140
944.663	466
944.755	1553
944.847	801
944.940	462
945.032	-81
945.124	435
945.216	1544
945.308	979
945.400	213
945.492	1047
945.584	740
945.676	300
945.768	732
945.860	1241
945.952	655
946.044	770
946.136	257
946.228	580
946.320	-685
946.412	71
946.503	1359
946.595	935
946.687	191
946.779	-149
946.870	383
946.962	795
947.054	736
947.145	501
947.237	126
947.329	911
947.420	-28
947.512	1180
947.603	901
947.695	728
947.786	407
947.878	64
947.969	629
948.061	-1
948.152	-130
948.243	156
948.335	11
948.426	-115
948.517	-431
948.609	597
948.700	204
948.791	763
948.882	838
948.973	-531
949.065	9
949.156	217
949.247	421
949.338	612
949.429	247
949.520	229
949.611	-844
949.702	1293
949.793	539
949.884	450
949.975	231
950.066	-247
950.157	-162
950.247	280
950.338	212
950.429	-228
950.520	755
950.611	-373
950.701	273
950.792	537
950.883	-347
950.973	30
951.064	-128
951.155	100
951.245	316
951.336	538
951.427	-202
951.517	2109
951.608	-18
951.698	1177
951.788	492
951.879	-147
951.969	148
952.060	197
952.150	-182
952.240	330
952.331	-1715
952.421	1855
952.511	1
952.602	378
952.692	363
952.782	323
952.872	54
952.962	-14
953.052	527
953.143	-40
953.233	222
953.323	205
953.413	554
953.503	482
953.593	300
953.683	272
953.773	-37
953.863	600
953.953	-1059
954.042	172
954.132	15
954.222	503
954.312	878
954.402	714
954.492	-217
954.581	160
954.671	-346
954.761	-619
954.850	428
954.940	-28
955.030	68
955.119	87
955.209	-72
955.298	-549
955.388	66
955.477	1427
955.567	-381
955.656	909
955.746	-153
955.835	-163
955.925	-409
956.014	-52
956.103	891
956.193	-27
956.282	816
956.371	1020
956.461	278
956.550	-35
956.639	482
956.728	-935
956.817	374
956.906	491
956.995	663
957.085	-138
957.174	640
957.263	24
957.352	-3
957.441	152
957.530	-406
957.619	170
957.708	-644
957.796	-217
957.885	-90
957.974	-436
958.063	554
958.152	-711
958.241	-610
958.329	-550
958.418	-293
958.507	-96
958.596	1006
958.684	-538
958.773	685
958.861	-154
958.950	290
959.039	3
959.127	-177
959.216	1226
959.304	229
959.393	-791
959.481	514
959.570	-402
959.658	420
959.746	-242
959.835	-166
959.923	-223
960.011	-311
960.100	810
960.188	760
960.276	-613
960.365	-186
960.453	335
960.541	-1258
960.629	350
960.717	-227
960.805	-543
960.893	122
960.981	-609
961.069	1207
961.158	-243
961.245	818
961.333	493
961.421	-946
961.509	298
961.597	-339
961.685	-481
961.773	-604
961.861	-28
961.949	889
962.036	-605
962.124	227
962.212	-539
962.299	-464
962.387	-394
962.475	-287
962.562	-1171
962.650	206
962.738	454
962.825	-1018
962.913	-333
963.000	-226
963.088	-310
963.175	155
963.263	-473
963.350	43
963.438	-577
963.525	-696
963.612	420
963.700	-280
963.787	458
963.874	-878
963.962	-190
964.049	437
964.136	-181
964.223	-479
964.310	286
964.398	-524
964.485	-410
964.572	-546
964.659	264
964.746	-895
964.833	128
964.920	-516
965.007	-115
965.094	222
965.181	-870
965.268	347
965.355	-901
965.441	-821
965.528	-468
965.615	441
965.702	223
965.789	-994
965.875	-693
965.962	55
966.049	-528
966.136	545
966.222	-432
966.309	97
966.395	-516
966.482	-484
966.569	-391
966.655	7
966.742	-1207
966.828	-256
966.915	-249
967.001	-410
967.087	-959
967.174	-96
967.260	-150
967.347	-479
967.433	-418
967.519	486
967.605	-1667
967.692	-710
967.778	351
967.864	-300
967.950	803
968.036	-694
968.123	-396
968.209	-543
968.295	-208
968.381	940
968.467	47
968.553	-1533
968.639	788
968.725	-1275
968.811	-201
968.897	-93
968.983	-384
969.069	-509
969.154	517
969.240	306
969.326	-873
969.412	-880
969.497	-327
969.583	-1266
969.669	906
969.755	285
969.840	-934
969.926	235
970.012	-43
970.097	510
970.183	53
970.268	-266
970.354	43
970.439	-923
970.525	805
970.610	-1560
970.696	755
970.781	161
970.866	-1598
970.952	696
971.037	-753
971.122	-442
971.208	17
971.293	-491
971.378	-884
971.463	421
971.549	85
971.634	90
971.719	-733
971.804	-739
971.889	689
971.974	-296
972.059	-475
972.144	-273
972.229	-794
972.314	-518
972.399	-246
972.484	-485
972.569	507
972.654	-1212
972.739	181
972.824	-1177
972.908	-663
972.993	-848
973.078	-454
973.163	-590
973.247	-245
973.332	-2412
973.417	669
973.501	-1558
973.586	-191
973.671	-326
973.755	-332
973.840	17
973.924	147
974.009	516
974.093	-989
974.178	869
974.262	-4
974.346	-947
974.431	-710
974.515	-312
974.600	391
974.684	-200
974.768	-666
974.852	-341
974.937	-1526
975.021	811
975.105	-342
975.189	-806
975.273	118
975.358	-1101
975.442	-852
975.526	1169
975.610	-2309
975.694	-922
975.778	-272
975.862	-400
975.946	-2463
976.030	1190
976.114	-693
976.198	506
976.281	-1000
976.365	64
976.449	-925
976.533	-312
976.617	-993
976.700	-320
976.784	-753
976.868	-985
976.951	-452
977.035	-312
977.119	-382
977.202	365
977.286	-123
977.369	-527
977.453	1065
977.536	-402
977.620	-694
977.703	-199
977.787	14
977.870	-64
977.953	676
978.037	-1521
978.120	491
978.203	-1115
978.287	-804
978.370	-234
978.453	-904
978.536	-355
978.620	68
978.703	-980
978.786	-1013
978.869	-1123
978.952	-712
979.035	1273
979.118	254
979.201	-1341
979.284	343
979.367	-1209
979.450	774
979.533	-252
979.616	-613
979.699	14
979.782	-520
979.865	-863
979.948	-46
980.030	-1077
980.113	-1356
980.196	-1619
980.279	-204
980.361	-839
980.444	-171
980.526	582
980.609	27
980.692	73
980.774	379
980.857	-1032
980.939	308
981.022	-127
981.104	-1111
981.187	-759
981.269	704
981.352	-533
981.434	-1007
981.516	-414
981.599	409
981.681	-230
981.763	147
981.846	-627
981.928	-420
982.010	-185
982.092	-922
982.174	443
982.256	-617
982.339	-386
982.421	-243
982.503	-502
982.585	-262
982.667	65
982.749	-588
982.831	-654
982.913	-1038
982.995	737
983.077	-678
983.158	68
983.240	-1539
983.322	-4
983.404	685
983.486	249
983.568	-26
983.649	-1024
983.731	47
983.813	-994
983.894	98
983.976	-795
984.058	-87
984.139	1168
984.221	-1875
984.302	453
984.384	351
984.465	48
984.547	-259
984.628	-488
984.710	684
984.791	-685
984.872	-67
984.954	-654
985.035	425
985.116	-856
985.198	-806
985.279	888
985.360	-453
985.441	-203
985.522	773
985.604	-928
985.685	-1665
985.766	672
985.847	1530
985.928	-1234
986.009	-53
986.090	-178
986.171	-18
986.252	-1375
986.333	-57
986.414	-345
986.495	281
986.576	-114
986.656	-408
986.737	-82
986.818	-733
986.899	103
986.980	-163
987.060	915
987.141	-254
987.222	-171
987.302	-644
987.383	321
987.464	365
987.544	477
987.625	11
987.705	727
987.786	284
987.866	-66
987.947	-511
988.027	504
988.108	-518
988.188	237
988.268	609
988.349	-37
988.429	-314
988.509	5
988.589	574
988.670	-1251
988.750	1810
988.830	-126
988.910	-58
988.990	372
989.070	-156
989.151	-115
989.231	-937
989.311	-419
989.391	-31
989.471	96
989.551	-302
989.631	-849
989.711	555
989.791	-644
989.870	-337
989.950	874
990.030	-634
990.110	1183
990.190	-696
990.269	334
990.349	-410
990.429	423
990.509	-26
990.588	-804
990.668	258
990.747	-44
990.827	-381
990.907	-57
990.986	-388
991.066	-71
991.145	-1121
991.225	59
991.304	-468
991.383	-394
991.463	-760
991.542	-8
991.622	-635
991.701	-687
991.780	-217
991.859	-456
991.939	-845
992.018	-680
992.097	-732
992.176	-113
992.256	-255
992.335	-592
992.414	438
992.493	-372
992.572	-866
992.651	135
992.730	-269
992.809	-674
992.888	-1627
992.967	-211
993.046	702
993.125	-1181
993.203	-144
993.282	278
993.361	-342
993.440	-129
993.519	-814
993.597	227
993.676	-519
993.755	-457
993.834	-337
993.912	-1290
993.991	754
994.069	-950
994.148	-470
994.226	-305
994.305	253
994.384	-1097
994.462	942
994.540	-612
994.619	-745
994.697	422
994.776	-477
994.854	-348
994.932	-1070
995.011	268
995.089	-178
995.167	-411
995.245	-563
995.324	-1731
995.402	175
995.480	-479
995.558	407
995.636	-1269
995.714	-924
995.792	593
995.870	-1073
995.948	-665
996.026	58
996.104	-1641
996.182	26
996.260	-1273
996.338	-227
996.416	-1914
996.494	-1330
996.572	647
996.649	-511
996.727	-645
996.805	-1093
996.883	-1005
996.960	-598
997.038	-111
997.116	-259
997.193	-844
997.271	-37
997.348	-396
997.426	-310
997.504	-862
997.581	-241
997.658	9
997.736	-1138
997.813	-670
997.891	-32
997.968	-1201
998.046	-1019
998.123	-528
998.200	-612
998.277	-850
998.355	-44
998.432	-2045
998.509	-845
998.586	-462
998.663	-664
998.741	-568
998.818	-963
998.895	-696
998.972	-771
999.049	-583
999.126	-449
999.203	589
999.280	-640
999.357	-1313
999.434	-923
999.511	-623
999.587	226
999.664	-1089
999.741	-1534
999.818	58
999.895	-1850
999.971	-1151
1000.048	-1143
1000.125	-135
1000.202	-1232
1000.278	-608
1000.355	-538
1000.431	-581
1000.508	-1064
1000.584	-918
1000.661	128
1000.738	-1418
1000.814	-692
1000.890	-424
1000.967	-704
1001.043	-394
1001.120	-1741
1001.196	-621
1001.272	-1862
1001.349	-134
1001.425	-118
1001.501	-1034
1001.577	-1196
1001.654	-749
1001.730	-204
1001.806	-1333
1001.882	-1126
1001.958	-339
1002.034	-570
1002.110	-197
1002.186	-667
1002.262	-508
1002.338	-1626
1002.414	-440
1002.490	169
1002.566	-1406
1002.642	-1161
1002.718	-690
1002.794	-620
1002.870	-443
1002.945	-743
1003.021	-811
1003.097	-836
1003.173	-28
1003.248	-1251
1003.324	-457
1003.400	-1111
1003.475	-1409
1003.551	-1094
1003.626	-399
1003.702	-724
1003.777	-391
1003.853	-1407
1003.928	-856
1004.004	-450
1004.079	-523
1004.155	-64
1004.230	-1770
1004.305	628
1004.381	-565
1004.456	-797
1004.531	-840
1004.607	-1074
1004.682	-899
1004.757	-460
1004.832	-493
1004.907	-903
1004.982	-599
1005.057	-1000
1005.133	-250
1005.208	-830
1005.283	-1512
1005.358	-912
1005.433	-921
1005.508	-229
1005.583	-1444
1005.657	-1382
1005.732	-1088
1005.807	-1011
1005.882	-556
1005.957	-872
1006.032	-935
1006.106	-576
1006.181	-1282
1006.256	-188
1006.331	-1698
1006.405	-1271
1006.480	-205
1006.554	-577
1006.629	-477
1006.704	-1556
1006.778	-537
1006.853	-706
1006.927	-1350
1007.002	-1041
1007.076	49
1007.150	-1392
1007.225	-1530
1007.299	-236
1007.373	-1227
1007.448	-594
1007.522	-514
1007.596	-1283
1007.671	-1022
1007.745	-577
1007.819	-1620
1007.893	-1032
1007.967	-128
1008.041	-2004
1008.115	-163
1008.190	-1846
1008.264	-472
1008.338	-1964
1008.412	-1000
1008.486	-1460
1008.560	-802
1008.633	-1247
1008.707	-987
1008.781	-401
1008.855	-603
1008.929	-492
1009.003	-647
1009.076	-751
1009.150	-706
1009.224	-1209
1009.298	34
1009.371	-1556
1009.445	-587
1009.519	-1363
1009.592	-1843
1009.666	-1063
1009.739	-1121
1009.813	-1535
1009.886	54
1009.960	-1938
1010.033	-696
1010.107	223
1010.180	-1712
1010.253	-1516
1010.327	-1157
1010.400	-714
1010.473	-1398
1010.547	42
1010.620	-572
1010.693	-91
1010.766	-1406
1010.840	-719
1010.913	-391
1010.986	-975
1011.059	42
1011.132	-880
1011.205	-875
1011.278	-551
1011.351	-574
1011.424	-769
1011.497	-1853
1011.570	-1540
1011.643	-1269
1011.716	-1514
1011.789	-1636
1011.862	-771
1011.934	-940
1012.007	-2177
1012.080	-374
1012.153	-288
1012.225	-204
1012.298	-692
1012.371	-1462
1012.443	-766
1012.516	-1700
1012.588	-446
1012.661	-1377
1012.733	-646
1012.806	26
1012.879	-1334
1012.951	-1986
1013.023	-1107
1013.096	-686
1013.168	-1349
1013.241	-410
1013.313	-284
1013.385	-1712
1013.458	-1263
1013.530	116
1013.602	-1450
1013.674	-829
1013.746	-2089
1013.819	-1685
1013.891	-785
1013.963	-872
1014.035	-343
1014.107	-968
1014.179	-681
1014.251	-1345
1014.323	-1491
1014.395	-362
1014.467	-1054
1014.539	-1682
1014.611	-1146
1014.683	-1492
1014.754	-660
1014.826	-1501
1014.898	-1265
1014.970	-805
1015.042	568
1015.113	-662
1015.185	-581
1015.257	-1864
1015.328	-420
1015.400	-1343
1015.471	-693
1015.543	-1575
1015.615	-595
1015.686	-779
1015.757	-1402
1015.829	-832
1015.901	-896
1015.972	-1213
1016.043	-1212
1016.115	-1041
1016.186	215
1016.257	-1472
1016.328	-425
1016.400	-637
1016.471	-946
1016.542	-1605
1016.613	-1122
1016.685	-369
1016.756	-585
1016.827	-1200
1016.898	-1189
1016.969	-458
1017.040	-1126
1017.111	-1167
1017.182	-1239
1017.253	-334
1017.324	-764
1017.395	-95
1017.466	-1374
1017.537	-899
1017.608	-1149
1017.678	-305
1017.749	-1181
1017.820	-504
1017.891	-1227
1017.961	-1724
1018.032	-907
1018.103	-880
1018.173	-1582
1018.244	-93
1018.315	-1769
1018.385	-654
1018.456	-895
1018.526	-1333
1018.597	-981
1018.667	-392
1018.738	-1764
1018.808	-692
1018.878	-1362
1018.949	-1106
1019.019	-1279
1019.089	-855
1019.160	-747
1019.230	-1089
1019.300	-887
1019.371	-1361
1019.441	-843
1019.511	-1371
1019.581	-870
1019.651	-941
1019.721	-1319
1019.791	-1122
1019.861	-1020
1019.931	-1112
1020.001	-899
1020.071	-990
1020.141	-732
1020.211	-1229
1020.281	-2254
1020.351	-1469
1020.421	-527
1020.491	-750
1020.560	-1520
1020.630	-525
1020.700	-1848
1020.770	-1680
1020.839	-915
1020.909	-1146
1020.979	-1475
1021.048	-1352
1021.118	-974
1021.187	-764
1021.257	-1179
1021.326	-962
1021.396	-634
1021.465	-1313
1021.535	-1150
1021.604	-1650
1021.674	-1241
1021.743	-2000
1021.812	-1647
1021.882	-1245
1021.951	-1573
1022.020	-910
1022.089	-1262
1022.159	-1296
1022.228	-147
1022.297	-1242
1022.366	-1489
1022.435	-1370
1022.504	-1326
1022.573	-1543
1022.642	-1011
1022.711	-1793
1022.781	-930
1022.849	-1018
1022.918	-1431
1022.987	-1858
1023.056	-873
1023.125	-938
1023.194	-107
1023.263	-864
1023.331	-1006
1023.400	-1404
1023.469	-1550
1023.538	-603
1023.606	-2198
1023.675	-755
1023.744	-1324
1023.812	-1628
1023.881	-824
1023.949	-1573
1024.018	-2173
1024.086	-1812
1024.155	-1286
1024.223	-2083
1024.292	-1306
1024.360	-713
1024.429	-1551
1024.497	-1578
1024.565	-578
1024.634	-1135
1024.702	-906
1024.770	-1799
1024.838	-1717
1024.907	-1263
1024.975	-1711
1025.043	-1971
1025.111	-1651
1025.179	-1589
1025.247	-1888
1025.315	-940
1025.383	-1614
1025.451	-1587
1025.519	-2158
1025.587	-1738
1025.655	-1150
1025.723	-1030
1025.791	-759
1025.859	-791
1025.927	-425
1025.995	-1190
1026.062	-1676
1026.130	-1092
1026.198	-1603
1026.266	-1005
1026.333	-1601
1026.401	-1119
1026.469	-2003
1026.536	-1090
1026.604	-1345
1026.671	-1984
1026.739	-2208
1026.806	-1259
1026.874	-1392
1026.941	-1091
1027.009	-1489
1027.076	-1028
1027.144	-820
1027.211	-1788
1027.278	-1960
1027.345	-885
1027.413	-1582
1027.480	-1383
1027.547	-1542
1027.614	-765
1027.682	-356
1027.749	-2029
1027.816	-1046
1027.883	-1268
1027.950	-459
1028.017	-2013
1028.084	-797
1028.151	-1457
1028.218	-1673
1028.285	-778
1028.352	-1251
1028.419	-1123
1028.486	-1475
1028.553	-884
1028.619	-1448
1028.686	-1123
1028.753	-2035
1028.820	-2037
1028.886	-1517
1028.953	-917
1029.020	-1568
1029.086	-663
1029.153	-1696
1029.220	-1489
1029.286	-1706
1029.353	-1384
1029.419	-1357
1029.486	-1555
1029.552	-1762
1029.619	-578
1029.685	-1289
1029.751	-1329
1029.818	-843
1029.884	-1654
1029.951	-1234
1030.017	-1097
1030.083	-2300
1030.149	-874
1030.216	-1318
1030.282	-383
1030.348	-1439
1030.414	-1614
1030.480	-1086
1030.546	-1116
1030.612	-2120
1030.678	-2025
1030.744	-1440
1030.810	-1538
1030.876	-573
1030.942	-2347
1031.008	-2169
1031.074	-1533
1031.140	-1499
1031.206	-1361
1031.272	-2388
1031.337	-1455
1031.403	-432
1031.469	-896
1031.534	-1865
1031.600	-1452
1031.666	-1570
1031.731	-1161
1031.797	-1108
1031.863	-1590
1031.928	-2342
1031.994	-2403
1032.059	-1755
1032.125	-951
1032.190	-1613
1032.256	-2328
1032.321	-2257
1032.386	-813
1032.452	-778
1032.517	-1318
1032.582	-2063
1032.647	-1540
1032.713	-1932
1032.778	-742
1032.843	-1620
1032.908	-1316
1032.974	-1067
1033.039	-1112
1033.104	-1107
1033.169	-2308
1033.234	-859
1033.299	-2370
1033.364	-1566
1033.429	-1741
1033.494	-1442
1033.559	-1509
1033.624	-1337
1033.688	-1347
1033.753	-705
1033.818	-1228
1033.883	-1303
1033.948	-925
1034.013	-1987
1034.077	-546
1034.142	-917
1034.207	-1117
1034.271	-341
1034.336	-428
1034.400	-944
1034.465	-1176
1034.530	-1200
1034.594	-1663
1034.658	-2496
1034.723	-1117
1034.787	-1555
1034.852	-1338
1034.916	-951
1034.981	-1965
1035.045	-839
1035.109	-1835
1035.173	-1501
1035.238	-1981
1035.302	-1703
1035.366	-2478
1035.430	-1564
1035.495	-2019
1035.559	-1021
1035.623	-2154
1035.687	-1840
1035.751	-2121
1035.815	-1692
1035.879	-1899
1035.943	-1411
1036.007	-1677
1036.071	-1271
1036.135	-1347
1036.198	-1665
1036.262	-2722
1036.326	-1431
1036.390	-1060
1036.454	-1194
1036.517	-2120
1036.581	-2029
1036.645	-1260
1036.709	-1023
1036.772	-1301
1036.836	-1722
1036.900	-2328
1036.963	-1188
1037.026	-1578
1037.090	-1732
1037.154	-836
1037.217	-1729
1037.280	-1865
1037.344	-1891
1037.407	-1391
1037.471	-1671
1037.534	-868
1037.597	-1905
1037.661	-1759
1037.724	-1553
1037.787	-1751
1037.850	-2231
1037.913	-1717
1037.977	-372
1038.040	-1980
1038.103	-1962
1038.166	-2258
1038.229	-1701
1038.292	-1445
1038.355	-1638
1038.418	-1270
1038.481	-1127
1038.544	-1414
1038.607	-1680
1038.670	-1059
1038.732	-1454
1038.795	-982
1038.858	-2775
1038.921	-1269
1038.984	-1491
1039.046	-1306
1039.109	-2186
1039.172	-1606
1039.234	-1443
1039.297	-1516
1039.360	-1300
1039.422	-1999
1039.485	-1786
1039.547	-1378
1039.610	-1602
1039.672	-989
1039.734	-1857
1039.797	-1615
1039.859	-1765
1039.922	-1758
1039.984	-1603
1040.046	-1662
1040.109	-2069
1040.171	-2006
1040.233	-1259
1040.295	-2453
1040.358	-1742
1040.420	-1273
1040.482	-1586
1040.544	-1995
1040.606	-1676
1040.668	-1608
1040.730	-1863
1040.792	-2258
1040.854	-1305
1040.916	-2068
1040.978	-1832
1041.040	-481
1041.102	-1338
1041.164	-1609
1041.225	-1669
1041.287	-1403
1041.349	-1731
1041.411	-707
1041.472	-1580
1041.534	-1953
1041.596	-2414
1041.657	-1510
1041.719	-2607
1041.781	-1686
1041.842	-2050
1041.904	-1199
1041.965	-1954
1042.027	-1606
1042.088	-1501
1042.150	-1770
1042.211	-1272
1042.272	-1145
1042.334	-1619
1042.395	-1268
1042.456	-1263
1042.518	-1463
1042.579	-679
1042.640	-1533
1042.701	-2115
1042.763	-2212
1042.824	-1624
1042.885	-1346
1042.946	-1244
1043.007	-1994
1043.068	-1983
1043.129	-1626
1043.190	-1507
1043.251	-1092
1043.312	-979
1043.373	-1056
1043.434	-1029
1043.495	-1480
1043.556	-1749
1043.616	-880
1043.677	-1810
1043.738	-1422
1043.799	-1699
1043.859	-1522
1043.920	-1304
1043.981	-1298
1044.041	-2025
1044.102	-1699
1044.162	-1620
1044.223	-1549
1044.284	-1385
1044.344	-1248
1044.405	-1138
1044.465	-1734
1044.525	-1620
1044.586	-2025
1044.646	-2064
1044.707	-499
1044.767	-1106
1044.827	-1223
1044.887	-1198
1044.948	-1409
1045.008	-973
1045.068	-481
1045.128	-1742
1045.188	-1656
1045.249	-911
1045.309	-1065
1045.369	-1616
1045.429	-1171
1045.489	-1227
1045.549	-1438
1045.609	-1403
1045.669	-1472
1045.729	-1164
1045.789	-1337
1045.848	-947
1045.908	-1071
1045.968	-927
1046.028	-733
1046.088	-458
1046.147	-541
1046.207	-584
1046.267	-825
1046.326	-885
1046.386	-1347
1046.446	-104
1046.505	-475
1046.565	-941
1046.624	-761
1046.684	-591
1046.743	-350
1046.803	-225
1046.862	694
1046.922	0
