'Start Wavelength	183.907
'End Wavelength	1046.922
'Gate Delay	5.000
'Gate Width (ms)	1.050
'Laser Output Level	0.000
'X Position	0.000
'Y Position	0.000
'Z Position	0.000
'Grid Point Number	1.000
'Shot Number	100.000
183.907	885.000
183.977	110.000
184.047	543
184.116	1148
184.186	879
184.256	161
184.325	379
184.395	37
184.465	1073
184.534	828
184.604	227
184.674	222
184.743	460
184.813	1166
184.883	224
184.952	601
185.022	623
185.092	339
185.161	351
185.231	366
185.301	775
185.370	1394
185.440	-177
185.509	245
185.579	247
185.649	855
185.718	1061
185.788	670
185.857	135
185.927	248
185.996	1074
186.066	155
186.136	1236
186.205	893
186.275	1106
186.344	821
186.414	614
186.483	1129
186.553	2409
186.622	2391
186.692	2004
186.761	815
186.831	936
186.900	833
186.970	1365
187.039	906
187.109	1747
187.178	1080
187.248	1574
187.317	403
187.387	576
187.456	1097
187.526	668
187.595	328
187.664	396
187.734	1151
187.803	837
187.873	1325
187.942	463
188.012	333
188.081	754
188.150	975
188.220	2215
188.289	2654
188.358	1751
188.428	1851
188.497	676
188.567	918
188.636	234
188.705	1305
188.775	762
188.844	276
188.913	2260
188.983	1041
189.052	393
189.121	890
189.191	925
189.260	1195
189.329	617
189.399	1003
189.468	772
189.537	290
189.606	1293
189.676	1008
189.745	416
189.814	896
189.883	408
189.953	700
190.022	986
190.091	1367
190.161	945
190.230	879
190.299	-512
190.368	726
190.437	867
190.507	527
190.576	1407
190.645	862
190.714	516
190.783	-90
190.853	1395
190.922	1524
190.991	963
191.060	759
191.129	332
191.198	1004
191.268	1016
191.337	1309
191.406	538
191.475	946
191.544	538
191.613	1431
191.682	1915
191.752	1925
191.821	641
191.890	1113
191.959	776
192.028	1451
192.097	219
192.166	1605
192.235	209
192.304	1859
192.373	407
192.442	276
192.511	1033
192.580	322
192.650	864
192.719	1053
192.788	993
192.857	1035
192.926	874
192.995	968
193.064	1579
193.133	1603
193.202	725
193.271	323
193.340	938
193.409	1344
193.478	1265
193.547	1042
193.615	750
193.684	1417
193.753	262
193.822	160
193.891	908
193.960	999
194.029	868
194.098	-11
194.167	-114
194.236	2008
194.305	857
194.374	689
194.443	803
194.512	1159
194.580	954
194.649	1063
194.718	1033
194.787	1022
194.856	281
194.925	1241
194.994	826
195.062	1460
195.131	368
195.200	1522
195.269	974
195.338	700
195.407	1115
195.475	1053
195.544	582
195.613	477
195.682	863
195.751	1026
195.819	160
195.888	1565
195.957	1363
196.026	748
196.094	1297
196.163	862
196.232	1570
196.301	158
196.369	402
196.438	844
196.507	774
196.576	531
196.644	1019
196.713	652
196.782	88
196.850	1544
196.919	507
196.988	1131
197.056	1194
197.125	1208
197.194	474
197.262	880
197.331	1013
197.400	440
197.468	579
197.537	80
197.606	840
197.674	899
197.743	1188
197.812	87
197.880	542
197.949	1030
198.017	688
198.086	623
198.155	1293
198.223	1028
198.292	111
198.360	485
198.429	243
198.497	1209
198.566	426
198.635	1039
198.703	1405
198.772	898
198.840	789
198.909	388
198.977	437
199.046	653
199.114	1194
199.183	812
199.251	442
199.320	897
199.388	803
199.457	908
199.525	1435
199.594	963
199.662	1485
199.731	1626
199.799	1092
199.867	1834
199.936	2803
200.004	1356
200.073	1933
200.141	1140
200.210	1700
200.278	1158
200.346	1996
200.415	1623
200.483	1403
200.552	2994
200.620	1918
200.688	1077
200.757	991
200.825	1173
200.893	589
200.962	1678
201.030	688
201.098	488
201.167	369
201.235	1479
201.303	827
201.372	757
201.440	1183
201.508	1160
201.577	1941
201.645	1825
201.713	1088
201.781	1739
201.850	878
201.918	1631
201.986	699
202.055	1790
202.123	445
202.191	698
202.259	935
202.327	851
202.396	724
202.464	1083
202.532	1267
202.600	3769
202.669	2775
202.737	1255
202.805	1255
202.873	1388
202.941	1076
203.009	1537
203.078	1064
203.146	1446
203.214	1074
203.282	296
203.350	1169
203.418	1883
203.487	1662
203.555	300
203.623	670
203.691	1549
203.759	859
203.827	524
203.895	2160
203.963	1046
204.031	1806
204.099	2325
204.168	640
204.236	1236
204.304	2060
204.372	739
204.440	1009
204.508	670
204.576	278
204.644	1220
204.712	631
204.780	704
204.848	1459
204.916	1227
204.984	1224
205.052	1263
205.120	567
205.188	925
205.256	739
205.324	394
205.392	1407
205.460	1003
205.528	664
205.596	1525
205.664	1092
205.732	430
205.799	1057
205.867	1049
205.935	339
206.003	640
206.071	215
206.139	511
206.207	369
206.275	768
206.343	1225
206.411	1208
206.478	938
206.546	944
206.614	1356
206.682	1295
206.750	1712
206.818	2663
206.885	3218
206.953	1676
207.021	2348
207.089	1354
207.157	309
207.225	684
207.292	778
207.360	635
207.428	405
207.496	417
207.563	606
207.631	388
207.699	721
207.767	867
207.834	850
207.902	1409
207.970	1018
208.038	1587
208.105	1134
208.173	1081
208.241	514
208.309	1191
208.376	1487
208.444	1864
208.512	741
208.579	910
208.647	3009
208.715	3040
208.782	1412
208.850	1600
208.918	275
208.985	705
209.053	1321
209.120	949
209.188	794
209.256	751
209.323	444
209.391	1814
209.459	2005
209.526	621
209.594	1205
209.661	399
209.729	1071
209.796	1863
209.864	2708
209.932	400
209.999	1944
210.067	831
210.134	1373
210.202	1513
210.269	1878
210.337	3939
210.404	2807
210.472	-57
210.539	1335
210.607	1180
210.674	377
210.742	978
210.809	475
210.877	620
210.944	1892
211.012	1347
211.079	2805
211.146	1080
211.214	1642
211.281	4690
211.349	4381
211.416	2029
211.484	2229
211.551	815
211.618	975
211.686	1977
211.753	579
211.821	2196
211.888	1958
211.955	2099
212.023	1332
212.090	1625
212.157	892
212.225	689
212.292	1041
212.359	1133
212.427	1350
212.494	1182
212.561	1011
212.629	252
212.696	177
212.763	741
212.831	-229
212.898	877
212.965	-249
213.032	900
213.100	472
213.167	220
213.234	1714
213.301	1345
213.369	643
213.436	804
213.503	704
213.570	783
213.638	1105
213.705	323
213.772	94
213.839	1343
213.906	1645
213.973	1385
214.041	500
214.108	1590
214.175	719
214.242	1042
214.309	1293
214.376	922
214.444	1100
214.511	1555
214.578	759
214.645	1545
214.712	1794
214.779	2585
214.846	2147
214.913	2706
214.980	3843
215.048	5108
215.115	5399
215.182	4263
215.249	2813
215.316	1544
215.383	2282
215.450	2093
215.517	1237
215.584	1263
215.651	656
215.718	1568
215.785	2039
215.852	635
215.919	1664
215.986	1044
216.053	401
216.120	1499
216.187	1011
216.254	1644
216.321	704
216.388	680
216.455	1250
216.522	527
216.589	397
216.656	1982
216.722	2215
216.789	739
216.856	533
216.923	370
216.990	1001
217.057	-113
217.124	1455
217.191	863
217.258	1228
217.324	1071
217.391	1136
217.458	-345
217.525	1018
217.592	1269
217.659	387
217.725	1553
217.792	1609
217.859	2441
217.926	536
217.993	1311
218.059	1847
218.126	604
218.193	498
218.260	1380
218.327	965
218.393	881
218.460	986
218.527	860
218.594	1181
218.660	1422
218.727	2375
218.794	834
218.860	1537
218.927	265
218.994	349
219.061	1157
219.127	1122
219.194	2179
219.261	1526
219.327	732
219.394	1389
219.461	-136
219.527	1100
219.594	1652
219.661	1543
219.727	491
219.794	3471
219.860	2195
219.927	4146
219.994	7825
220.060	11948
220.127	12846
220.193	9195
220.260	4515
220.326	3207
220.393	1564
220.460	1133
220.526	280
220.593	791
220.659	2768
220.726	231
220.792	1862
220.859	1364
220.925	2010
220.992	1022
221.058	337
221.125	787
221.191	1359
221.258	431
221.324	1244
221.391	1657
221.457	644
221.524	883
221.590	886
221.657	2078
221.723	333
221.789	1167
221.856	1279
221.922	1108
221.989	1515
222.055	1695
222.121	1495
222.188	4385
222.254	1743
222.321	1954
222.387	1563
222.453	1720
222.520	1219
222.586	857
222.652	1293
222.719	932
222.785	1841
222.851	578
222.918	923
222.984	603
223.050	435
223.116	-380
223.183	1248
223.249	399
223.315	705
223.382	801
223.448	320
223.514	812
223.580	477
223.647	362
223.713	70
223.779	-147
223.845	330
223.911	1159
223.978	1143
224.044	998
224.110	467
224.176	1263
224.242	1132
224.309	-333
224.375	1829
224.441	952
224.507	473
224.573	303
224.639	1477
224.705	-140
224.772	1501
224.838	731
224.904	1075
224.970	1183
225.036	978
225.102	106
225.168	1544
225.234	1632
225.300	1654
225.366	1025
225.432	1556
225.499	1532
225.565	1366
225.631	1534
225.697	914
225.763	894
225.829	1166
225.895	934
225.961	1120
226.027	1950
226.093	781
226.159	2407
226.225	2954
226.291	2824
226.357	1307
226.423	892
226.489	2605
226.554	995
226.620	1253
226.686	1966
226.752	1330
226.818	1531
226.884	1904
226.950	1494
227.016	2241
227.082	3012
227.148	3034
227.214	3390
227.279	3660
227.345	4892
227.411	7012
227.477	14102
227.543	18653
227.609	24133
227.674	18772
227.740	10755
227.806	6718
227.872	4630
227.938	3819
228.003	3378
228.069	2561
228.135	1643
228.201	1977
228.267	1698
228.332	1560
228.398	888
228.464	1504
228.530	714
228.595	1406
228.661	211
228.727	900
228.792	2674
228.858	1872
228.924	-366
228.990	2909
229.055	903
229.121	1512
229.187	1404
229.252	1197
229.318	842
229.384	1106
229.449	1418
229.515	179
229.581	394
229.646	2729
229.712	1707
229.777	1901
229.843	2673
229.909	1324
229.974	1392
230.040	2158
230.105	671
230.171	682
230.236	980
230.302	1271
230.368	690
230.433	-201
230.499	1509
230.564	1902
230.630	-267
230.695	1014
230.761	2030
230.826	306
230.892	2409
230.957	291
231.023	396
231.088	1297
231.154	444
231.219	2031
231.284	380
231.350	2265
231.415	29
231.481	1231
231.546	1327
231.612	1260
231.677	436
231.742	464
231.808	1458
231.873	851
231.939	-1668
232.004	2122
232.069	1956
232.135	209
232.200	356
232.265	1547
232.331	131
232.396	1269
232.461	870
232.527	-388
232.592	603
232.657	2205
232.723	2027
232.788	1301
232.853	1362
232.918	1863
232.984	1194
233.049	1223
233.114	1357
233.179	3205
233.245	2696
233.310	3073
233.375	732
233.440	1502
233.506	217
233.571	1253
233.636	940
233.701	1075
233.766	838
233.832	1257
233.897	1351
233.962	491
234.027	2298
234.092	1231
234.157	1467
234.222	2734
234.288	3183
234.353	3028
234.418	2507
234.483	2095
234.548	1090
234.613	1679
234.678	1197
234.743	838
234.808	3455
234.873	336
234.938	2254
235.004	1383
235.069	916
235.134	786
235.199	1557
235.264	1155
235.329	760
235.394	2217
235.459	1361
235.524	440
235.589	2086
235.654	1226
235.719	352
235.784	1987
235.849	1091
235.913	1498
235.978	1528
236.043	1600
236.108	1136
236.173	1104
236.238	1444
236.303	789
236.368	612
236.433	1670
236.498	1196
236.563	1070
236.627	1042
236.692	1959
236.757	1084
236.822	1358
236.887	1054
236.952	2186
237.017	-19
237.081	2823
237.146	114
237.211	2329
237.276	1301
237.341	2058
237.405	1329
237.470	555
237.535	894
237.600	1180
237.664	1590
237.729	709
237.794	454
237.859	1426
237.923	1099
237.988	842
238.053	2048
238.118	1933
238.182	3548
238.247	5550
238.312	1079
238.376	2658
238.441	-303
238.506	2703
238.570	880
238.635	2452
238.700	1226
238.764	1662
238.829	2482
238.893	2552
238.958	3020
239.023	2197
239.087	3307
239.152	3529
239.216	2868
239.281	2914
239.346	2704
239.410	2258
239.475	2242
239.539	6104
239.604	5726
239.668	6728
239.733	10604
239.797	25724
239.862	39681
239.926	37646
239.991	22346
240.055	11637
240.120	7065
240.184	5582
240.249	3410
240.313	3332
240.378	2602
240.442	2975
240.507	5179
240.571	1857
240.635	1383
240.700	2683
240.764	2305
240.829	2334
240.893	974
240.957	2700
241.022	2214
241.086	4618
241.151	2542
241.215	1260
241.279	2295
241.344	1768
241.408	1394
241.472	946
241.537	2455
241.601	2216
241.665	827
241.730	1607
241.794	1678
241.858	985
241.922	1335
241.987	2027
242.051	494
242.115	520
242.179	2204
242.244	499
242.308	1615
242.372	1691
242.436	1180
242.501	1530
242.565	182
242.629	1114
242.693	1707
242.757	820
242.822	1844
242.886	1629
242.950	2105
243.014	-190
243.078	1723
243.142	1116
243.206	372
243.271	1528
243.335	492
243.399	1499
243.463	511
243.527	2673
243.591	1619
243.655	1433
243.719	1023
243.783	2135
243.847	1311
243.911	1493
243.975	2515
244.040	1354
244.104	3305
244.168	2218
244.232	982
244.296	1778
244.360	1691
244.424	378
244.488	1254
244.552	2207
244.615	76
244.679	1471
244.743	1624
244.807	1015
244.871	1317
244.935	1663
244.999	412
245.063	1994
245.127	1754
245.191	2082
245.255	1534
245.319	2286
245.383	658
245.446	3319
245.510	804
245.574	1971
245.638	2672
245.702	871
245.766	4343
245.829	4290
245.893	1542
245.957	1350
246.021	2754
246.085	2071
246.149	2405
246.212	4761
246.276	8326
246.340	3689
246.404	1765
246.467	3359
246.531	2007
246.595	2132
246.659	3038
246.722	1084
246.786	2386
246.850	2785
246.913	2896
246.977	737
247.041	2009
247.104	2051
247.168	3316
247.232	4372
247.295	10869
247.359	5523
247.423	1806
247.486	3809
247.550	4201
247.614	2089
247.677	2323
247.741	2482
247.804	2582
247.868	4937
247.932	3684
247.995	10813
248.059	4279
248.122	2047
248.186	2906
248.249	3533
248.313	15052
248.376	17651
248.440	10408
248.503	2493
248.567	4201
248.630	3343
248.694	4446
248.757	7117
248.821	17376
248.884	10636
248.948	7312
249.011	12751
249.075	19918
249.138	17813
249.202	6071
249.265	3414
249.328	4212
249.392	2145
249.455	3170
249.519	3943
249.582	3621
249.645	5030
249.709	4567
249.772	3003
249.835	1989
249.899	2845
249.962	4284
250.025	2433
250.089	5659
250.152	8524
250.215	4137
250.279	2418
250.342	2807
250.405	1885
250.468	1498
250.532	2789
250.595	3582
250.658	3990
250.721	8681
250.785	4418
250.848	4356
250.911	2479
250.974	3146
251.038	3480
251.101	11710
251.164	4532
251.227	3097
251.290	2128
251.354	3157
251.417	5660
251.480	6052
251.543	4540
251.606	13486
251.669	10677
251.732	4805
251.795	7962
251.859	9210
251.922	7184
251.985	5643
252.048	3360
252.111	2852
252.174	1986
252.237	5632
252.300	18388
252.363	10056
252.426	16340
252.489	8113
252.552	3906
252.615	2127
252.678	4794
252.741	12133
252.804	8939
252.867	13218
252.930	13901
252.993	7708
253.056	5451
253.119	3663
253.182	2720
253.245	3481
253.308	4181
253.371	3077
253.434	3420
253.497	4194
253.559	7907
253.622	5670
253.685	5642
253.748	4882
253.811	3316
253.874	4151
253.937	3240
254.000	3687
254.062	5785
254.125	10909
254.188	7908
254.251	6316
254.314	3586
254.376	3835
254.439	6559
254.502	4954
254.565	5858
254.628	12656
254.690	5654
254.753	4009
254.816	2877
254.878	4165
254.941	7050
255.004	8334
255.067	5204
255.129	3023
255.192	3028
255.255	2371
255.317	4282
255.380	3331
255.443	3992
255.505	5403
255.568	3253
255.631	2755
255.693	4833
255.756	4885
255.819	6379
255.881	6094
255.944	4137
256.006	3351
256.069	2626
256.132	2751
256.194	3133
256.257	4603
256.319	3881
256.382	7049
256.444	11459
256.507	7573
256.569	4630
256.632	2919
256.694	3447
256.757	4143
256.819	5245
256.882	4927
256.944	4822
257.007	4971
257.069	3186
257.132	5588
257.194	7002
257.257	4549
257.319	5374
257.381	2626
257.444	4030
257.506	3678
257.569	10592
257.631	24923
257.693	10578
257.756	5068
257.818	3438
257.880	3294
257.943	4247
258.005	3220
258.067	2666
258.130	3307
258.192	3980
258.254	3338
258.317	3877
258.379	4232
258.441	10351
258.503	8842
258.566	4651
258.628	7401
258.690	2784
258.753	3580
258.815	4305
258.877	3934
258.939	4202
259.001	4715
259.064	4120
259.126	3272
259.188	3723
259.250	5262
259.312	8727
259.375	19864
259.437	12876
259.499	4928
259.561	5654
259.623	5486
259.685	4222
259.747	3980
259.809	5909
259.872	9153
259.934	12461
259.996	11354
260.058	4940
260.120	2697
260.182	4278
260.244	4098
260.306	3332
260.368	4538
260.430	3492
260.492	4782
260.554	14164
260.616	16436
260.678	9129
260.740	10181
260.802	5196
260.864	4905
260.926	2882
260.988	4686
261.050	3928
261.112	4212
261.174	7461
261.236	7487
261.298	4635
261.359	4271
261.421	7023
261.483	3318
261.545	5258
261.607	3464
261.669	4295
261.731	4612
261.793	7414
261.854	4406
261.916	6422
261.978	3732
262.040	4089
262.102	4919
262.164	4094
262.225	4548
262.287	5435
262.349	6100
262.411	6127
262.472	5996
262.534	4705
262.596	6029
262.658	5589
262.719	4608
262.781	4804
262.843	5629
262.904	4477
262.966	4309
263.028	4411
263.090	7310
263.151	10294
263.213	6157
263.275	5312
263.336	4620
263.398	4573
263.459	3533
263.521	4532
263.583	6797
263.644	5350
263.706	4426
263.767	3721
263.829	4021
263.891	3693
263.952	4078
264.014	3573
264.075	4103
264.137	4757
264.198	5074
264.260	3817
264.321	3217
264.383	4514
264.444	5107
264.506	3967
264.567	4432
264.629	4924
264.690	3100
264.752	4958
264.813	4713
264.875	3502
264.936	5122
264.998	4559
265.059	5444
265.120	6532
265.182	4389
265.243	4175
265.305	5211
265.366	5662
265.427	3996
265.489	5749
265.550	3995
265.611	4700
265.673	4956
265.734	5434
265.795	4732
265.857	4282
265.918	3772
265.979	4701
266.040	3565
266.102	3706
266.163	4147
266.224	4438
266.286	4378
266.347	3524
266.408	4440
266.469	5150
266.530	4808
266.592	4515
266.653	5071
266.714	6355
266.775	6137
266.836	5740
266.898	4875
266.959	4716
267.020	4201
267.081	5903
267.142	4740
267.203	4182
267.264	4354
267.326	6097
267.387	5177
267.448	4458
267.509	5030
267.570	5135
267.631	4250
267.692	4137
267.753	5698
267.814	4654
267.875	9474
267.936	9215
267.997	5151
268.058	4585
268.119	4832
268.180	5073
268.241	3842
268.302	4617
268.363	4283
268.424	5094
268.485	4018
268.546	3901
268.607	4245
268.668	4495
268.729	4215
268.790	5082
268.851	5125
268.912	5780
268.972	6614
269.033	4501
269.094	5223
269.155	5160
269.216	4915
269.277	5111
269.338	4959
269.398	5877
269.459	4685
269.520	5130
269.581	5981
269.642	5907
269.702	4552
269.763	5698
269.824	4637
269.885	4734
269.945	5291
270.006	6569
270.067	6186
270.128	5109
270.188	4446
270.249	4865
270.310	4352
270.370	4988
270.431	4745
270.492	4336
270.553	5632
270.613	7330
270.674	8839
270.734	5100
270.795	5482
270.856	5919
270.916	4992
270.977	6060
271.038	5500
271.098	5005
271.159	6384
271.219	6550
271.280	5543
271.340	5424
271.401	5246
271.462	5618
271.522	6085
271.583	5397
271.643	5039
271.704	6232
271.764	5422
271.825	7046
271.885	16942
271.946	25977
272.006	11897
272.066	13462
272.127	27104
272.187	32002
272.248	20850
272.308	13128
272.369	17553
272.429	13063
272.489	8574
272.550	9272
272.610	9442
272.671	9730
272.731	8572
272.791	8107
272.852	7799
272.912	6839
272.972	7063
273.033	6485
273.093	6837
273.153	7171
273.214	6388
273.274	7679
273.334	10917
273.394	19880
273.455	10805
273.515	12985
273.575	15858
273.635	10772
273.696	10599
273.756	20285
273.816	11878
273.876	8819
273.936	9485
273.997	11428
274.057	7722
274.117	7235
274.177	8801
274.237	19775
274.297	23946
274.358	11784
274.418	15466
274.478	12496
274.538	8757
274.598	9554
274.658	10614
274.718	11436
274.778	8948
274.838	7010
274.898	7874
274.958	13683
275.018	19640
275.078	16557
275.138	9052
275.198	8394
275.258	9572
275.318	8538
275.378	8557
275.438	8824
275.498	8289
275.558	8965
275.618	15531
275.678	15541
275.738	11357
275.798	9844
275.858	7643
275.918	8836
275.978	8216
276.038	7995
276.098	8822
276.157	9498
276.217	13652
276.277	10429
276.337	8376
276.397	8353
276.457	8867
276.517	8812
276.576	7443
276.636	7680
276.696	8973
276.756	9358
276.815	9275
276.875	9782
276.935	7779
276.995	9136
277.055	10112
277.114	12413
277.174	9598
277.234	11219
277.293	8700
277.353	7366
277.413	7340
277.472	8028
277.532	7119
277.592	9903
277.651	18690
277.711	40013
277.771	16992
277.830	37310
277.890	35732
277.950	23659
278.009	69321
278.069	33635
278.128	27571
278.188	42313
278.248	21535
278.307	42221
278.367	33278
278.426	13736
278.486	11552
278.545	9627
278.605	9695
278.664	8980
278.724	9019
278.783	11860
278.843	23917
278.902	12933
278.962	8854
279.021	11504
279.081	13979
279.140	12478
279.199	10743
279.259	11135
279.318	13093
279.378	16619
279.437	25688
279.496	77644
279.556	154758
279.615	132934
279.675	41379
279.734	26617
279.793	33025
279.853	71309
279.912	36547
279.971	20254
280.031	20192
280.090	31023
280.149	56523
280.208	33292
280.268	88478
280.327	115377
280.386	32174
280.445	21186
280.505	17813
280.564	12786
280.623	11663
280.682	13298
280.742	14371
280.801	10473
280.860	10389
280.919	9848
280.978	9947
281.037	9029
281.097	8883
281.156	10224
281.215	8770
281.274	10957
281.333	16559
281.392	15830
281.451	10677
281.510	15952
281.569	11473
281.628	8908
281.688	9112
281.747	9648
281.806	9878
281.865	9722
281.924	9727
281.983	9075
282.042	8437
282.101	8740
282.160	8693
282.219	9503
282.278	9224
282.337	10518
282.396	10439
282.454	9167
282.513	9399
282.572	13136
282.631	11661
282.690	9590
282.749	8580
282.808	9765
282.867	9233
282.926	9341
282.985	9342
283.043	8495
283.102	8222
283.161	9866
283.220	10229
283.279	15153
283.338	10913
283.396	9677
283.455	9300
283.514	9776
283.573	10130
283.631	9663
283.690	10568
283.749	17223
283.808	14423
283.866	11709
283.925	10230
283.984	10801
284.043	10066
284.101	10892
284.160	10289
284.219	11909
284.277	10389
284.336	11636
284.395	16727
284.453	18364
284.512	13710
284.570	14269
284.629	14055
284.688	15174
284.746	16841
284.805	19219
284.863	25087
284.922	30033
284.981	32096
285.039	43991
285.098	70582
285.156	143191
285.215	219675
285.273	221464
285.332	173243
285.390	95036
285.449	60088
285.507	43313
285.566	33559
285.624	27707
285.683	22806
285.741	19307
285.799	16976
285.858	14930
285.916	14361
285.975	13058
286.033	12104
286.091	13354
286.150	11429
286.208	11634
286.267	11607
286.325	11560
286.383	12039
286.442	11577
286.500	10626
286.558	10704
286.616	11160
286.675	11325
286.733	10490
286.791	10490
286.850	9777
286.908	10463
286.966	11471
287.024	10554
287.083	10123
287.141	9724
287.199	10044
287.257	10328
287.315	9850
287.374	8931
287.432	10523
287.490	11012
287.548	10345
287.606	14199
287.664	13827
287.723	11242
287.781	10170
287.839	9879
287.897	10009
287.955	10109
288.013	9436
288.071	9816
288.129	13658
288.187	28837
288.245	17799
288.303	11965
288.361	9496
288.419	9551
288.477	9336
288.535	9537
288.593	9636
288.651	9059
288.709	8463
288.767	8682
288.825	9046
288.883	8636
288.941	9519
288.999	9799
289.057	9441
289.115	9586
289.173	10111
289.231	10271
289.289	9747
289.346	8783
289.404	10651
289.462	10965
289.520	10715
289.578	9757
289.636	9473
289.694	9374
289.751	9759
289.809	9809
289.867	10537
289.925	10407
289.983	9344
290.040	9840
290.098	8771
290.156	9459
290.214	10853
290.271	10357
290.329	10863
290.387	10909
290.444	10430
290.502	10126
290.560	10855
290.617	9558
290.675	10568
290.733	9412
290.790	10036
290.848	10010
290.906	10038
290.963	10673
291.021	10752
291.078	9912
291.136	9455
291.194	11072
291.251	13309
291.309	10449
291.366	9064
291.424	10115
291.481	11871
291.539	11684
291.596	12188
291.654	12070
291.711	10559
291.769	9945
291.826	11046
291.884	11286
291.941	9974
291.999	10725
292.056	10222
292.114	9646
292.171	9650
292.228	11115
292.286	11962
292.343	12210
292.401	11478
292.458	11508
292.515	11311
292.573	13664
292.630	13084
292.687	11016
292.745	11738
292.802	9406
292.859	11427
292.917	15373
292.974	13417
293.031	10629
293.089	10710
293.146	10411
293.203	10901
293.260	11327
293.318	13284
293.375	11998
293.432	10757
293.489	12395
293.546	9982
293.604	11682
293.661	15491
293.718	28954
293.775	18805
293.832	14766
293.889	15406
293.947	20039
294.004	16830
294.061	13702
294.118	14453
294.175	17403
294.232	14031
294.289	13020
294.346	11329
294.403	11814
294.460	11836
294.517	11921
294.574	11581
294.631	12791
294.688	12660
294.745	14211
294.802	25114
294.859	21811
294.916	18624
294.973	18980
295.030	11995
295.087	12079
295.144	11494
295.201	11784
295.258	10468
295.315	11500
295.372	14316
295.429	23483
295.486	15561
295.542	12079
295.599	11440
295.656	11877
295.713	13326
295.770	20138
295.827	13483
295.883	11169
295.940	10935
295.997	10640
296.054	11755
296.111	13255
296.167	11893
296.224	10442
296.281	10842
296.338	10535
296.394	10544
296.451	10321
296.508	13087
296.564	16800
296.621	15860
296.678	23375
296.734	35253
296.791	17895
296.848	12965
296.904	14850
296.961	17445
297.018	22104
297.074	19512
297.131	13523
297.187	12189
297.244	13661
297.301	23028
297.357	43394
297.414	20925
297.470	13367
297.527	12565
297.583	11812
297.640	12018
297.696	11831
297.753	10894
297.809	11390
297.866	11297
297.922	12038
297.979	11095
298.035	10745
298.092	12230
298.148	16241
298.204	17650
298.261	13691
298.317	15088
298.374	30066
298.430	24517
298.486	16045
298.543	20419
298.599	20797
298.656	14272
298.712	12943
298.768	14009
298.824	12095
298.881	11197
298.937	11488
298.993	12538
299.050	11284
299.106	11922
299.162	11344
299.218	12927
299.275	13146
299.331	14380
299.387	17772
299.443	36007
299.500	73751
299.556	65523
299.612	30892
299.668	27426
299.724	58219
299.780	80559
299.837	37428
299.893	27965
299.949	51062
300.005	80776
300.061	59967
300.117	91600
300.173	49739
300.229	25405
300.285	19881
300.341	19662
300.397	17922
300.453	16365
300.510	17188
300.566	23858
300.622	33759
300.678	85861
300.734	119855
300.790	62865
300.845	49619
300.901	56697
300.957	85102
301.013	47855
301.069	24512
301.125	21852
301.181	27537
301.237	25978
301.293	17266
301.349	14906
301.405	13283
301.461	12994
301.516	12435
301.572	12095
301.628	12639
301.684	12904
301.740	14008
301.796	16464
301.851	14774
301.907	17473
301.963	19039
302.019	24442
302.074	60010
302.130	64574
302.186	33491
302.242	17808
302.297	15529
302.353	14966
302.409	17030
302.464	16470
302.520	14864
302.576	23603
302.631	27183
302.687	18494
302.743	13151
302.798	13556
302.854	13447
302.910	15667
302.965	26765
303.021	24453
303.076	16294
303.132	14755
303.187	14797
303.243	13138
303.299	12711
303.354	10909
303.410	10967
303.465	10794
303.521	11401
303.576	11547
303.632	13152
303.687	14633
303.743	24698
303.798	25573
303.853	15201
303.909	11484
303.964	12026
304.020	12077
304.075	12841
304.130	13248
304.186	14845
304.241	16002
304.297	14617
304.352	13432
304.358	13417
304.407	13300
304.449	15186
304.463	15828
304.518	14244
304.539	14041
304.573	13718
304.629	14409
304.630	14405
304.684	14568
304.720	19147
304.739	21410
304.794	29458
304.811	26482
304.850	19398
304.902	12897
304.905	12481
304.960	11673
304.992	10904
305.015	10354
305.071	10614
305.083	10521
305.126	10154
305.173	9778
305.181	9734
305.236	9825
305.264	10093
305.292	10301
305.347	10298
305.354	10315
305.402	10589
305.445	12368
305.457	12836
305.512	12872
305.535	12305
305.567	11502
305.622	11022
305.626	11049
305.678	12239
305.716	16834
305.733	18458
305.788	22848
305.807	20590
305.843	16981
305.897	22792
305.898	22853
305.953	25775
305.988	18859
306.008	15077
306.063	11862
306.078	11306
306.118	10028
306.168	9651
306.173	9618
306.228	9320
306.259	9973
306.283	10467
306.338	10068
306.349	9928
306.393	9377
306.440	9731
306.448	9790
306.503	9867
306.530	9878
306.558	10093
306.613	10119
306.620	10282
306.668	11923
306.711	16162
306.723	16857
306.778	16025
306.801	14034
306.833	11797
306.888	10258
306.892	10168
306.943	9532
306.982	9577
306.997	9534
307.052	10416
307.072	9966
307.107	9137
307.162	8292
307.163	8297
307.217	8822
307.253	9027
307.272	9093
307.327	9195
307.343	9066
307.381	8890
307.434	8596
307.436	8602
307.491	9342
307.524	10350
307.546	10770
307.600	13062
307.614	12590
307.655	10506
307.704	8549
307.710	8449
307.765	7941
307.795	8278
307.819	8422
307.874	8633
307.885	8620
307.929	8508
307.975	9321
307.984	9484
308.038	9203
308.065	9027
308.093	8831
308.148	8715
308.156	8722
308.202	8461
308.246	8135
308.257	8230
308.312	8930
308.336	9586
308.366	9903
308.421	10446
308.426	10270
308.475	8589
308.517	8428
308.530	8414
308.585	8016
308.607	7816
308.639	7712
308.694	7924
308.697	7954
308.748	8111
308.787	8174
308.803	8323
308.857	8155
308.877	8282
308.912	8588
308.967	9703
308.967	9720
309.021	11779
309.058	13459
309.076	14168
309.130	16907
309.148	17719
309.185	19557
309.238	21356
309.239	21401
309.293	24839
309.328	26976
309.348	26537
309.402	23217
309.418	21982
309.457	20297
309.508	18603
309.511	18628
309.566	20234
309.598	21756
309.620	24278
309.674	32329
309.688	34662
309.729	35330
309.778	32568
309.783	32082
309.837	24924
309.868	21162
309.892	20495
309.946	19938
309.959	20268
310.001	21108
310.049	21667
310.055	21232
310.109	16093
310.139	13196
310.163	12035
310.218	10088
310.229	9847
310.272	9776
310.319	9833
310.326	9738
310.381	8740
310.409	8481
310.435	8493
310.489	8418
310.499	8412
310.543	8858
310.589	9476
310.598	9583
310.652	10364
310.679	10619
310.706	10313
310.760	9538
310.769	9470
310.814	10340
310.859	11177
310.868	11094
310.923	10255
310.948	10064
310.977	10501
311.031	11082
311.038	11189
311.085	10915
311.128	10518
311.139	10586
311.193	10950
311.218	11075
311.247	10676
311.301	10095
311.308	10018
311.356	9748
311.398	9413
311.410	9362
311.464	9287
311.488	9202
311.518	9171
311.572	9177
311.578	9183
311.626	9429
311.668	9705
311.680	9754
311.734	9866
311.758	9932
311.788	9990
311.842	10125
311.847	10136
311.896	10514
311.937	10885
311.950	11248
312.004	12816
312.027	13509
312.058	13774
312.112	14209
312.117	14242
312.165	12128
312.207	10335
312.297	8951
312.386	9797
312.476	9846
312.566	12356
312.656	11792
312.745	10372
312.835	11792
312.925	15087
313.015	14323
313.104	15547
313.194	18166
313.284	16023
313.374	17152
313.463	15623
313.553	16035
313.643	17916
313.732	19102
313.822	18351
313.912	20899
314.001	20661
314.091	21291
314.180	19419
314.270	21261
314.360	19554
314.449	19229
314.539	18767
314.628	20577
314.718	20608
314.808	22844
314.897	25033
314.987	24697
315.076	26093
315.166	24243
315.255	22590
315.345	21549
315.434	21939
315.524	22422
315.613	26174
315.703	34801
315.792	88490
315.881	233273
315.971	79941
316.060	28920
316.150	22650
316.239	20204
316.328	20777
316.418	24758
316.507	26808
316.597	33913
316.686	29905
316.775	27271
316.865	23736
316.954	20977
317.043	20089
317.133	18542
317.222	17415
317.311	16752
317.400	15996
317.490	19664
317.579	21153
317.668	25286
317.757	41902
317.847	130415
317.936	330316
318.025	114366
318.114	105515
318.203	53215
318.293	30503
318.382	35272
318.471	39066
318.560	30526
318.649	25393
318.738	18607
318.828	17463
318.917	14558
319.006	15304
319.095	23294
319.184	20302
319.273	17103
319.362	15454
319.451	14673
319.540	13827
319.629	16010
319.718	17024
319.807	14538
319.896	15724
319.985	16644
320.074	16122
320.163	16655
320.252	17431
320.341	18229
320.430	18937
320.519	21581
320.608	22013
320.697	25549
320.786	27455
320.875	31723
320.964	35441
321.053	37367
321.142	46350
321.230	56007
321.319	50346
321.408	54023
321.497	50914
321.586	43000
321.675	38249
321.764	36621
321.852	37520
321.941	39608
322.030	39836
322.119	44443
322.207	50643
322.296	54581
322.385	60806
322.474	68568
322.562	69438
322.651	54732
322.740	49866
322.829	51002
322.917	35650
323.006	32826
323.095	33485
323.183	30504
323.272	28111
323.361	34741
323.449	36923
323.538	23332
323.626	26846
323.715	25991
323.804	19244
323.892	19131
323.981	19439
324.069	20945
324.158	19001
324.246	18577
324.335	20165
324.424	21085
324.512	16343
324.601	17498
324.689	16720
324.778	18432
324.866	21578
324.954	15638
325.043	16941
325.131	15054
325.220	16553
325.308	17268
325.397	16041
325.485	15813
325.574	15869
325.662	16152
325.750	13582
325.839	16495
325.927	15638
326.015	19439
326.104	14378
326.192	13718
326.280	13528
326.369	13692
326.457	15360
326.545	14849
326.634	14495
326.722	14825
326.810	15480
326.898	20364
326.987	22277
327.075	18466
327.163	20095
327.251	26837
327.340	30459
327.428	24016
327.516	28061
327.604	22505
327.692	18615
327.781	16402
327.869	19454
327.957	23621
328.045	13679
328.133	12796
328.221	12427
328.309	14968
328.397	15436
328.485	20825
328.574	27143
328.662	37393
328.750	24525
328.838	18283
328.926	15140
329.014	13562
329.102	12841
329.190	13086
329.278	12857
329.366	13055
329.454	12636
329.542	13004
329.630	12759
329.718	13309
329.806	12715
329.893	13584
329.981	11371
330.069	13056
330.157	13476
330.245	13099
330.333	12768
330.421	13046
330.509	16725
330.597	22319
330.684	16802
330.772	11930
330.860	12163
330.948	11905
331.036	12888
331.123	12150
331.211	12465
331.299	12662
331.387	13698
331.475	13939
331.562	13406
331.650	13205
331.738	12491
331.825	14609
331.913	12924
332.001	13163
332.089	13444
332.176	13792
332.264	13646
332.352	13818
332.439	12966
332.527	14503
332.614	14046
332.702	14833
332.790	13992
332.877	15441
332.965	17460
333.052	18387
333.140	17924
333.228	24016
333.315	18238
333.403	18592
333.490	19886
333.578	21913
333.665	32340
333.753	25219
333.840	23801
333.928	26578
334.015	31963
334.103	37934
334.190	45719
334.278	60992
334.365	79516
334.452	78515
334.540	60478
334.627	61781
334.715	76255
334.802	103523
334.889	145711
334.977	172259
335.064	116561
335.151	68990
335.239	52285
335.326	44900
335.413	44338
335.501	45099
335.588	52376
335.675	58823
335.762	71484
335.850	89798
335.937	126250
336.024	186495
336.111	249335
336.199	209685
336.286	114912
336.373	71274
336.460	50248
336.547	41875
336.635	34574
336.722	30671
336.809	27012
336.896	26438
336.983	25610
337.070	26681
337.157	23090
337.245	23539
337.332	23882
337.419	24178
337.506	24530
337.593	22291
337.680	20341
337.767	20118
337.854	18763
337.941	18651
338.028	19503
338.115	18905
338.202	19271
338.289	19187
338.376	18615
338.463	17897
338.550	16634
338.637	17251
338.724	18753
338.811	22362
338.898	18117
338.984	16059
339.071	17872
339.158	36617
339.245	36447
339.332	18676
339.419	15099
339.506	16047
339.593	15373
339.679	15836
339.766	14856
339.853	15990
339.940	16741
340.027	15264
340.113	15386
340.200	15350
340.287	15080
340.374	15162
340.460	17681
340.547	14378
340.634	15326
340.720	18044
340.807	15628
340.894	15286
340.980	16672
341.067	16266
341.154	16052
341.240	16524
341.327	17094
341.414	15990
341.500	15345
341.587	15607
341.674	14425
341.760	16139
341.847	15861
341.933	16456
342.020	14590
342.106	14545
342.193	14354
342.279	15030
342.366	14557
342.452	15472
342.539	14350
342.625	14781
342.712	18168
342.798	15066
342.885	14246
342.971	14292
343.058	19470
343.144	15326
343.230	14868
343.317	14630
343.403	14135
343.490	14407
343.576	14361
343.662	16004
343.749	22648
343.835	39377
343.921	21463
344.008	49302
344.094	75256
344.180	23956
344.267	15966
344.353	23642
344.439	21146
344.525	15592
344.612	17804
344.698	24318
344.784	20481
344.870	13962
344.957	12984
345.043	15784
345.129	14226
345.215	15132
345.301	13517
345.387	13297
345.474	14905
345.560	15601
345.646	15247
345.732	16632
345.818	14447
345.904	14690
345.990	14713
346.076	15545
346.162	14864
346.249	15158
346.335	15552
346.421	15744
346.507	20316
346.593	30716
346.679	16609
346.765	19436
346.851	30212
346.937	24679
347.023	19048
347.108	23848
347.194	18109
347.280	17609
347.366	24687
347.452	59208
347.538	80420
347.624	41485
347.710	27070
347.796	19803
347.882	25301
347.967	23454
348.053	18930
348.139	21839
348.225	18725
348.311	22898
348.397	17660
348.482	18604
348.568	19893
348.654	30572
348.740	79270
348.825	86932
348.911	38832
348.997	32816
349.083	36848
349.168	17997
349.254	16515
349.340	16395
349.425	16143
349.511	19578
349.597	33970
349.682	28411
349.768	26248
349.854	19394
349.939	16601
350.025	17232
350.110	18427
350.196	17330
350.282	15101
350.367	15711
350.453	16859
350.538	21280
350.624	18900
350.709	16353
350.795	16064
350.880	25052
350.966	30660
351.051	16887
351.137	14733
351.222	14985
351.308	17262
351.393	20493
351.479	16115
351.564	14600
351.649	14722
351.735	15752
351.820	17014
351.906	30350
351.991	41439
352.076	21581
352.162	20585
352.247	15206
352.332	15745
352.418	14407
352.503	15909
352.588	24654
352.673	18990
352.759	15344
352.844	13917
352.929	15445
353.014	16665
353.100	20957
353.185	33491
353.270	27436
353.355	23218
353.441	16006
353.526	17259
353.611	16137
353.696	14846
353.781	15442
353.866	13419
353.952	14851
354.037	14265
354.122	17579
354.207	17138
354.292	16356
354.377	14405
354.462	13989
354.547	15319
354.632	17785
354.717	39845
354.802	58505
354.887	22569
354.972	22474
355.057	23106
355.142	19065
355.227	19369
355.312	15421
355.397	16537
355.482	19477
355.567	17316
355.652	24465
355.737	19798
355.822	25267
355.907	22425
355.991	16056
356.076	13493
356.161	15029
356.246	14630
356.331	16483
356.416	20047
356.501	47012
356.585	55608
356.670	28746
356.755	21020
356.840	26851
356.924	62911
357.009	95292
357.094	35685
357.179	23997
357.263	31616
357.348	19994
357.433	18085
357.517	26710
357.602	36549
357.687	28707
357.771	30176
357.856	22022
357.941	19404
358.025	38180
358.110	97250
358.195	44132
358.279	19118
358.364	18690
358.448	24547
358.533	36539
358.617	44384
358.702	37167
358.787	22617
358.871	19068
358.956	17848
359.040	17588
359.125	17280
359.209	18143
359.294	19808
359.378	33212
359.462	29907
359.547	19510
359.631	16320
359.716	16223
359.800	17459
359.885	18460
359.969	17780
360.053	35486
360.138	59140
360.222	23666
360.306	19019
360.391	18267
360.475	18414
360.559	20826
360.644	23122
360.728	24414
360.812	38011
360.896	58433
360.981	29490
361.065	22509
361.149	21738
361.233	22700
361.318	26742
361.402	25092
361.486	27770
361.570	24564
361.654	24439
361.739	29312
361.823	54001
361.907	70141
361.991	39388
362.075	45406
362.159	65267
362.243	113353
362.327	242922
362.411	291585
362.495	125519
362.580	72234
362.664	70945
362.748	83927
362.832	130414
362.916	253052
363.000	526427
363.084	579410
363.168	274965
363.252	111666
363.336	70858
363.420	59680
363.503	48501
363.587	44090
363.671	44263
363.755	45882
363.839	52994
363.923	58531
364.007	75628
364.091	101883
364.175	158196
364.258	304246
364.342	611682
364.426	792812
364.510	445412
364.594	183202
364.677	103538
364.761	96961
364.845	66696
364.929	43346
365.013	37199
365.096	32915
365.180	29666
365.264	26671
365.347	26289
365.431	23488
365.515	23333
365.598	23109
365.682	24410
365.766	22690
365.849	23360
365.933	22367
366.017	25221
366.100	25046
366.184	24549
366.267	28066
366.351	43314
366.435	30824
366.518	22822
366.602	21853
366.685	22168
366.769	23124
366.852	22450
366.936	22925
367.019	22402
367.103	22760
367.186	23910
367.270	21466
367.353	23658
367.436	28246
367.520	28064
367.603	26797
367.687	25163
367.770	24455
367.853	25661
367.937	30714
368.020	33418
368.104	22015
368.187	23172
368.270	22573
368.353	19430
368.437	19813
368.520	19532
368.603	20768
368.687	23789
368.770	30537
368.853	19690
368.936	19726
369.020	19367
369.103	17860
369.186	17222
369.269	18138
369.352	18730
369.436	17785
369.519	17419
369.602	16891
369.685	19612
369.768	20389
369.851	20643
369.934	17160
370.018	16804
370.101	17647
370.184	20093
370.267	18915
370.350	18769
370.433	24942
370.516	68014
370.599	156643
370.682	72256
370.765	29695
370.848	29406
370.931	36590
371.014	24612
371.097	16951
371.180	17898
371.263	16827
371.346	16785
371.429	19707
371.511	17051
371.594	17366
371.677	17640
371.760	19216
371.843	21683
371.926	51704
372.009	82595
372.091	33809
372.174	26740
372.257	39383
372.340	24445
372.423	20446
372.505	20764
372.588	19341
372.671	23345
372.754	34460
372.836	24447
372.919	19471
373.002	20828
373.085	19833
373.167	22856
373.250	27087
373.332	41914
373.415	64701
373.498	110347
373.580	78987
373.663	228833
373.746	204574
373.828	47115
373.911	28426
373.993	24552
374.076	23924
374.159	23914
374.241	25930
374.324	36353
374.406	32912
374.489	48763
374.571	87458
374.654	42998
374.736	34486
374.819	63112
374.901	84790
374.983	82083
375.066	36573
375.148	31569
375.231	30041
375.313	30782
375.395	31697
375.478	30116
375.560	30249
375.643	30572
375.725	38735
375.807	72848
375.890	49651
375.972	25644
376.054	25726
376.136	24127
376.219	23540
376.301	35517
376.383	59241
376.465	38494
376.548	25229
376.630	33638
376.712	52126
376.794	28901
376.877	18997
376.959	17597
377.041	17996
377.123	17067
377.205	18694
377.287	17897
377.369	19121
377.452	20689
377.534	20157
377.616	18563
377.698	19505
377.780	18219
377.862	19050
377.944	21038
378.026	26982
378.108	26841
378.190	18316
378.272	18656
378.354	17532
378.436	17311
378.518	17704
378.600	18870
378.682	21079
378.764	25919
378.846	23759
378.928	18664
379.010	20273
379.091	25629
379.173	27376
379.255	19579
379.337	17298
379.419	21414
379.501	30576
379.583	21080
379.664	18207
379.746	18729
379.828	26055
379.910	28299
379.991	26640
380.073	18130
380.155	17921
380.237	17279
380.318	17122
380.400	17790
380.482	18566
380.564	20079
380.645	32769
380.727	28575
380.809	20862
380.890	18758
380.972	19838
381.053	18152
381.135	18501
381.217	19496
381.298	26753
381.380	20918
381.461	23823
381.543	46173
381.624	48641
381.706	23936
381.787	20729
381.869	21349
381.951	38260
382.032	85643
382.113	53056
382.195	28305
382.276	35169
382.358	43385
382.439	51289
382.521	57811
382.602	78209
382.684	45071
382.765	62409
382.846	94620
382.928	154657
383.009	92314
383.090	94369
383.172	260255
383.253	302539
383.334	108660
383.416	87271
383.497	62803
383.578	74598
383.659	104748
383.741	259970
383.822	477790
383.903	224513
383.984	78891
384.066	78542
384.147	55519
384.228	39654
384.309	40766
384.390	44036
384.471	39298
384.553	35948
384.634	35055
384.715	37656
384.796	30893
384.877	34721
384.958	43526
385.039	36683
385.120	29343
385.201	28056
385.282	28380
385.363	32734
385.444	34583
385.525	40751
385.606	55762
385.687	50475
385.768	36831
385.849	38710
385.930	66590
386.011	86147
386.092	44792
386.173	37763
386.254	36730
386.335	52382
386.416	65537
386.496	47194
386.577	42151
386.658	35708
386.739	34514
386.820	37156
386.901	35636
386.981	41184
387.062	46845
387.143	50973
387.224	60513
387.304	62225
387.385	58748
387.466	57486
387.547	61762
387.627	63674
387.708	72363
387.789	87428
387.869	80350
387.950	59113
388.031	48233
388.111	44188
388.192	45434
388.273	46740
388.353	41651
388.434	37803
388.514	50692
388.595	71493
388.676	59702
388.756	39150
388.837	36559
388.917	36569
388.998	48739
389.078	58844
389.159	50583
389.239	32951
389.320	32071
389.400	28326
389.480	31907
389.561	38016
389.641	34306
389.722	31154
389.802	29661
389.883	33854
389.963	43813
390.043	37337
390.124	30003
390.204	29943
390.284	35852
390.365	31300
390.445	29555
390.525	29310
390.605	32402
390.686	31893
390.766	30889
390.846	31297
390.927	29366
391.007	29724
391.087	32103
391.167	31761
391.247	32036
391.328	34675
391.408	36102
391.488	36379
391.568	37669
391.648	41842
391.728	42263
391.808	44492
391.888	45235
391.969	50306
392.049	56947
392.129	60263
392.209	67782
392.289	76576
392.369	70708
392.449	71808
392.529	80423
392.609	91875
392.689	108309
392.769	134751
392.849	159618
392.929	209057
393.009	280790
393.089	394856
393.169	659327
393.248	1127625
393.328	1436851
393.408	1364188
393.488	996594
393.568	573825
393.648	344225
393.728	230263
393.807	165161
393.887	130178
393.967	105372
394.047	89385
394.127	76179
394.206	70314
394.286	64151
394.366	57561
394.446	55365
394.525	51072
394.605	49795
394.685	50026
394.764	56215
394.844	94784
394.924	118300
395.003	63717
395.083	45480
395.163	43119
395.242	42015
395.322	41583
395.402	40229
395.481	46589
395.561	59022
395.640	144077
395.720	259597
395.799	137162
395.879	65935
395.958	56096
396.038	58912
396.117	65504
396.197	72839
396.276	84629
396.356	97372
396.435	126603
396.515	173483
396.594	271329
396.673	513504
396.753	1000578
396.832	1324419
396.912	1095609
396.991	578026
397.070	297671
397.150	185034
397.229	155828
397.308	252673
397.388	390250
397.467	201590
397.546	89170
397.625	63894
397.705	58867
397.784	51188
397.863	46881
397.942	42219
398.022	40183
398.101	38164
398.180	37488
398.259	35670
398.338	32859
398.417	31183
398.497	30351
398.576	29659
398.655	28509
398.734	28226
398.813	25887
398.892	27673
398.971	27312
399.050	24338
399.129	25194
399.208	23928
399.287	23711
399.366	21318
399.445	21635
399.524	21792
399.603	19079
399.682	21380
399.761	22283
399.840	21963
399.919	23703
399.998	20345
400.077	19537
400.156	18969
400.235	23075
400.313	20368
400.392	19012
400.471	23851
400.550	25212
400.629	18674
400.708	20180
400.786	16841
400.865	17565
400.944	16084
401.023	19459
401.102	15724
401.180	17445
401.259	17759
401.338	15319
401.416	16377
401.495	14977
401.574	16984
401.652	16007
401.731	19184
401.810	20264
401.888	16900
401.967	14872
402.046	14557
402.124	15105
402.203	14554
402.281	16544
402.360	18220
402.438	23961
402.517	21719
402.596	17089
402.674	20560
402.753	21182
402.831	18691
402.910	25803
402.988	58004
403.066	128353
403.145	67606
403.223	56056
403.302	116523
403.380	90762
403.459	95791
403.537	46616
403.615	31711
403.694	21410
403.772	19835
403.850	19567
403.929	17840
404.007	18321
404.085	32343
404.164	37287
404.242	23025
404.320	23447
404.398	26581
404.477	30497
404.555	59502
404.633	46327
404.711	20136
404.789	19332
404.868	22565
404.946	19392
405.024	17964
405.102	15190
405.180	14711
405.258	13599
405.336	15329
405.415	16375
405.493	30555
405.571	33100
405.649	18498
405.727	16732
405.805	19896
405.883	23595
405.961	21354
406.039	16456
406.117	16176
406.195	19366
406.273	21935
406.351	49530
406.429	41675
406.507	18468
406.585	12870
406.663	14918
406.740	14402
406.818	13929
406.896	13697
406.974	16203
407.052	16375
407.130	30396
407.208	40468
407.285	36771
407.363	19895
407.441	18201
407.519	20692
407.596	23819
407.674	66476
407.752	200656
407.830	128569
407.907	34864
407.985	21925
408.063	28338
408.141	38493
408.218	23821
408.296	22260
408.373	24365
408.451	21682
408.529	20153
408.606	20121
408.684	21313
408.762	20942
408.839	23319
408.917	24013
408.994	26920
409.072	30901
409.149	38417
409.227	57383
409.304	77960
409.382	87669
409.459	103378
409.537	119916
409.614	112220
409.692	96139
409.769	97947
409.846	129055
409.924	144792
410.001	117384
410.079	88796
410.156	68763
410.233	53071
410.311	45038
410.388	40067
410.465	37143
410.543	33126
410.620	32532
410.697	31056
410.775	32264
410.852	33002
410.929	31965
411.006	32463
411.083	29164
411.161	27795
411.238	26884
411.315	24599
411.392	24113
411.469	23121
411.547	21927
411.624	19231
411.701	19943
411.778	19733
411.855	19583
411.932	18371
412.009	18808
412.086	19944
412.163	21532
412.240	17242
412.317	17281
412.394	17073
412.471	16030
412.548	14798
412.625	15039
412.702	15647
412.779	15530
412.856	15150
412.933	14135
413.010	14829
413.087	15364
413.164	16811
413.241	18138
413.318	13758
413.395	15332
413.471	14222
413.548	14922
413.625	14142
413.702	12881
413.779	12937
413.855	12377
413.932	12006
414.009	12175
414.086	12585
414.162	13448
414.239	13837
414.316	16020
414.393	20145
414.469	13958
414.546	11505
414.623	11850
414.699	12733
414.776	12846
414.853	12602
414.929	15685
415.006	12774
415.082	12237
415.159	12506
415.236	13738
415.312	13512
415.389	12857
415.465	12701
415.542	11793
415.618	11675
415.695	13544
415.771	11854
415.848	11462
415.924	11570
416.000	11927
416.077	13345
416.153	11993
416.230	11357
416.306	10657
416.383	10851
416.459	11935
416.535	11822
416.612	14798
416.688	14840
416.764	11313
416.841	10981
416.917	12234
416.993	11785
417.069	12509
417.146	12765
417.222	11939
417.298	12462
417.374	11281
417.451	12201
417.527	10115
417.603	11298
417.679	11261
417.755	11981
417.831	10997
417.908	13122
417.984	12160
418.060	12078
418.136	13320
418.212	13293
418.288	14519
418.364	15103
418.440	12663
418.516	13351
418.592	14060
418.668	17216
418.744	22540
418.820	20233
418.896	14944
418.972	13529
419.048	14452
419.124	16224
419.200	15123
419.276	15721
419.352	15312
419.428	18904
419.504	19731
419.579	18795
419.655	18607
419.731	18683
419.807	20606
419.883	24727
419.959	24443
420.034	21673
420.110	26602
420.186	31602
420.262	26637
420.337	23067
420.413	25261
420.489	26665
420.565	28340
420.640	28567
420.716	30303
420.792	29896
420.867	34820
420.943	35633
421.019	37972
421.094	41051
421.170	44124
421.245	46283
421.321	51955
421.397	61340
421.472	99525
421.548	180474
421.623	120450
421.699	84807
421.774	90453
421.850	102549
421.925	120174
422.001	140093
422.076	168437
422.152	207530
422.227	265537
422.302	350786
422.378	471510
422.453	634048
422.529	719621
422.604	531672
422.679	355368
422.755	587095
422.830	704123
422.905	599217
422.981	469396
423.056	363410
423.131	284304
423.207	222217
423.282	184054
423.357	151446
423.432	129173
423.508	118013
423.583	100967
423.658	89722
423.733	80146
423.808	75676
423.883	82450
423.959	95601
424.034	98290
424.109	92543
424.184	76897
424.259	55022
424.334	45446
424.409	40546
424.484	36723
424.559	34105
424.634	33341
424.709	30337
424.784	29857
424.859	28707
424.934	26808
425.009	29136
425.084	29504
425.159	24923
425.234	23029
425.309	23025
425.384	23885
425.459	20955
425.534	21408
425.609	20447
425.683	20964
425.758	19915
425.833	19106
425.908	19494
425.983	20253
426.058	24675
426.132	21525
426.207	18895
426.282	18851
426.357	16652
426.431	16708
426.506	16990
426.581	16669
426.655	16319
426.730	16721
426.805	18209
426.879	17759
426.954	13921
427.029	15792
427.103	21678
427.178	34113
427.253	21656
427.327	15775
427.402	14199
427.476	14985
427.551	14306
427.625	15212
427.700	16635
427.774	14949
427.849	15636
427.923	16686
427.998	19485
428.072	24643
428.147	49689
428.221	177299
428.296	387169
428.370	204041
428.444	49964
428.519	25902
428.593	23128
428.667	23417
428.742	30197
428.816	76486
428.890	268382
428.965	331009
429.039	98342
429.113	31403
429.188	22709
429.262	18753
429.336	17228
429.410	21199
429.485	24620
429.559	21881
429.633	20998
429.707	28851
429.781	70461
429.855	253572
429.930	297116
430.004	103122
430.078	81155
430.152	215823
430.226	527727
430.300	451283
430.374	148095
430.448	59502
430.522	40423
430.596	40650
430.670	105440
430.744	324053
430.818	293070
430.892	74193
430.966	25367
431.040	18746
431.114	15297
431.188	14189
431.262	14407
431.336	12905
431.410	14696
431.484	14614
431.557	16599
431.631	20687
431.705	39331
431.779	143697
431.853	377805
431.927	234376
432.000	54156
432.074	21499
432.148	15546
432.222	12145
432.295	11380
432.369	10340
432.443	10360
432.516	19965
432.590	29836
432.664	14690
432.737	8774
432.811	7662
432.885	8207
432.958	8406
433.032	7355
433.106	7603
433.179	8278
433.253	7955
433.326	7519
433.400	7482
433.473	8816
433.547	8179
433.620	8635
433.694	9072
433.767	9704
433.841	8361
433.914	9869
433.988	10336
434.061	13605
434.134	18155
434.208	11850
434.281	9388
434.355	9501
434.428	9518
434.501	9683
434.575	9406
434.648	9713
434.721	14314
434.795	22906
434.868	15466
434.941	11586
435.014	11298
435.088	12359
435.161	14166
435.234	16659
435.307	20312
435.381	25301
435.454	38288
435.527	59995
435.600	65290
435.673	57398
435.746	46398
435.819	37152
435.892	31677
435.966	26300
436.039	22400
436.112	22057
436.185	15637
436.258	13563
436.331	12993
436.404	12634
436.477	10259
436.550	11010
436.623	13714
436.696	13781
436.769	10546
436.842	9423
436.915	9291
436.987	9465
437.060	9535
437.133	9555
437.206	8007
437.279	8322
437.352	8233
437.425	7902
437.498	8431
437.570	8740
437.643	8080
437.716	7248
437.789	7305
437.861	7217
437.934	6712
438.007	7381
438.080	7724
438.152	8033
438.225	9820
438.298	22988
438.370	45956
438.443	19785
438.516	8790
438.588	8211
438.661	7308
438.734	8012
438.806	8038
438.879	8007
438.951	7632
439.024	7705
439.096	6975
439.169	7791
439.241	6598
439.314	7487
439.386	7339
439.459	9073
439.531	10594
439.604	8324
439.676	8829
439.749	6643
439.821	6659
439.893	7998
439.966	7565
440.038	8727
440.110	8150
440.183	7441
440.255	7943
440.327	10076
440.400	12555
440.472	25097
440.544	18912
440.617	8519
440.689	9642
440.761	9591
440.833	8603
440.905	8864
440.978	8404
441.050	8419
441.122	9077
441.194	9883
441.266	11322
441.338	11089
441.411	12041
441.483	15829
441.555	16258
441.627	11300
441.699	11290
441.771	11814
441.843	11952
441.915	13570
441.987	14450
442.059	18440
442.131	19140
442.203	23030
442.275	30287
442.347	49957
442.419	115424
442.491	378000
442.563	582253
442.635	267528
442.706	86077
442.778	46969
442.850	33699
442.922	30698
442.994	30320
443.066	34485
443.137	42607
443.209	56477
443.281	84993
443.353	173678
443.425	445322
443.496	829436
443.568	799970
443.640	402958
443.711	152438
443.783	74146
443.855	47859
443.926	34259
443.998	28988
444.070	25189
444.141	22086
444.213	21016
444.285	20315
444.356	18846
444.428	18975
444.499	18495
444.571	19223
444.642	20654
444.714	20529
444.785	22777
444.857	26300
444.928	29371
445.000	34941
445.071	45049
445.143	61066
445.214	90848
445.285	145942
445.357	318422
445.428	693019
445.500	885397
445.571	820010
445.642	588456
445.714	271023
445.785	115294
445.856	63624
445.928	46058
445.999	34277
446.070	28684
446.141	24669
446.213	24339
446.284	18704
446.355	17532
446.426	14904
446.497	14292
446.569	12212
446.640	12477
446.711	13351
446.782	11637
446.853	10837
446.924	11340
446.995	11267
447.066	14073
447.138	11652
447.209	8681
447.280	8060
447.351	7490
447.422	6970
447.493	7421
447.564	7229
447.635	7148
447.706	6333
447.777	6030
447.847	6484
447.918	5647
447.989	5697
448.060	5960
448.131	6144
448.202	6967
448.273	6119
448.344	6347
448.414	5708
448.485	5261
448.556	5814
448.627	5588
448.698	7226
448.768	4816
448.839	4617
448.910	5378
448.981	5891
449.051	6467
449.122	6341
449.193	5716
449.263	6162
449.334	5561
449.405	5540
449.475	7582
449.546	8019
449.616	9420
449.687	10271
449.758	7704
449.828	6279
449.899	6479
449.969	6045
450.040	5740
450.110	5597
450.181	5640
450.251	6873
450.322	5982
450.392	6287
450.463	6218
450.533	6317
450.604	6474
450.674	9723
450.744	16631
450.815	13233
450.885	11284
450.955	11596
451.026	12238
451.096	10444
451.166	11332
451.237	13095
451.307	15277
451.377	13067
451.447	9728
451.518	8717
451.588	8297
451.658	7542
451.728	6621
451.799	6111
451.869	6615
451.939	6485
452.009	7381
452.079	7661
452.149	7975
452.219	9015
452.289	9986
452.360	10953
452.430	13425
452.500	17621
452.570	29033
452.640	60908
452.710	131092
452.780	142181
452.850	90361
452.920	51443
452.990	31991
453.060	21910
453.129	16546
453.199	12778
453.269	11166
453.339	10252
453.409	9381
453.479	9190
453.549	13736
453.619	18924
453.688	10414
453.758	7996
453.828	6899
453.898	6178
453.968	6356
454.037	6261
454.087	6469
454.107	6491
454.168	7346
454.177	7373
454.247	13259
454.249	13171
454.316	9733
454.330	9200
454.386	6914
454.411	6309
454.456	5083
454.492	5753
454.525	6292
454.574	6493
454.595	6536
454.655	6571
454.665	6493
454.734	6873
454.736	7009
454.804	9198
454.817	9002
454.873	7880
454.898	7730
454.943	7347
454.979	6814
455.013	6203
455.060	7507
455.082	8053
455.141	7258
455.152	7102
455.221	9210
455.222	9315
455.291	11944
455.303	12855
455.360	15754
455.384	17656
455.430	19342
455.465	17658
455.499	16231
455.546	14124
455.569	13143
455.627	11121
455.638	10752
455.707	8363
455.708	8430
455.777	8725
455.789	8793
455.846	8821
455.869	8978
455.916	8987
455.950	8944
455.985	8876
456.031	8910
456.054	8825
456.112	8980
456.124	8985
456.193	10193
456.193	10126
456.262	10383
456.274	10586
456.332	11212
456.355	10908
456.401	10329
456.436	11045
456.470	11531
456.516	11381
456.540	11227
456.597	12003
456.609	12033
456.678	12386
456.678	12316
456.747	12296
456.759	12386
456.817	12688
456.840	13071
456.886	13470
456.920	13892
456.955	14334
457.001	15424
457.024	15677
457.082	15467
457.093	15429
457.162	16597
457.163	16688
457.232	17917
457.243	18202
457.301	19288
457.324	19758
457.370	21565
457.405	23702
457.439	26481
457.485	31542
457.508	34273
457.566	46092
457.577	49139
457.646	63043
457.647	63456
457.715	133087
457.727	149442
457.784	273352
457.808	349691
457.853	437950
457.889	501362
457.922	466502
457.969	333362
457.991	346467
458.050	416869
458.060	438080
458.129	705047
458.130	713269
458.198	666813
458.211	624150
458.267	373948
458.292	264252
458.336	198661
458.372	178081
458.405	225955
458.453	320304
458.474	407470
458.533	709836
458.543	733772
458.611	1034334
458.614	1042145
458.680	648392
458.694	538919
458.749	293226
458.775	201606
458.818	132517
458.855	98817
458.887	81574
458.936	64392
458.955	59511
459.016	49565
459.024	48385
459.093	42468
459.097	42121
459.162	35338
459.177	34400
459.230	31877
459.257	30652
459.299	29369
459.338	28784
459.368	28145
459.418	27118
459.437	26703
459.499	25272
459.505	25115
459.574	24646
459.579	24651
459.643	23972
459.659	23881
459.711	24279
459.740	24550
459.780	24643
459.820	24670
459.849	24255
459.900	23656
459.917	23452
459.981	22854
459.986	22799
460.054	22186
460.061	22206
460.123	23804
460.141	24517
460.191	26951
460.222	28761
460.260	29330
460.302	29861
460.328	30084
460.382	28581
460.397	29307
460.462	34845
460.465	35819
460.534	58948
460.543	61999
460.602	159165
460.623	196507
460.671	304182
460.703	396412
460.739	353175
460.783	268591
460.808	217297
460.864	58169
460.876	48062
460.944	28734
460.945	28550
461.013	25103
461.024	24547
461.081	22643
461.104	22336
461.150	22078
461.184	21944
461.218	22610
461.264	23522
461.286	23355
461.345	23253
461.355	23020
461.423	20914
461.425	20862
461.491	20185
461.505	20266
461.559	20586
461.585	20535
461.628	20536
461.665	20731
461.696	20588
461.745	20330
461.764	20512
461.825	20502
461.832	20546
461.901	21637
461.905	21710
461.969	20940
461.985	20784
462.037	21912
462.065	22417
462.105	21788
462.145	21038
462.173	21167
462.225	21482
462.241	21674
462.305	22418
462.310	22558
462.378	24936
462.385	25195
462.446	26062
462.465	26329
462.514	26273
462.545	26316
462.582	27316
462.625	28525
462.650	27517
462.705	25111
462.718	24876
462.785	22599
462.786	22575
462.854	20594
462.865	20413
462.922	21600
462.945	22036
462.990	21701
463.025	21345
463.058	21475
463.104	21679
463.126	21896
463.184	22591
463.194	23175
463.262	26987
463.264	27119
463.330	34191
463.344	36062
463.398	38533
463.424	39605
463.466	33067
463.504	24487
463.533	23458
463.583	22770
463.601	22503
463.663	22760
463.669	22731
463.737	21695
463.743	21650
463.805	24361
463.823	25007
463.873	23924
463.903	23426
463.940	24250
463.982	24709
464.008	24941
464.062	25870
464.076	25778
464.142	24907
464.144	24906
464.211	23707
464.221	23543
464.279	24105
464.301	24235
464.347	25353
464.381	26274
464.414	26224
464.461	26286
464.482	26055
464.540	25304
464.550	25194
464.617	23476
464.620	23392
464.685	24116
464.699	24335
464.753	24451
464.779	24440
464.820	24062
464.859	23606
464.888	23322
464.938	22791
464.956	23153
465.018	24259
465.023	24303
465.091	24646
465.098	24643
465.158	24430
465.177	24300
465.226	24510
465.257	24603
465.293	25498
465.336	26435
465.361	26486
465.416	26505
465.428	26371
465.495	25437
465.496	25470
465.563	24529
465.575	24395
465.631	25637
465.654	26045
465.698	26990
465.734	27858
465.765	27749
465.813	27268
465.833	27138
465.893	26535
465.900	26549
465.968	26273
465.972	26221
466.035	26150
466.052	26054
466.102	25235
466.131	24700
466.170	25436
466.210	26174
466.237	26280
466.290	26436
466.304	26609
466.369	26939
466.372	27003
466.439	27669
466.449	27688
466.506	26981
466.528	26710
466.573	27661
466.607	28159
466.641	29664
466.687	31846
466.708	31752
466.766	31137
466.775	31051
466.842	29965
466.845	29858
466.909	29589
466.925	29473
466.977	29828
467.004	29925
467.044	30180
467.083	30331
467.111	31292
467.163	32911
467.178	33082
467.242	33477
467.245	33556
467.312	33851
467.321	33826
467.379	35665
467.400	36224
467.446	36610
467.480	36756
467.559	36868
467.638	38518
467.717	40078
467.796	45370
467.875	48931
467.955	54110
468.034	61948
468.113	72117
468.192	92669
468.271	126429
468.350	174445
468.429	217030
468.508	216558
468.588	153109
468.667	136277
468.746	177166
468.825	140975
468.904	61602
468.983	45755
469.062	43078
469.141	41701
469.220	38214
469.299	37118
469.378	34403
469.456	37036
469.535	34288
469.614	33867
469.693	34440
469.772	34248
469.851	34856
469.930	34689
470.009	35711
470.088	37460
470.166	40127
470.245	48691
470.324	54810
470.403	49557
470.482	42760
470.560	38932
470.639	37391
470.718	40139
470.797	42265
470.875	58073
470.954	103335
471.033	98432
471.111	37602
471.190	37906
471.269	32478
471.347	33360
471.426	30900
471.505	30366
471.583	30147
471.662	33203
471.740	35373
471.819	36072
471.898	38634
471.976	32932
472.055	30154
472.133	40316
472.212	51441
472.290	33414
472.369	28864
472.447	28549
472.526	29207
472.604	31534
472.683	34680
472.761	37821
472.839	30901
472.918	32311
472.996	32082
473.075	33658
473.153	41530
473.231	46302
473.310	36913
473.388	35135
473.466	35193
473.545	36061
473.623	37697
473.701	39557
473.780	46326
473.858	75356
473.936	109693
474.014	52280
474.093	44990
474.171	55850
474.249	42047
474.327	34562
474.405	35435
474.484	36936
474.562	35711
474.640	34133
474.718	32289
474.796	31193
474.874	33507
474.952	31628
475.030	33379
475.108	32625
475.187	36023
475.265	46528
475.343	78586
475.421	89984
475.499	35815
475.577	31287
475.655	31970
475.733	30696
475.811	31276
475.889	29687
475.966	33223
476.044	36840
476.122	58395
476.200	86035
476.278	64931
476.356	31966
476.434	33447
476.512	48434
476.590	72318
476.667	55209
476.745	31068
476.823	29996
476.901	29717
476.979	29765
477.056	33701
477.134	53329
477.212	81763
477.290	46411
477.367	30394
477.445	28469
477.523	29149
477.601	27961
477.678	27629
477.756	27494
477.834	28906
477.911	29496
477.989	29469
478.066	31657
478.144	35594
478.222	55115
478.299	111464
478.377	111014
478.454	57664
478.532	38244
478.609	29532
478.687	30365
478.764	31857
478.842	39980
478.919	35396
478.997	29178
479.074	28477
479.152	28638
479.229	29870
479.307	30849
479.384	29326
479.461	29297
479.539	29675
479.616	28965
479.694	28523
479.771	29793
479.848	28804
479.926	29800
480.003	31585
480.080	31884
480.157	33217
480.235	32970
480.312	33852
480.389	35757
480.467	40259
480.544	54052
480.621	54515
480.698	46209
480.775	43109
480.853	45332
480.930	49164
481.007	43350
481.084	64762
481.161	108133
481.238	65914
481.315	39645
481.392	46530
481.470	77924
481.547	101321
481.624	57567
481.701	42996
481.778	44596
481.855	47817
481.932	52393
482.009	58528
482.086	65772
482.163	78145
482.240	113824
482.317	184604
482.393	148966
482.470	77297
482.547	63493
482.624	60887
482.701	63867
482.778	70052
482.855	63183
482.932	60128
483.009	65455
483.085	82847
483.162	113972
483.239	110652
483.316	88121
483.393	84110
483.469	74907
483.546	64798
483.623	59259
483.699	54230
483.776	53035
483.853	58876
483.930	53134
484.006	46540
484.083	49161
484.160	50385
484.236	49399
484.313	53167
484.389	58686
484.466	72479
484.543	90102
484.619	111243
484.696	112255
484.772	77580
484.849	58266
484.925	52285
485.002	52030
485.078	55908
485.155	53887
485.231	40271
485.308	38549
485.384	39455
485.461	42021
485.537	40071
485.614	35884
485.690	34831
485.766	34771
485.843	35169
485.919	36769
485.995	38132
486.072	35345
486.148	35812
486.224	36371
486.301	36015
486.377	35986
486.453	36626
486.530	43569
486.606	47958
486.682	42226
486.758	43650
486.835	51588
486.911	54883
486.987	56573
487.063	66934
487.139	93930
487.215	125812
487.292	123311
487.368	130046
487.444	171192
487.520	249613
487.596	401346
487.672	810695
487.748	2274795
487.824	3453326
487.900	1652667
487.976	518334
488.052	259612
488.128	168975
488.204	116448
488.280	94110
488.356	85342
488.432	68191
488.508	59882
488.584	55279
488.660	54051
488.736	48764
488.812	45079
488.888	43091
488.964	43529
489.039	51096
489.115	64274
489.191	61620
489.267	47210
489.343	39397
489.418	37581
489.494	35739
489.570	35718
489.646	38540
489.722	36471
489.797	38534
489.873	38556
489.949	39794
490.024	38971
490.100	38161
490.176	38786
490.251	39313
490.327	40726
490.403	38330
490.478	38188
490.554	37160
490.629	36389
490.705	34865
490.781	36493
490.856	35211
490.932	36096
491.007	35259
491.083	32373
491.158	32481
491.234	30989
491.309	30721
491.385	29810
491.460	29194
491.536	31248
491.611	28993
491.686	29211
491.762	30351
491.837	35232
491.913	41144
491.988	47369
492.063	55262
492.139	30603
492.214	27562
492.289	26599
492.365	25753
492.440	26913
492.515	27084
492.590	26995
492.666	26514
492.741	27288
492.816	26607
492.891	26732
492.967	28448
493.042	29353
493.117	28165
493.192	27787
493.267	33605
493.342	57339
493.418	67049
493.493	28937
493.568	24815
493.643	24454
493.718	25392
493.793	25237
493.868	26745
493.943	27405
494.018	24526
494.093	24283
494.168	24349
494.243	23206
494.318	24789
494.393	24120
494.468	23884
494.543	24628
494.618	24300
494.693	24348
494.768	25183
494.842	25031
494.917	26414
494.992	24756
495.067	24128
495.142	24720
495.217	25262
495.292	24055
495.366	23951
495.441	23818
495.516	27197
495.591	28517
495.665	47967
495.740	81816
495.815	45476
495.890	26796
495.964	26046
496.039	30563
496.114	45258
496.188	94041
496.263	66046
496.338	29102
496.412	25321
496.487	25289
496.561	26780
496.636	25925
496.710	28733
496.785	34556
496.860	26112
496.934	22867
497.009	24157
497.083	23582
497.158	23476
497.232	24010
497.307	23511
497.381	24775
497.455	23613
497.530	22543
497.604	23160
497.679	23373
497.753	23148
497.827	22105
497.902	22215
497.976	23458
498.050	24232
498.125	23483
498.199	25398
498.273	26280
498.348	26054
498.422	24434
498.496	25489
498.570	26252
498.645	23251
498.719	22584
498.793	24703
498.867	23751
498.941	23807
499.016	24235
499.090	25417
499.164	26586
499.238	26867
499.312	29004
499.386	30571
499.460	34097
499.534	30688
499.609	31630
499.683	29721
499.757	26840
499.831	26108
499.905	25110
499.979	24179
500.053	25858
500.127	27199
500.201	28988
500.275	28547
500.349	27073
500.422	28029
500.496	30208
500.570	35095
500.644	34868
500.718	32070
500.792	30847
500.866	29974
500.940	28423
501.013	30151
501.087	32182
501.161	33890
501.235	32095
501.309	33464
501.382	32074
501.456	33070
501.530	30239
501.603	28791
501.677	28414
501.751	28037
501.825	30787
501.898	29525
501.972	28980
502.046	28289
502.119	27243
502.193	28036
502.266	26255
502.340	27294
502.413	28138
502.487	28214
502.561	28337
502.634	32182
502.708	32688
502.781	32127
502.855	33048
502.928	31176
503.002	32162
503.075	31653
503.149	31773
503.222	34249
503.295	35586
503.369	38792
503.442	43402
503.516	52287
503.589	61091
503.662	74222
503.736	92284
503.809	123400
503.882	168524
503.956	258147
504.029	519680
504.102	1318103
504.175	1939679
504.249	945236
504.322	379972
504.395	201176
504.468	130290
504.542	92426
504.615	79279
504.688	66631
504.761	49319
504.834	45901
504.907	42507
504.980	39355
505.053	35585
505.127	31375
505.200	33653
505.273	28532
505.346	27437
505.419	26987
505.492	29466
505.565	26507
505.638	27470
505.711	24225
505.784	22032
505.857	22450
505.930	23565
506.003	23767
506.076	26080
506.149	22056
506.221	18841
506.294	22387
506.367	20565
506.440	33380
506.513	40744
506.586	22082
506.659	19770
506.731	19704
506.804	19536
506.877	20305
506.950	20796
507.022	24128
507.095	19464
507.168	19546
507.241	19907
507.313	19071
507.386	21189
507.459	22322
507.531	20036
507.604	19225
507.677	20366
507.749	22747
507.822	36338
507.894	22855
507.967	20917
508.040	18385
508.112	18875
508.185	18259
508.257	16392
508.330	20428
508.402	17602
508.475	19079
508.547	21822
508.620	17546
508.692	18345
508.765	17930
508.837	16831
508.909	17199
508.982	17579
509.054	17999
509.127	18345
509.199	17366
509.271	16610
509.344	17589
509.416	16613
509.488	17269
509.560	17184
509.633	16941
509.705	16932
509.777	16750
509.849	19561
509.922	15799
509.994	16845
510.066	17563
510.138	15304
510.210	17872
510.283	17320
510.355	17264
510.427	18393
510.499	18026
510.571	17877
510.643	15318
510.715	20038
510.787	14869
510.859	18155
510.931	18042
511.003	18881
511.076	18815
511.148	16193
511.219	17260
511.291	17503
511.363	17862
511.435	18166
511.507	20597
511.579	20327
511.651	18304
511.723	17429
511.795	18557
511.867	16753
511.939	18074
512.010	17271
512.082	18604
512.154	17217
512.226	18175
512.298	18380
512.369	18524
512.441	18937
512.513	19896
512.585	18018
512.656	20110
512.728	18421
512.800	17849
512.871	18658
512.943	19175
513.015	17878
513.086	17954
513.158	19281
513.230	19654
513.301	24134
513.373	23530
513.444	20503
513.516	19265
513.588	19228
513.659	19781
513.731	19273
513.802	17586
513.874	22828
513.945	26597
514.016	18566
514.088	19330
514.159	18122
514.231	20437
514.302	18125
514.374	19111
514.445	17136
514.516	20810
514.588	18747
514.659	19568
514.730	16832
514.802	20464
514.873	16870
514.944	20835
515.016	19975
515.087	20395
515.158	19820
515.229	20434
515.301	18986
515.372	21478
515.443	20759
515.514	29806
515.585	29222
515.656	25464
515.728	26353
515.799	29019
515.870	26095
515.941	23227
516.012	22687
516.083	26939
516.154	25078
516.225	28546
516.296	31520
516.367	31931
516.438	35606
516.509	42393
516.580	57597
516.651	149821
516.722	498871
516.793	200421
516.864	55661
516.935	52872
517.006	61539
517.077	75150
517.148	152778
517.219	668235
517.289	1036375
517.360	154211
517.431	53797
517.502	41244
517.573	41724
517.643	38696
517.714	41305
517.785	46043
517.856	52371
517.926	63737
517.997	74986
518.068	90155
518.138	115808
518.209	169817
518.280	500334
518.350	1690114
518.421	723414
518.492	226909
518.562	244500
518.633	329677
518.703	521482
518.774	1074842
518.845	2317583
518.915	2150455
518.986	790710
519.056	344027
519.127	209021
519.197	150839
519.268	106219
519.338	80593
519.408	64925
519.479	59380
519.549	49567
519.620	47948
519.690	42097
519.760	38997
519.831	36511
519.901	33892
519.971	31171
520.042	30773
520.112	30572
520.182	28751
520.253	29381
520.323	25754
520.393	24296
520.463	26759
520.534	22620
520.604	27074
520.674	24650
520.744	23575
520.814	24050
520.885	25364
520.955	25240
521.025	22921
521.095	23570
521.165	24035
521.235	22769
521.305	22034
521.375	24153
521.445	24875
521.515	24798
521.585	26052
521.655	23742
521.725	25498
521.795	24252
521.865	21666
521.935	25709
522.005	23250
522.075	23794
522.145	26434
522.215	29569
522.285	27725
522.355	24490
522.424	27848
522.494	33667
522.564	30303
522.634	30324
522.704	48337
522.774	30700
522.843	27060
522.913	30004
522.983	29246
523.053	26988
523.122	27121
523.192	26303
523.262	35962
523.331	34956
523.401	27202
523.471	27407
523.540	27622
523.610	26428
523.680	28319
523.749	30765
523.819	37927
523.888	39768
523.958	31551
524.027	30346
524.097	30011
524.166	30300
524.236	29888
524.305	32755
524.375	30114
524.444	28895
524.514	31492
524.583	29890
524.653	30253
524.722	32915
524.791	32296
524.861	36003
524.930	33679
524.999	35837
525.069	37996
525.138	38018
525.207	40724
525.277	44687
525.346	46649
525.415	54191
525.484	64422
525.554	76713
525.623	97485
525.692	133541
525.761	148478
525.830	182456
525.900	243922
525.969	389379
526.038	766075
526.107	1438420
526.176	3459281
526.245	2827591
526.314	1012348
526.383	1945656
526.452	2564823
526.522	3003755
526.591	2783854
526.660	695101
526.729	393889
526.797	399605
526.867	573219
526.935	1437841
527.004	3650281
527.073	2729545
527.142	628046
527.211	261075
527.280	164963
527.349	118777
527.418	89563
527.487	74113
527.555	61453
527.624	55786
527.693	52617
527.762	53888
527.831	46032
527.899	43418
527.968	40851
528.037	38033
528.106	37097
528.174	37125
528.243	34846
528.312	35198
528.380	35152
528.449	31472
528.518	32820
528.586	29661
528.655	31349
528.723	29850
528.792	28693
528.861	29767
528.929	27122
528.998	27908
529.066	27274
529.135	27025
529.203	26214
529.272	27147
529.340	27708
529.409	29533
529.477	28391
529.545	25673
529.614	29581
529.682	28586
529.751	28171
529.819	30685
529.887	28943
529.956	26962
530.024	27346
530.092	26737
530.161	29421
530.229	30400
530.297	26516
530.365	28358
530.434	27948
530.502	26853
530.570	27457
530.638	25641
530.707	27846
530.775	28743
530.843	28155
530.911	29583
530.979	30772
531.047	29391
531.115	32276
531.183	30873
531.252	28572
531.320	28114
531.388	27047
531.456	29479
531.524	28505
531.592	29924
531.660	32279
531.728	28618
531.796	27879
531.864	29719
531.932	28838
532.000	29007
532.067	29041
532.135	30961
532.203	34905
532.271	35656
532.339	38098
532.407	44385
532.475	39895
532.542	36120
532.610	35659
532.678	36165
532.746	54007
532.814	82092
532.881	44158
532.949	37261
533.017	36499
533.084	34027
533.152	33290
533.220	33075
533.287	32449
533.355	33010
533.423	34738
533.490	35322
533.558	35778
533.625	37523
533.693	36060
533.761	37335
533.828	39303
533.896	37670
533.963	42627
534.031	47318
534.098	66188
534.166	64090
534.233	59105
534.300	67569
534.368	70131
534.435	73778
534.503	81087
534.570	92645
534.637	110237
534.705	132006
534.772	173358
534.840	364164
534.907	1516981
534.974	1834591
535.041	289072
535.109	113727
535.176	82010
535.243	70801
535.310	65170
535.378	59296
535.445	59960
535.512	62193
535.579	58860
535.646	56281
535.714	59519
535.781	63361
535.848	62737
535.915	58589
535.982	56150
536.049	57714
536.116	58353
536.183	56193
536.250	57051
536.317	57757
536.384	60435
536.451	61745
536.518	62302
536.585	60514
536.652	63249
536.719	62839
536.786	60267
536.853	59280
536.920	64571
536.987	64497
537.053	62796
537.120	82163
537.187	80886
537.254	69113
537.321	66726
537.388	68816
537.454	64193
537.521	65397
537.588	66184
537.654	65913
537.721	72637
537.788	71594
537.855	66346
537.921	67192
537.988	64607
538.055	62037
538.121	58624
538.188	58079
538.254	58105
538.321	60773
538.388	64484
538.454	77698
538.521	88590
538.587	74650
538.654	70083
538.720	67789
538.787	67491
538.853	66732
538.920	64378
538.986	58587
539.053	58618
539.119	63810
539.185	63446
539.252	66960
539.318	69593
539.385	74941
539.451	73119
539.517	69399
539.583	67832
539.650	71062
539.716	78622
539.782	65953
539.849	64083
539.915	65831
539.981	65897
540.047	63744
540.114	63097
540.180	66057
540.246	69559
540.312	75305
540.378	75087
540.444	72766
540.510	76052
540.576	86784
540.643	70131
540.709	68014
540.775	70941
540.841	64455
540.907	63619
540.973	64476
541.039	66725
541.105	67303
541.171	71799
541.237	73669
541.303	71823
541.369	74043
541.435	72868
541.500	69541
541.566	65114
541.632	64092
541.698	65057
541.764	69686
541.830	67664
541.896	67859
541.961	67429
542.027	69285
542.093	73561
542.159	73112
542.224	66717
542.290	70314
542.356	69651
542.421	68915
542.487	62816
542.553	61766
542.618	65125
542.684	66054
542.750	67450
542.815	69026
542.881	69659
542.947	83080
543.012	78765
543.078	65668
543.143	63990
543.209	67048
543.274	67142
543.340	67288
543.405	70601
543.471	76369
543.536	68972
543.602	69363
543.667	66784
543.732	70089
543.798	68749
543.863	70232
543.928	70124
543.994	68793
544.059	71722
544.124	74230
544.190	74754
544.255	75149
544.320	76091
544.386	74666
544.451	77443
544.516	76969
544.581	77466
544.646	83369
544.712	90932
544.777	78326
544.842	80233
544.907	78189
544.972	79246
545.037	83634
545.102	88407
545.168	84293
545.233	84676
545.298	86470
545.363	84749
545.428	91678
545.493	93746
545.558	99386
545.623	91967
545.688	91135
545.753	95241
545.818	97656
545.883	102904
545.947	104506
546.012	110522
546.077	111008
546.142	117937
546.207	122284
546.272	128312
546.337	130889
546.401	134858
546.466	140697
546.531	145590
546.596	155087
546.661	164082
546.725	170753
546.790	181514
546.855	195972
546.919	215588
546.984	237387
547.049	255363
547.113	290549
547.178	318669
547.243	357705
547.307	412681
547.372	452851
547.436	456232
547.501	479388
547.565	512925
547.630	473184
547.695	454712
547.759	457052
547.823	466974
547.888	471839
547.952	487647
548.017	506175
548.081	546527
548.146	515877
548.210	518003
548.274	556064
548.339	547905
548.403	500921
548.468	474053
548.532	470357
548.596	481756
548.660	483110
548.725	518312
548.789	562094
548.853	543265
548.917	522929
548.982	505762
549.046	460186
549.110	419432
549.174	430671
549.238	501106
549.303	546395
549.367	558989
549.431	534733
549.495	503750
549.559	504134
549.623	571770
549.687	623975
549.751	611962
549.815	715902
549.879	729869
549.943	704380
550.007	725805
550.071	722705
550.135	659651
550.199	634390
550.263	620855
550.327	585489
550.391	609024
550.455	677119
550.519	701521
550.582	738497
550.646	830908
550.710	845767
550.774	839550
550.838	862863
550.901	889413
550.965	945751
551.029	1010077
551.093	1103273
551.156	1249304
551.220	1430424
551.284	1509348
551.347	1176838
551.411	959333
551.475	881088
551.538	894039
551.602	828407
551.666	785354
551.729	738478
551.793	715842
551.856	701720
551.920	687632
551.983	686127
552.047	678669
552.110	680230
552.174	696303
552.237	704063
552.301	651382
552.364	624447
552.428	607974
552.491	630484
552.554	638251
552.618	633535
552.681	648231
552.745	624304
552.808	648799
552.871	686984
552.934	663455
552.998	640988
553.061	623908
553.124	600719
553.187	596883
553.251	616560
553.314	614898
553.377	617749
553.440	661699
553.503	687532
553.567	684540
553.630	656746
553.693	649140
553.756	650224
553.819	634139
553.882	607856
553.945	610566
554.008	618563
554.071	623251
554.134	624743
554.197	587710
554.260	570619
554.323	580237
554.386	592547
554.449	620964
554.512	619998
554.575	595641
554.638	590320
554.701	583655
554.764	580282
554.827	556559
554.889	542916
554.952	510809
555.015	502675
555.078	511684
555.141	519658
555.203	505231
555.266	505678
555.329	504154
555.391	485220
555.454	481317
555.517	470095
555.580	458667
555.642	440180
555.705	431778
555.768	427717
555.830	416119
555.893	393849
555.955	386218
556.018	381676
556.080	382633
556.143	394205
556.206	388803
556.268	378159
556.330	371159
556.393	361212
556.455	354374
556.518	344541
556.580	335452
556.643	326208
556.705	319120
556.767	317089
556.830	310387
556.892	306263
556.955	302617
557.017	294131
557.079	294299
557.142	287974
557.204	290323
557.266	296373
557.328	275831
557.391	254377
557.453	248438
557.515	249793
557.577	256721
557.639	260164
557.701	261050
557.764	263727
557.826	273381
557.888	284134
557.950	304148
558.012	341300
558.074	454875
558.136	956609
558.198	2056720
558.260	837965
558.322	348650
558.384	328838
558.446	339862
558.508	369357
558.570	420400
558.632	494358
558.694	649215
558.756	1061150
558.818	2389643
558.880	3742074
558.942	2365352
559.003	2303387
559.065	1207107
559.127	507376
559.189	454405
559.251	497660
559.312	700437
559.374	1458473
559.436	3141262
559.498	1994550
559.559	639469
559.621	475784
559.683	522593
559.744	806335
559.806	2024135
559.868	2670080
559.929	889642
559.991	543882
560.052	821292
560.114	2008030
560.176	1385951
560.237	1253263
560.299	1850900
560.360	504437
560.422	205951
560.483	162842
560.545	146673
560.606	137375
560.667	129693
560.729	122938
560.790	116109
560.852	111994
560.913	109066
560.974	106623
561.036	106454
561.097	106202
561.158	102355
561.220	101044
561.281	97029
561.342	94183
561.403	94431
561.465	94448
561.526	97143
561.587	97383
561.648	87626
561.709	85868
561.771	85528
561.832	83954
561.893	83610
561.954	83944
562.015	86197
562.076	79983
562.137	79518
562.198	78431
562.259	79172
562.320	81512
562.381	81744
562.442	79634
562.503	76474
562.564	73826
562.625	72953
562.686	72694
562.747	72411
562.808	72981
562.869	72582
562.930	73514
562.991	71674
563.051	68757
563.112	70035
563.173	69144
563.234	68132
563.294	67040
563.355	66155
563.416	66275
563.477	66976
563.537	66282
563.598	65043
563.659	66182
563.720	64731
563.780	66222
563.841	66342
563.901	66690
563.962	64967
564.023	61446
564.083	62879
564.144	61972
564.204	62336
564.265	61417
564.325	61547
564.386	62307
564.446	59809
564.507	59210
564.567	58865
564.628	57923
564.688	58445
564.749	57721
564.809	58646
564.869	58905
564.930	56508
564.990	58164
565.050	56477
565.111	56529
565.171	56566
565.231	57345
565.292	56307
565.352	56460
565.412	56227
565.472	55803
565.532	55056
565.593	55144
565.653	55239
565.713	56119
565.773	56784
565.833	59129
565.893	60814
565.953	54894
566.013	54015
566.074	52462
566.134	52921
566.194	50488
566.254	52855
566.314	53908
566.374	55050
566.434	62137
566.494	58766
566.554	53740
566.614	53482
566.673	55388
566.733	55930
566.793	55340
566.853	55148
566.913	54887
566.973	54980
567.033	54435
567.092	54272
567.152	55262
567.212	54177
567.272	54316
567.331	56688
567.391	57126
567.451	57987
567.511	58421
567.570	57583
567.630	57903
567.690	54666
567.749	54528
567.809	54654
567.868	54536
567.928	52987
567.988	55636
568.047	60172
568.107	60492
568.166	55914
568.226	53055
568.285	56076
568.345	56327
568.404	56247
568.464	54880
568.523	55514
568.582	55062
568.642	55238
568.701	52341
568.761	51497
568.820	52029
568.879	52091
568.939	53230
568.998	54249
569.057	53237
569.116	53805
569.176	55030
569.235	54603
569.294	54352
569.353	51620
569.413	51209
569.472	51624
569.531	51557
569.590	50204
569.649	50991
569.708	50960
569.767	51936
569.827	51433
569.886	50509
569.945	50034
570.004	52923
570.063	51507
570.122	53903
570.181	54154
570.240	54733
570.299	55898
570.358	54346
570.417	54699
570.475	55259
570.534	55674
570.593	56355
570.652	55432
570.711	55948
570.770	54176
570.829	53387
570.887	55585
570.946	56471
571.005	55947
571.064	57426
571.122	56962
571.181	56089
571.240	56952
571.299	53440
571.357	53174
571.416	52451
571.475	53121
571.533	57466
571.592	61229
571.650	60834
571.709	65186
571.768	75779
571.826	84140
571.885	74314
571.943	64821
572.002	59272
572.060	56143
572.119	54671
572.177	53907
572.236	54921
572.294	57432
572.352	61689
572.411	64495
572.469	61326
572.528	58208
572.586	56982
572.644	55045
572.703	53691
572.761	52573
572.819	52952
572.877	51952
572.936	51479
572.994	51496
573.052	51948
573.110	54500
573.169	57950
573.227	58550
573.285	55766
573.343	53991
573.401	54742
573.459	56743
573.517	62338
573.576	71695
573.634	63506
573.692	60312
573.750	63314
573.808	58703
573.866	55293
573.924	52945
573.982	52699
574.040	54167
574.098	53983
574.155	53209
574.213	53162
574.271	56230
574.329	64986
574.387	59087
574.445	53262
574.503	50690
574.560	49678
574.618	50849
574.676	52906
574.734	52525
574.792	51861
574.849	48683
574.907	44849
574.965	43780
575.022	44017
575.080	42015
575.138	41011
575.195	41283
575.253	39892
575.311	40946
575.368	41230
575.426	40436
575.483	43029
575.541	44935
575.598	43773
575.656	45055
575.713	46782
575.771	50272
575.828	49505
575.886	44487
575.943	42396
576.001	40489
576.058	40188
576.115	39915
576.173	41716
576.230	44423
576.287	44928
576.345	42454
576.402	46045
576.459	47240
576.517	43319
576.574	41043
576.631	38653
576.688	38446
576.746	36755
576.803	36541
576.860	36503
576.917	38072
576.974	38013
577.031	38443
577.089	37074
577.146	36175
577.203	35948
577.260	35700
577.317	35387
577.374	36253
577.431	34821
577.488	33927
577.545	34375
577.602	34922
577.659	35152
577.716	35996
577.773	35769
577.830	35576
577.886	36857
577.943	35503
578.000	34852
578.057	35120
578.114	35295
578.171	34741
578.227	34186
578.284	34254
578.341	35546
578.398	35850
578.454	34379
578.511	34438
578.568	35824
578.625	35413
578.681	35617
578.738	35720
578.794	35094
578.851	35329
578.908	35607
578.964	36005
579.021	35939
579.077	36026
579.134	36611
579.190	36182
579.247	34564
579.303	34681
579.360	36620
579.416	34497
579.473	36470
579.529	35281
579.586	35967
579.642	36284
579.698	39523
579.755	45748
579.811	40412
579.867	36048
579.924	36201
579.980	36260
580.036	36373
580.093	36746
580.149	36553
580.205	37133
580.261	37886
580.317	39267
580.374	38866
580.430	39951
580.486	40060
580.542	39228
580.598	39350
580.619	39556
580.654	39954
580.692	40044
580.710	40149
580.765	39484
580.767	39502
580.823	40562
580.838	40905
580.879	41942
580.911	42607
580.935	43171
580.984	41483
580.991	41291
581.047	41815
581.057	41343
581.103	39387
581.130	39241
581.159	39166
581.203	38275
581.215	38072
581.270	37454
581.276	37380
581.326	36904
581.349	36649
581.382	36332
581.422	36804
581.438	37033
581.494	36996
581.494	36966
581.550	35956
581.567	35907
581.606	35825
581.640	36324
581.661	36678
581.713	37801
581.717	37907
581.773	37285
581.786	37054
581.829	36277
581.859	36712
581.885	37192
581.932	37916
581.940	38047
581.996	37369
582.004	37281
582.052	36878
582.077	36948
582.107	37028
582.150	36783
582.163	36711
582.219	36194
582.223	36141
582.274	35774
582.296	35575
582.330	35241
582.368	36050
582.386	36501
582.441	37195
582.441	37200
582.497	37050
582.514	36642
582.552	35999
582.587	36493
582.608	36697
582.659	36851
582.663	36867
582.719	38331
582.732	38162
582.774	37828
582.805	36990
582.830	36352
582.877	37940
582.885	38167
582.941	37003
582.950	37109
582.996	37683
583.023	37213
583.052	36849
583.095	37202
583.107	37228
583.162	37281
583.168	37225
583.218	36599
583.240	36443
583.273	36279
583.313	35700
583.328	35555
583.384	36491
583.385	36511
583.439	36999
583.458	37134
583.494	37516
583.531	38282
583.549	38572
583.603	37302
583.605	37264
583.660	37577
583.676	37787
583.715	38376
583.748	38775
583.770	39124
583.820	38642
583.825	38551
583.881	38538
583.893	38527
583.936	38614
583.965	39046
583.991	39544
584.038	39380
584.046	39302
584.101	40596
584.110	40468
584.156	39923
584.183	39903
584.211	39941
584.255	40865
584.266	41137
584.321	42021
584.328	41996
584.376	41655
584.400	42554
584.431	43851
584.472	44292
584.486	44422
584.541	45448
584.545	45605
584.596	48447
584.617	48885
584.651	49704
584.689	50782
584.706	51137
584.761	54134
584.762	54147
584.816	55707
584.834	57113
584.871	60127
584.906	62181
584.926	63285
584.978	68238
584.980	68490
585.035	76701
585.051	79570
585.090	86629
585.123	92652
585.145	97527
585.195	111204
585.200	112589
585.254	132922
585.267	138478
585.309	158059
585.340	175055
585.364	189889
585.412	223469
585.419	229206
585.473	290141
585.484	307764
585.528	401711
585.556	496969
585.583	641954
585.628	995810
585.637	1096514
585.692	1969849
585.700	2101550
585.747	2591970
585.772	2343577
585.801	1785420
585.845	933946
585.856	769115
585.910	381535
585.917	349154
585.965	240987
585.989	203611
586.019	173894
586.061	144679
586.074	137956
586.128	118711
586.133	117343
586.183	106704
586.205	102804
586.237	98763
586.277	94823
586.292	93540
586.346	90719
586.349	90523
586.401	88149
586.421	87496
586.455	86683
586.493	86373
586.509	86661
586.564	86405
586.565	86471
586.618	94065
586.637	97542
586.672	108665
586.709	124118
586.727	131883
586.781	154105
586.781	154138
586.835	127712
586.853	119854
586.889	105899
586.925	96389
586.944	92855
586.996	84867
586.998	84768
587.052	81478
587.068	80695
587.106	80507
587.140	80771
587.161	80908
587.212	80462
587.215	80523
587.269	81620
587.284	81906
587.323	83584
587.356	84664
587.377	85236
587.427	86702
587.431	86883
587.485	88879
587.499	89052
587.539	89967
587.571	91482
587.593	93269
587.643	97496
587.648	97805
587.702	98735
587.715	98963
587.755	99814
587.786	100126
587.810	101184
587.858	103414
587.864	104027
587.917	110404
587.930	111830
587.971	113742
588.001	112231
588.025	107658
588.073	99398
588.079	99322
588.133	98893
588.145	98780
588.187	98580
588.217	98450
588.241	99230
588.288	100635
588.295	100876
588.348	102623
588.360	102714
588.402	102302
588.431	101761
588.456	102574
588.503	104783
588.510	105399
588.564	110252
588.575	110926
588.617	111779
588.646	112290
588.671	113145
588.718	115103
588.725	115775
588.778	121708
588.789	123241
588.832	143321
588.861	161241
588.886	204536
588.932	301074
588.939	312197
588.993	404838
589.004	401718
589.047	234902
589.075	146643
589.100	128963
589.147	111195
589.154	110854
589.207	108443
589.218	107969
589.261	109313
589.290	110502
589.314	111900
589.361	114567
589.368	115634
589.421	124344
589.433	126921
589.475	161239
589.504	188189
589.528	228127
589.576	319892
589.582	313926
589.635	200392
589.647	178391
589.689	136206
589.718	114116
589.742	112927
589.790	110507
589.795	110748
589.849	112356
589.861	112592
589.902	112762
589.932	112350
589.955	112346
590.004	112077
590.009	112325
590.062	113286
590.075	113392
590.115	112687
590.146	111593
590.168	111807
590.218	111863
590.222	112276
590.275	116375
590.289	117230
590.328	118859
590.360	119521
590.381	120429
590.431	122054
590.435	122369
590.488	124594
590.503	125093
590.541	126752
590.574	127624
590.594	128817
590.645	131664
590.647	132012
590.700	135700
590.716	136593
590.753	140579
590.787	143854
590.806	145502
590.859	149402
590.859	149672
590.912	150988
590.930	151218
590.965	152905
591.001	154238
591.018	154111
591.071	152217
591.072	151943
591.124	150508
591.143	149858
591.177	151305
591.214	152442
591.230	153238
591.283	154923
591.285	154705
591.336	154484
591.356	154297
591.389	154272
591.427	153410
591.442	153516
591.495	152885
591.498	152574
591.547	154578
591.569	155278
591.600	157563
591.640	159783
591.653	160583
591.706	162655
591.711	162582
591.759	166754
591.782	168579
591.811	172682
591.853	177896
591.864	178307
591.917	178364
591.924	178036
591.969	177144
591.995	176155
592.022	177983
592.066	180158
592.075	181299
592.127	186357
592.137	186923
592.180	187687
592.208	187622
592.233	190414
592.279	194697
592.285	195761
592.338	201678
592.350	202614
592.390	203363
592.421	203253
592.443	206729
592.491	213166
592.495	213574
592.548	213345
592.562	212859
592.600	211653
592.633	209862
592.653	210446
592.704	209716
592.705	210981
592.775	214067
592.846	221607
592.916	223819
592.987	224369
593.058	227265
593.128	230291
593.199	232810
593.270	233204
593.341	237667
593.411	246447
593.482	258930
593.553	262633
593.623	260426
593.694	271969
593.764	277247
593.835	273307
593.906	278724
593.976	284081
594.047	292500
594.117	303580
594.188	312153
594.258	311450
594.329	310605
594.399	320766
594.470	329766
594.540	340822
594.611	347588
594.681	346726
594.751	345889
594.822	358303
594.892	372444
594.963	380271
595.033	391434
595.103	401720
595.174	407043
595.244	413895
595.314	426564
595.384	435985
595.455	450425
595.525	470376
595.595	483655
595.665	478698
595.736	468686
595.806	477198
595.876	483683
595.946	486343
596.016	507492
596.087	522755
596.157	521264
596.227	526418
596.297	550105
596.367	587523
596.437	616614
596.507	612880
596.577	609519
596.647	629342
596.717	661566
596.787	672411
596.857	669866
596.927	677226
596.997	678650
597.067	687400
597.137	694868
597.207	702001
597.277	703714
597.347	677343
597.417	655869
597.487	658023
597.557	671376
597.626	689718
597.696	694531
597.766	688892
597.836	649122
597.906	624339
597.975	609884
598.045	619127
598.115	642126
598.185	689546
598.254	764100
598.324	823560
598.394	841844
598.464	814150
598.533	796865
598.603	747524
598.672	727254
598.742	740711
598.812	746576
598.881	769573
598.951	757092
599.020	773741
599.090	800473
599.159	810307
599.229	778148
599.299	763284
599.368	787470
599.437	772482
599.507	717814
599.576	691139
599.646	682029
599.715	668300
599.785	669585
599.854	646590
599.924	639056
599.993	636258
600.062	653687
600.132	667568
600.201	703194
600.270	802458
600.340	846074
600.409	827401
600.478	821429
600.547	838753
600.617	758548
600.686	616627
600.755	561625
600.824	532827
600.894	519753
600.963	522844
601.032	513344
601.101	494741
601.170	471735
601.239	460662
601.308	458220
601.378	460491
601.447	458282
601.516	461215
601.585	466469
601.654	478124
601.723	473662
601.792	485415
601.861	500258
601.930	513161
601.999	518155
602.068	519129
602.137	532163
602.206	539190
602.275	538056
602.343	542145
602.412	548624
602.481	555515
602.550	556729
602.619	575166
602.688	578907
602.756	583764
602.825	586563
602.894	603466
602.963	615420
603.032	626355
603.100	629582
603.169	632862
603.238	638347
603.307	633750
603.375	645432
603.444	654741
603.513	668996
603.581	677247
603.650	685112
603.719	679047
603.787	697259
603.856	717362
603.924	733318
603.993	758455
604.061	785156
604.130	817604
604.198	829138
604.267	842597
604.335	857105
604.404	867023
604.472	877508
604.541	889168
604.609	895454
604.678	894242
604.746	898574
604.815	924896
604.883	940584
604.951	940660
605.020	951302
605.088	971031
605.156	991681
605.225	1006575
605.293	1006456
605.361	1007810
605.429	1019755
605.498	1036174
605.566	1054970
605.634	1104844
605.702	1136961
605.771	1167211
605.839	1167061
605.907	1150433
605.975	1113863
606.043	1098883
606.111	1100357
606.180	1094932
606.248	1087722
606.316	1077848
606.384	1075854
606.452	1078828
606.520	1110546
606.588	1145745
606.656	1153977
606.724	1136881
606.792	1078107
606.860	987817
606.928	913476
606.996	878896
607.064	865006
607.132	889599
607.200	938581
607.267	963369
607.335	979333
607.403	998978
607.471	963870
607.539	941774
607.607	943642
607.674	846073
607.742	846397
607.810	840525
607.878	839294
607.946	861630
608.013	898002
608.081	908351
608.149	913201
608.216	951039
608.284	974056
608.352	975224
608.419	968241
608.487	941783
608.555	931369
608.622	959157
608.690	1015305
608.757	1102977
608.825	1124368
608.893	1097385
608.960	1039099
609.028	1000469
609.095	998434
609.163	996147
609.230	899439
609.298	834959
609.365	877147
609.432	939895
609.500	1009469
609.567	1133395
609.635	1255835
609.702	1303687
609.769	1247955
609.837	1012549
609.904	907382
609.971	938527
610.039	1008561
610.106	1208326
610.173	1840082
610.241	2855318
610.308	2259632
610.375	1237260
610.442	1025512
610.509	957999
610.577	947249
610.644	955304
610.711	981092
610.778	998487
610.845	1036152
610.912	1086812
610.980	1121490
611.047	1122666
611.114	1103856
611.181	1071688
611.248	1073650
611.315	1117296
611.382	1149975
611.449	1185724
611.516	1198812
611.583	1180854
611.650	1195329
611.717	1209587
611.784	1232597
611.851	1275166
611.918	1331174
611.984	1491050
612.051	1828479
612.118	2535860
612.185	3431571
612.252	3091050
612.319	2011439
612.386	1624220
612.452	1450929
612.519	1357338
612.586	1324144
612.653	1342028
612.719	1399296
612.786	1328200
612.853	1241427
612.919	1215708
612.986	1226434
613.053	1173387
613.120	1111987
613.186	1080971
613.253	1082693
613.319	1091997
613.386	1110939
613.453	1128315
613.519	1110563
613.586	1088892
613.652	1107873
613.719	1089589
613.785	1105266
613.852	1117185
613.918	1110047
613.985	1118830
614.051	1163604
614.118	1146559
614.184	1110628
614.250	1125186
614.317	1157727
614.383	1117424
614.449	1133872
614.516	1124006
614.582	1134325
614.648	1110153
614.715	1107050
614.781	1086872
614.847	1087270
614.914	1081744
614.980	1055106
615.046	1056997
615.112	1090130
615.179	1093732
615.245	1102460
615.311	1086880
615.377	1101040
615.443	1120872
615.509	1134385
615.575	1169546
615.642	1165426
615.708	1192376
615.774	1243304
615.840	1301392
615.906	1372174
615.972	1562069
616.038	1998368
616.104	2816136
616.170	3570739
616.236	3436423
616.302	2507450
616.368	2095732
616.434	1664016
616.500	1471881
616.565	1570864
616.631	1883450
616.697	1679531
616.763	1633874
616.829	2108678
616.895	2927557
616.961	2906540
617.026	1955523
617.092	1396130
617.158	1240805
617.224	1171918
617.289	1082646
617.355	1033032
617.421	1018427
617.487	1006767
617.552	965969
617.618	958547
617.684	953438
617.749	954490
617.815	918904
617.880	899021
617.946	896766
618.012	911924
618.077	931058
618.143	890220
618.208	901696
618.274	954688
618.339	955317
618.405	814559
618.470	813170
618.536	813196
618.601	797942
618.667	748894
618.732	714652
618.798	705485
618.863	704463
618.928	701061
618.994	704045
619.059	695344
619.124	704849
619.190	695713
619.255	696809
619.320	697353
619.386	699004
619.451	692302
619.516	668635
619.581	679810
619.647	701432
619.712	701568
619.777	669703
619.842	676469
619.907	687810
619.972	700437
620.038	693149
620.103	678218
620.168	678128
620.233	690565
620.298	690543
620.363	703251
620.428	717138
620.493	732939
620.558	742534
620.623	745658
620.688	743487
620.753	740282
620.818	757381
620.883	755831
620.948	755528
621.013	749162
621.078	735482
621.143	747177
621.207	750875
621.272	744915
621.337	721312
621.402	713150
621.467	708840
621.532	704714
621.596	707873
621.661	689274
621.726	681589
621.791	693547
621.855	688837
621.920	682752
621.985	694123
622.049	707668
622.114	706302
622.179	715544
622.243	730277
622.308	757320
622.373	774822
622.437	760783
622.502	725679
622.566	718751
622.631	717577
622.695	732521
622.760	723795
622.824	723739
622.889	733449
622.953	738244
623.018	772559
623.082	781360
623.147	772361
623.211	752828
623.276	756765
623.340	729109
623.404	708686
623.469	709135
623.533	719194
623.597	705685
623.662	703735
623.726	658116
623.790	622626
623.854	609012
623.919	618095
623.983	625853
624.047	634734
624.111	640880
624.176	649642
624.240	654496
624.304	670830
624.368	650969
624.432	649806
624.496	666725
624.560	697407
624.625	703695
624.689	694249
624.753	726466
624.817	694794
624.881	683670
624.945	621175
625.009	604025
625.073	614458
625.137	636538
625.201	655559
625.265	659529
625.329	636435
625.393	641459
625.456	645284
625.520	663589
625.584	671589
625.648	692302
625.712	705502
625.776	694179
625.839	655110
625.903	573861
625.967	538252
626.031	570879
626.095	665374
626.158	626313
626.222	505679
626.286	475685
626.349	462045
626.413	432133
626.477	427596
626.540	437463
626.604	434028
626.668	427647
626.731	420227
626.795	420930
626.858	422981
626.922	417004
626.986	411484
627.049	414780
627.113	429123
627.176	414642
627.240	406490
627.303	408023
627.366	401233
627.430	408517
627.493	402491
627.557	395641
627.620	402006
627.684	422087
627.747	421428
627.810	390982
627.874	353989
627.937	343898
628.000	352795
628.064	344501
628.127	312960
628.190	306410
628.253	298850
628.317	286505
628.380	273450
628.443	269051
628.506	266301
628.569	257848
628.632	245704
628.696	243864
628.759	243775
628.822	233111
628.885	229000
628.948	226076
629.011	222633
629.074	217500
629.137	210889
629.200	209204
629.263	209144
629.326	204148
629.389	204483
629.452	200004
629.515	199138
629.578	195735
629.641	197565
629.704	200689
629.767	196080
629.830	190545
629.892	193846
629.955	193324
630.018	192141
630.081	188187
630.144	187067
630.207	185371
630.269	186912
630.332	179195
630.395	179888
630.458	174514
630.520	170175
630.583	170835
630.646	176042
630.708	177879
630.771	181469
630.834	187086
630.896	184814
630.959	183970
631.021	180385
631.084	180679
631.146	183589
631.209	190462
631.272	203229
631.334	194362
631.397	191572
631.459	193285
631.522	201989
631.584	208666
631.646	219835
631.709	229098
631.771	227021
631.834	217990
631.896	208824
631.958	197695
632.021	190806
632.083	184908
632.145	179964
632.208	175070
632.270	174137
632.332	172429
632.395	170883
632.457	173215
632.519	170843
632.581	167023
632.643	167854
632.706	166793
632.768	161230
632.830	167498
632.892	172595
632.954	172214
633.016	173162
633.078	171503
633.141	171663
633.203	169939
633.265	170020
633.327	167592
633.389	171400
633.451	171068
633.513	171503
633.575	177128
633.637	174641
633.698	181649
633.760	189943
633.822	197330
633.884	201462
633.946	207964
634.008	217075
634.070	222038
634.132	235629
634.193	256762
634.255	275548
634.317	281678
634.379	277038
634.441	259814
634.502	246733
634.564	217901
634.626	198899
634.687	188175
634.749	180117
634.811	176554
634.873	174073
634.934	173468
634.996	176981
635.057	174178
635.119	181515
635.181	183913
635.242	185359
635.304	181529
635.365	188511
635.427	181974
635.488	183007
635.550	183297
635.611	188358
635.673	191877
635.734	202888
635.796	214756
635.857	232211
635.918	251989
635.980	271233
636.041	288150
636.102	302508
636.164	306067
636.225	292128
636.286	258659
636.348	233907
636.409	210987
636.470	197333
636.531	186722
636.593	179049
636.654	172394
636.715	163786
636.776	164777
636.838	156316
636.899	153240
636.960	150638
637.021	149916
637.082	144617
637.143	142798
637.204	138856
637.265	140529
637.326	142071
637.387	146159
637.448	143213
637.509	141954
637.570	141820
637.631	140381
637.692	135692
637.753	133749
637.814	139472
637.875	137987
637.936	135080
637.997	133981
638.058	132118
638.119	132136
638.179	131364
638.240	129474
638.301	131375
638.362	125522
638.423	124209
638.483	123868
638.544	120620
638.605	126704
638.666	125111
638.726	124193
638.787	122866
638.848	124941
638.908	119865
638.969	118070
639.030	116048
639.090	115353
639.151	117769
639.211	118977
639.272	118833
639.332	122645
639.393	125771
639.453	134182
639.514	135397
639.574	120678
639.635	112467
639.695	111186
639.756	109301
639.816	108149
639.877	107568
639.937	109353
639.997	109821
640.058	108017
640.118	107914
640.178	108286
640.239	109992
640.299	108314
640.359	113239
640.420	120294
640.480	134799
640.540	154191
640.600	157988
640.661	145632
640.721	142074
640.781	150253
640.841	146524
640.901	116355
640.961	114757
641.021	118813
641.082	129659
641.142	117874
641.202	111578
641.262	105194
641.322	104816
641.382	103211
641.442	101743
641.502	102241
641.562	103931
641.622	109514
641.682	117751
641.742	133770
641.802	127175
641.861	109600
641.921	101684
641.981	99535
642.041	95911
642.101	93495
642.161	92566
642.221	95413
642.280	95526
642.340	96119
642.400	97574
642.460	99549
642.519	99651
642.579	102901
642.639	102598
642.698	100409
642.758	107187
642.818	103507
642.877	102836
642.937	103079
642.997	102484
643.056	102853
643.116	100917
643.175	104909
643.235	107428
643.294	111188
643.354	117113
643.414	125001
643.473	137721
643.532	163354
643.592	205167
643.651	289567
643.711	453057
643.770	800901
643.830	1590908
643.889	2230939
643.948	1079501
644.008	369960
644.067	222186
644.126	163863
644.186	139175
644.245	123686
644.304	113485
644.363	112029
644.423	105120
644.482	107885
644.541	115495
644.600	119779
644.659	141010
644.719	167509
644.778	231695
644.837	366909
644.896	691372
644.955	1305876
645.014	538399
645.073	188442
645.132	141091
645.191	124952
645.250	121116
645.309	122426
645.368	135279
645.427	178748
645.486	303417
645.545	497420
645.604	168830
645.663	111158
645.722	108084
645.781	114574
645.840	124276
645.898	143533
645.957	186411
646.016	265144
646.075	423210
646.134	753489
646.192	1585231
646.251	1872534
646.310	651164
646.369	264054
646.427	203635
646.486	153201
646.545	118682
646.603	108107
646.662	98805
646.721	94506
646.779	95417
646.838	100335
646.896	119068
646.955	155245
647.014	233242
647.072	417344
647.131	979580
647.189	510633
647.248	129931
647.306	98444
647.365	96035
647.423	85626
647.481	84761
647.540	76741
647.598	77167
647.657	76777
647.715	74376
647.773	70937
647.832	71966
647.890	66618
647.948	66824
648.007	66074
648.065	65126
648.123	66892
648.181	65434
648.240	64668
648.298	64143
648.356	64448
648.414	64111
648.472	62627
648.531	61065
648.589	61490
648.647	61440
648.705	62203
648.763	64589
648.821	65958
648.879	69843
648.937	82580
648.995	85935
649.053	99476
649.111	136739
649.169	205486
649.227	348367
649.285	687166
649.343	1461774
649.401	829034
649.459	205696
649.516	119540
649.574	96171
649.632	94156
649.690	99465
649.748	119360
649.806	171309
649.863	302831
649.921	755771
649.979	514366
650.037	105847
650.094	69678
650.152	63122
650.210	58769
650.268	61277
650.325	64365
650.383	71973
650.440	52119
650.498	48455
650.556	49097
650.613	51244
650.671	49819
650.728	51534
650.786	59728
650.843	80801
650.901	62320
650.958	47139
651.016	44933
651.073	43071
651.131	42962
651.188	39929
651.246	41063
651.303	40492
651.360	40479
651.418	40570
651.475	41692
651.532	39945
651.590	41883
651.647	39464
651.704	39830
651.762	39652
651.819	38148
651.876	38725
651.933	37734
651.990	38951
652.048	35038
652.105	36242
652.162	36604
652.219	35633
652.276	36194
652.333	36521
652.390	34409
652.448	34992
652.505	35740
652.562	35074
652.619	35628
652.676	35003
652.733	35898
652.790	33580
652.847	31371
652.904	33610
652.961	31721
653.017	31237
653.074	33302
653.131	32441
653.188	30662
653.245	32751
653.302	32541
653.359	32398
653.415	31135
653.472	30351
653.529	32124
653.586	30899
653.642	31664
653.699	33054
653.756	31123
653.813	31657
653.869	33202
653.926	32255
653.983	32434
654.039	32548
654.096	30922
654.152	30944
654.209	30641
654.266	32780
654.322	30204
654.379	32668
654.435	31591
654.492	30515
654.548	30676
654.605	31092
654.661	33040
654.717	31574
654.774	29410
654.830	30268
654.887	31179
654.943	33956
655.000	40730
655.056	36011
655.112	32732
655.168	31442
655.225	32471
655.281	31882
655.337	31697
655.394	30302
655.450	29201
655.506	29000
655.562	27914
655.618	29537
655.675	28225
655.731	28303
655.787	27510
655.843	30223
655.899	28923
655.955	31202
656.011	30380
656.067	28922
656.123	30031
656.179	29872
656.235	30620
656.291	29466
656.347	31514
656.403	29902
656.459	29594
656.515	28696
656.571	28071
656.627	27165
656.683	27977
656.739	28031
656.795	27830
656.850	27624
656.906	29033
656.962	29711
657.018	31071
657.074	37280
657.129	48324
657.185	74086
657.241	160859
657.297	89759
657.352	31837
657.408	27798
657.464	26222
657.519	25031
657.575	24612
657.630	25722
657.686	25194
657.742	25116
657.797	25933
657.853	25841
657.908	27193
657.964	25412
658.019	25339
658.075	24865
658.130	24684
658.186	24003
658.241	23285
658.297	23657
658.352	23033
658.407	22859
658.463	22939
658.518	23899
658.573	24477
658.629	22891
658.684	23341
658.739	22538
658.795	23192
658.850	22660
658.905	22411
658.960	23054
659.016	21661
659.071	22895
659.126	24407
659.181	24221
659.236	23126
659.291	23596
659.346	21948
659.401	22774
659.457	23018
659.512	22641
659.567	22780
659.622	22332
659.677	22208
659.732	21230
659.787	21618
659.842	21218
659.897	21906
659.952	21717
660.007	21023
660.061	21773
660.116	19935
660.171	20314
660.226	21967
660.281	23550
660.336	21405
660.391	20586
660.445	19763
660.500	19873
660.555	20157
660.610	20664
660.664	20120
660.719	18873
660.774	19504
660.828	19514
660.883	19455
660.938	20504
660.992	18788
661.047	19442
661.101	19678
661.156	19551
661.211	19723
661.265	20319
661.320	20138
661.374	20099
661.429	19830
661.483	20485
661.538	19067
661.592	21357
661.647	24185
661.701	30316
661.755	22501
661.810	19965
661.864	19567
661.919	18574
661.973	20984
662.027	19724
662.081	19688
662.136	19194
662.190	19256
662.244	18879
662.299	18120
662.353	20243
662.407	18571
662.461	17787
662.515	18571
662.569	17724
662.624	17463
662.678	17805
662.732	19342
662.786	18947
662.840	18150
662.894	19215
662.948	18176
663.002	18314
663.056	18735
663.110	18137
663.164	18593
663.218	19209
663.272	19184
663.326	19138
663.380	19092
663.434	19317
663.488	18020
663.542	17517
663.595	19754
663.649	18843
663.703	19458
663.757	18371
663.811	17894
663.864	18476
663.918	20186
663.972	18400
664.026	18693
664.079	18309
664.133	20119
664.187	18934
664.240	20840
664.294	21073
664.348	21127
664.401	19276
664.455	18803
664.508	18535
664.562	19759
664.615	18613
664.669	18258
664.722	18107
664.776	17741
664.829	18695
664.883	19257
664.936	19363
664.990	18655
665.043	19186
665.097	17983
665.150	19962
665.203	18863
665.257	19129
665.310	20633
665.363	19715
665.417	20371
665.470	19964
665.523	21133
665.576	20310
665.630	20134
665.683	20518
665.736	21565
665.789	20056
665.842	18049
665.895	19048
665.949	19932
666.002	19851
666.055	19498
666.108	21958
666.161	20154
666.214	20281
666.267	20338
666.320	20639
666.373	21605
666.426	21520
666.479	21313
666.532	22516
666.585	23448
666.638	22205
666.691	20756
666.744	22089
666.796	21426
666.849	20657
666.902	20313
666.955	19132
667.008	20815
667.060	18929
667.113	20332
667.166	21438
667.219	21914
667.271	22428
667.324	21709
667.377	21401
667.430	19838
667.482	21335
667.535	20422
667.587	20226
667.640	20112
667.693	20207
667.745	21096
667.798	20988
667.850	19888
667.903	20209
667.955	21015
668.008	21005
668.060	20914
668.113	19364
668.165	19556
668.218	19758
668.270	19536
668.322	19371
668.375	19119
668.427	19520
668.479	19955
668.532	20593
668.584	19658
668.636	20166
668.689	19463
668.741	19888
668.793	20843
668.845	19503
668.898	19174
668.950	18622
669.002	20049
669.054	18131
669.106	19143
669.158	18765
669.211	17607
669.263	17847
669.315	18695
669.367	18864
669.419	18410
669.471	18997
669.523	18111
669.575	19430
669.627	17432
669.679	17828
669.731	18130
669.783	18073
669.835	18434
669.886	17796
669.938	17469
669.990	18574
670.042	17762
670.094	17077
670.146	17032
670.197	17497
670.249	17663
670.301	18520
670.353	17658
670.404	18310
670.456	17100
670.508	19397
670.560	20211
670.611	21206
670.663	25167
670.715	40106
670.766	49597
670.818	25259
670.869	21018
670.921	22417
670.972	23526
671.024	21106
671.075	19826
671.127	21334
671.178	23002
671.230	24844
671.281	27078
671.333	32199
671.384	37880
671.436	48946
671.487	66555
671.538	92495
671.590	141976
671.641	227361
671.692	394631
671.744	676316
671.795	575672
671.846	272991
671.897	137401
671.949	87868
672.000	62376
672.051	47158
672.102	39069
672.153	33518
672.204	28729
672.256	26998
672.307	24264
672.358	23172
672.409	21236
672.460	19551
672.511	18630
672.562	18048
672.613	16534
672.664	15865
672.715	17150
672.766	15760
672.817	15346
672.868	15228
672.919	14257
672.970	13704
673.021	15041
673.071	13608
673.122	13207
673.173	13563
673.224	14473
673.275	14758
673.326	13921
673.376	13347
673.427	12918
673.478	14485
673.528	15222
673.579	13915
673.630	14096
673.680	15710
673.731	14177
673.782	13701
673.832	13562
673.883	14204
673.934	12865
673.984	14006
674.035	14045
674.085	15032
674.136	14999
674.186	14961
674.237	14609
674.287	15542
674.338	16211
674.388	17451
674.438	16800
674.489	17650
674.539	18324
674.589	18076
674.640	16977
674.690	17397
674.740	16905
674.791	16398
674.841	15398
674.891	13101
674.942	12726
674.992	13227
675.042	12660
675.092	12152
675.142	11577
675.193	12655
675.243	13093
675.293	13806
675.343	14449
675.393	13759
675.443	13416
675.493	13274
675.543	13166
675.593	13673
675.643	13107
675.693	13412
675.743	13027
675.793	11413
675.843	11237
675.893	10909
675.943	11423
675.993	10720
676.043	10504
676.093	11517
676.142	12281
676.192	13604
676.242	11758
676.292	10463
676.341	10195
676.391	10899
676.441	10170
676.491	9760
676.540	9738
676.590	10383
676.640	10577
676.689	10105
676.739	9639
676.789	10628
676.838	10758
676.888	12534
676.937	9851
676.987	9928
677.037	10426
677.086	9383
677.136	9189
677.185	9188
677.235	10111
677.284	11236
677.333	10323
677.383	9238
677.432	9143
677.482	9153
677.531	8319
677.580	8903
677.630	9579
677.679	8829
677.728	9439
677.778	9515
677.827	8714
677.876	9133
677.925	9397
677.975	10807
678.024	12191
678.073	10964
678.122	11310
678.171	11978
678.220	13309
678.269	15704
678.319	17724
678.368	18213
678.417	14787
678.466	12001
678.515	9811
678.564	9452
678.613	8195
678.662	8830
678.711	9446
678.760	9558
678.809	10096
678.857	10684
678.906	11275
678.955	10214
679.004	10776
679.053	12033
679.102	11526
679.151	10403
679.199	8749
679.248	8487
679.297	8559
679.346	8394
679.394	7900
679.443	8256
679.492	9181
679.540	9473
679.589	9146
679.638	9725
679.686	9654
679.735	10743
679.784	13092
679.832	14535
679.881	13394
679.929	10350
679.978	8733
680.026	9292
680.075	9860
680.123	8228
680.172	7486
680.220	9031
680.268	7376
680.317	7269
680.365	8010
680.414	7583
680.462	7487
680.510	8581
680.559	8827
680.607	8077
680.655	9244
680.703	8192
680.752	8149
680.800	8243
680.848	7669
680.896	7539
680.945	7393
680.993	7538
681.041	8064
681.089	7558
681.137	7308
681.185	7701
681.233	7906
681.258	8012
681.281	8056
681.329	7318
681.377	7115
681.380	7199
681.425	7739
681.473	8342
681.502	8348
681.521	8247
681.569	9652
681.617	8610
681.624	8776
681.665	9422
681.713	8688
681.745	9379
681.761	9634
681.809	8697
681.857	10069
681.867	10139
681.904	10147
681.952	9540
681.989	9387
682.000	9267
682.048	9939
682.096	9625
682.111	9415
682.143	8812
682.191	8728
682.233	10012
682.239	10146
682.286	9655
682.334	9955
682.354	10146
682.382	10302
682.430	10977
682.476	10301
682.477	10237
682.525	9969
682.572	10459
682.598	10898
682.620	11215
682.667	10949
682.715	10991
682.720	11043
682.763	11038
682.810	13179
682.841	13359
682.857	13285
682.905	11426
682.952	11264
682.963	11475
683.000	11966
683.047	11378
683.085	12454
683.095	12784
683.142	12562
683.190	12341
683.206	12709
683.237	13116
683.284	13096
683.328	12758
683.332	12643
683.379	12433
683.426	12089
683.449	12126
683.473	12289
683.521	12687
683.568	13015
683.571	13051
683.615	13004
683.662	13248
683.693	12936
683.709	12628
683.757	12069
683.804	12406
683.814	12379
683.851	12202
683.898	12775
683.936	13152
683.945	13240
683.992	13419
684.039	13692
684.057	13421
684.086	12736
684.133	12320
684.179	13090
684.180	13087
684.227	13948
684.274	13241
684.300	13462
684.321	13612
684.368	13532
684.415	14533
684.422	14619
684.462	15432
684.509	15691
684.543	17284
684.556	17934
684.603	19743
684.649	21463
684.665	21540
684.696	20051
684.743	19221
684.786	18539
684.790	18481
684.837	17150
684.883	17057
684.908	16819
684.930	16712
684.977	16636
685.023	16115
685.029	16183
685.070	16602
685.117	16431
685.150	16009
685.164	15855
685.210	16109
685.257	17228
685.272	17133
685.303	16812
685.350	17216
685.393	16712
685.396	16628
685.443	16064
685.490	16109
685.514	15547
685.536	15161
685.583	15095
685.629	15880
685.636	15891
685.675	15941
685.722	16425
685.757	16504
685.768	16456
685.815	15628
685.861	16500
685.878	16367
685.908	16292
685.954	16422
686.000	17184
686.000	17182
686.047	17087
686.093	17995
686.121	18224
686.139	18338
686.185	18130
686.232	18360
686.242	18241
686.278	17556
686.324	18280
686.363	17508
686.370	17403
686.416	17933
686.463	18077
686.484	18084
686.509	18030
686.555	18116
686.601	17890
686.606	17894
686.647	17753
686.693	17796
686.727	17639
686.739	17598
686.785	17464
686.831	17402
686.848	17394
686.877	17412
686.923	18348
686.969	17863
686.969	17859
687.015	18799
687.061	19281
687.090	20059
687.107	20302
687.153	20052
687.199	19973
687.211	19694
687.245	18913
687.291	18937
687.332	19317
687.336	19404
687.382	20256
687.428	20727
687.453	21172
687.474	21555
687.520	21686
687.565	21931
687.574	22089
687.611	23841
687.657	26562
687.695	28616
687.702	29430
687.748	35873
687.794	43987
687.816	44481
687.839	40263
687.885	33650
687.931	28767
687.937	28035
687.976	26046
688.022	23896
688.058	22235
688.067	22211
688.113	21665
688.158	21556
688.179	21183
688.204	21177
688.249	22156
688.295	22933
688.300	22918
688.340	22712
688.386	23082
688.421	23104
688.431	23137
688.477	22903
688.522	23773
688.542	24164
688.567	25198
688.613	26527
688.658	27912
688.663	27960
688.703	29207
688.749	32071
688.784	33581
688.794	33147
688.839	30537
688.884	29267
688.905	28059
688.930	27041
688.975	25717
689.020	24041
689.026	23864
689.065	24406
689.110	24972
689.146	25639
689.155	25836
689.201	26796
689.246	26619
689.267	26933
689.291	26415
689.336	25317
689.381	23687
689.388	23443
689.426	23499
689.471	24051
689.509	24372
689.516	24439
689.561	24931
689.606	24607
689.630	24576
689.651	24560
689.696	24247
689.741	24922
689.750	25010
689.785	25581
689.830	25294
689.871	25395
689.875	25429
689.920	25699
689.965	26000
689.992	26038
690.010	26016
690.054	25636
690.099	25316
690.112	25439
690.144	25651
690.189	24967
690.233	24258
690.233	24287
690.278	25100
690.323	25192
690.354	25786
690.367	26053
690.412	26272
690.457	25418
690.474	25803
690.501	26106
690.546	25265
690.590	25399
690.595	25250
690.635	25172
690.680	25870
690.716	26432
690.724	26355
690.769	25759
690.813	25585
690.836	24783
690.857	24577
690.902	25494
690.946	25316
690.957	25399
690.991	25597
691.035	25145
691.077	25432
691.080	25492
691.124	25516
691.168	25554
691.198	25283
691.213	25159
691.257	25445
691.301	25371
691.318	25480
691.346	25793
691.390	25532
691.434	25448
691.439	25400
691.478	25616
691.522	26285
691.559	26736
691.567	26984
691.611	28160
691.655	29135
691.680	29746
691.699	29449
691.743	28334
691.787	27359
691.800	26881
691.831	26801
691.875	27391
691.919	27740
691.921	27714
691.964	27775
692.008	27540
692.041	27438
692.052	27663
692.096	28023
692.139	28527
692.162	29037
692.183	29328
692.227	29188
692.271	29004
692.282	28962
692.315	28785
692.359	28655
692.402	28242
692.403	28289
692.447	27896
692.490	27945
692.523	27881
692.534	27929
692.578	27703
692.622	27596
692.643	27619
692.666	27749
692.709	27679
692.753	27564
692.763	27522
692.797	27855
692.840	28224
692.884	28455
692.884	28508
692.928	28512
692.971	28654
693.004	28799
693.015	28975
693.059	29534
693.102	30029
693.124	30179
693.146	30432
693.189	31141
693.233	31180
693.245	31286
693.276	31048
693.320	30786
693.363	29664
693.365	29590
693.407	29672
693.450	29487
693.485	29450
693.493	29573
693.537	29692
693.580	29992
693.605	29980
693.624	29856
693.667	29502
693.710	29252
693.725	29057
693.753	29014
693.797	28878
693.840	28984
693.845	28912
693.883	28993
693.926	29165
693.966	28895
693.970	28956
694.013	29185
694.056	29998
694.086	30038
694.099	30085
694.142	30188
694.185	30184
694.206	30185
694.229	30423
694.272	30889
694.315	31189
694.326	31214
694.358	31209
694.401	31135
694.444	30809
694.446	30746
694.487	31181
694.530	31361
694.566	31234
694.573	31379
694.616	32308
694.659	33264
694.686	33675
694.702	34287
694.745	35963
694.787	37472
694.806	38044
694.830	37380
694.873	36072
694.916	34656
694.926	34273
694.959	34601
695.002	35147
695.044	35395
695.046	35340
695.087	36569
695.130	37509
695.166	38392
695.172	39054
695.215	42763
695.258	46727
695.286	49248
695.301	50337
695.343	53454
695.386	55675
695.406	56838
695.428	54809
695.471	50990
695.514	47065
695.526	45918
695.556	48291
695.599	51184
695.641	53494
695.646	53679
695.684	51633
695.726	49285
695.766	46956
695.769	46997
695.811	46066
695.854	45003
695.886	44379
695.896	44820
695.938	45981
695.981	47163
696.005	47792
696.023	48837
696.065	51226
696.108	53509
696.125	54362
696.150	54843
696.192	55522
696.235	55829
696.245	55850
696.277	56303
696.319	56771
696.361	57163
696.365	57053
696.404	56771
696.446	56493
696.485	56251
696.488	56622
696.530	59584
696.572	62752
696.604	64951
696.614	64347
696.656	61091
696.698	57861
696.724	55756
696.740	55714
696.783	55340
696.825	54883
696.844	54587
696.867	55122
696.909	55785
696.951	56455
696.964	56560
696.992	56708
697.034	56585
697.076	56560
697.083	56460
697.118	58282
697.160	60074
697.202	61855
697.203	61761
697.244	61336
697.286	60943
697.323	60314
697.327	60409
697.369	59978
697.411	59634
697.442	59179
697.453	59363
697.494	59622
697.536	59820
697.562	59807
697.578	59966
697.620	60005
697.661	60069
697.682	60015
697.703	61051
697.744	62698
697.786	64411
697.801	64833
697.828	64510
697.869	63822
697.911	63161
697.921	62857
697.952	62336
697.994	61370
698.035	60455
698.040	60199
698.077	61316
698.118	62444
698.160	63578
698.160	63434
698.201	65025
698.243	66518
698.279	67742
698.284	68069
698.325	69541
698.367	71046
698.399	72039
698.408	72386
698.449	73215
698.491	74001
698.518	74346
698.532	74405
698.573	74098
698.614	73719
698.638	73350
698.656	73819
698.697	74474
698.738	75144
698.757	75282
698.779	75666
698.820	76021
698.862	76403
698.877	76356
698.903	79806
698.944	85009
698.985	90238
698.996	91462
699.026	92328
699.067	93217
699.116	94048
699.235	77521
699.354	84633
699.474	80504
699.593	70244
699.713	71707
699.832	70488
699.951	72807
700.070	70220
700.190	65705
700.309	63979
700.428	65257
700.547	64404
700.667	62681
700.786	63109
700.905	59024
701.024	61770
701.143	59485
701.262	64352
701.381	64179
701.500	64506
701.619	61674
701.738	64552
701.857	62287
701.976	58020
702.095	61931
702.214	63554
702.333	61351
702.452	64509
702.571	69092
702.690	82918
702.809	68778
702.928	58851
703.047	56162
703.165	58940
703.284	59107
703.403	58161
703.522	57203
703.640	53556
703.759	55095
703.878	55167
703.997	55768
704.115	56548
704.234	56727
704.353	58946
704.471	52150
704.590	52759
704.708	52274
704.827	50988
704.946	50310
705.064	50953
705.183	49665
705.301	52242
705.420	48194
705.538	48566
705.656	49339
705.775	50661
705.893	51643
706.012	52928
706.130	46540
706.249	48108
706.367	45581
706.485	45375
706.604	45291
706.722	48026
706.840	60189
706.958	101635
707.077	70723
707.195	46517
707.313	43987
707.431	40911
707.549	40914
707.668	38204
707.786	44412
707.904	41819
708.022	44262
708.140	42822
708.258	41562
708.376	45644
708.494	42860
708.612	56180
708.730	65562
708.848	47122
708.966	47620
709.084	44544
709.202	44416
709.320	42008
709.438	50053
709.556	57703
709.674	84032
709.791	97905
709.909	38793
710.027	40235
710.145	55224
710.263	108008
710.380	71104
710.498	35810
710.616	35421
710.733	33757
710.851	36200
710.969	38963
711.086	50601
711.204	54219
711.322	41757
711.439	33915
711.557	31275
711.674	31929
711.792	32325
711.909	31855
712.027	32824
712.144	30528
712.262	32895
712.379	33267
712.497	31411
712.614	31336
712.732	32642
712.849	30346
712.966	33682
713.084	34987
713.201	32020
713.318	36132
713.436	38485
713.553	38695
713.670	43453
713.787	42676
713.905	40257
714.022	45103
714.139	50299
714.256	68921
714.373	111029
714.490	213605
714.608	576934
714.725	1847946
714.842	1576073
714.959	278744
715.076	107058
715.193	71496
715.310	56044
715.427	41926
715.544	41271
715.661	38700
715.778	34251
715.895	35163
716.011	35349
716.128	33220
716.245	32958
716.362	30294
716.479	28487
716.596	33205
716.713	44970
716.829	97611
716.946	75049
717.063	27877
717.180	24722
717.296	24816
717.413	25475
717.530	23611
717.646	23523
717.763	23652
717.880	23465
717.996	22175
718.113	22876
718.229	22103
718.346	22292
718.462	22437
718.579	23648
718.695	24140
718.812	22206
718.928	22990
719.045	21930
719.161	24620
719.277	26267
719.394	26579
719.510	27193
719.626	33878
719.743	47560
719.859	84428
719.975	199681
720.092	763496
720.208	1340450
720.324	218752
720.440	61277
720.557	39395
720.673	33281
720.789	26373
720.905	24808
721.021	24696
721.137	22052
721.253	20355
721.369	21270
721.486	21261
721.602	19935
721.718	20013
721.834	20022
721.950	19726
722.066	18170
722.181	18530
722.297	19402
722.413	19800
722.529	19054
722.645	19457
722.761	20215
722.877	21150
722.993	27412
723.108	42512
723.224	35318
723.340	24167
723.456	19176
723.571	18046
723.687	17646
723.803	18312
723.918	17997
724.034	16966
724.150	17905
724.265	16682
724.381	15726
724.497	16028
724.612	16124
724.728	16787
724.843	15665
724.959	15973
725.074	15869
725.190	17026
725.305	16188
725.421	16063
725.536	17892
725.651	18130
725.767	18107
725.882	17450
725.997	15483
726.113	16949
726.228	16190
726.343	17209
726.459	20582
726.574	15653
726.689	16286
726.804	15240
726.920	16003
727.035	15010
727.150	16145
727.265	14834
727.380	15804
727.495	15732
727.610	15115
727.725	14872
727.841	16368
727.956	18377
728.071	17203
728.186	14895
728.301	16265
728.416	17561
728.531	15976
728.645	14419
728.760	14569
728.875	15437
728.990	15050
729.105	16046
729.220	14974
729.335	16193
729.449	15909
729.564	15089
729.679	15380
729.794	17276
729.908	16501
730.023	16298
730.138	16844
730.253	18371
730.367	17151
730.482	18185
730.596	20464
730.711	24048
730.826	37333
730.940	42587
731.055	26904
731.169	28379
731.284	29567
731.398	31174
731.513	30536
731.627	39804
731.742	55280
731.856	64058
731.970	71146
732.085	98680
732.199	158694
732.313	302258
732.428	736551
732.542	1574359
732.656	875523
732.771	237743
732.885	120004
732.999	86604
733.113	77850
733.227	68966
733.342	61937
733.456	59484
733.570	58715
733.684	50921
733.798	48105
733.912	47929
734.026	48418
734.140	47112
734.254	44615
734.368	48559
734.482	43449
734.596	43925
734.710	41505
734.824	40627
734.938	40358
735.052	42376
735.166	39870
735.280	39379
735.393	37926
735.507	38794
735.621	36766
735.735	36357
735.849	39478
735.962	35021
736.076	38036
736.190	35059
736.303	36340
736.417	36231
736.531	34278
736.644	36030
736.758	35299
736.872	33806
736.985	34806
737.099	32015
737.212	35143
737.326	32821
737.439	35534
737.553	31072
737.666	33112
737.780	31678
737.893	33197
738.007	32211
738.120	33728
738.233	31608
738.347	33333
738.460	30088
738.573	33296
738.687	30820
738.800	30790
738.913	32776
739.026	30798
739.140	29051
739.253	30557
739.366	28851
739.479	29491
739.592	29263
739.705	27112
739.818	32824
739.932	26654
740.045	31668
740.158	29250
740.271	30615
740.384	28622
740.497	25242
740.610	29093
740.723	26756
740.836	26955
740.949	28351
741.062	30799
741.174	26400
741.287	27569
741.400	28025
741.513	24649
741.626	28646
741.739	26040
741.851	24924
741.964	27059
742.077	24655
742.189	24294
742.302	27782
742.415	25566
742.527	25779
742.640	24393
742.753	21812
742.865	24311
742.978	23901
743.090	22423
743.203	25901
743.316	23342
743.428	23939
743.541	24672
743.653	21592
743.766	25401
743.878	28657
743.990	29228
744.103	25418
744.215	23852
744.327	21886
744.440	28016
744.552	21254
744.664	21337
744.777	24950
744.889	22546
745.001	21998
745.113	24380
745.226	21485
745.338	21155
745.450	25029
745.562	21966
745.674	20953
745.786	24532
745.898	22043
746.010	20186
746.122	22377
746.234	22311
746.347	22226
746.459	21245
746.570	18732
746.682	25462
746.794	26131
746.906	19311
747.018	21483
747.130	22594
747.242	18519
747.354	19935
747.466	21106
747.577	18917
747.689	21002
747.801	21286
747.913	18468
748.024	18050
748.136	19057
748.248	17484
748.359	18722
748.471	20488
748.583	17072
748.694	17233
748.806	20253
748.918	17425
749.029	17816
749.141	18453
749.252	19493
749.364	16658
749.475	17160
749.587	16066
749.698	15811
749.809	17423
749.921	16423
750.032	15815
750.144	14988
750.255	16445
750.366	16830
750.478	16013
750.589	17148
750.700	15079
750.811	16879
750.923	15586
751.034	15761
751.145	17472
751.256	15284
751.367	14654
751.479	17078
751.590	17033
751.701	14431
751.812	15125
751.923	15164
752.034	19644
752.145	17526
752.256	15562
752.367	14616
752.478	15355
752.589	16630
752.700	16383
752.811	14414
752.922	15440
753.032	16382
753.143	17316
753.254	15589
753.365	21021
753.476	19365
753.586	15766
753.697	14763
753.808	14384
753.919	13935
754.029	15874
754.140	14000
754.251	13666
754.361	15048
754.472	16824
754.582	14106
754.693	15331
754.804	18029
754.914	14080
755.025	13569
755.135	16894
755.246	17018
755.356	13799
755.466	14116
755.577	13651
755.687	14512
755.798	15342
755.908	13652
756.018	14930
756.129	15451
756.239	15578
756.349	16340
756.460	18676
756.570	21747
756.680	15604
756.790	15967
756.900	14319
757.011	13377
757.121	12388
757.231	13782
757.341	13217
757.451	12557
757.561	12544
757.671	13045
757.781	13487
757.891	13251
758.001	12560
758.111	14096
758.221	16811
758.331	17844
758.441	16975
758.551	19614
758.661	20837
758.771	20969
758.880	18690
758.990	17110
759.100	16325
759.210	17518
759.320	18391
759.429	19028
759.539	21400
759.649	25310
759.758	30417
759.868	31678
759.978	33203
760.087	34479
760.197	35141
760.307	33556
760.416	29962
760.526	28416
760.635	33379
760.745	36421
760.854	35358
760.964	42260
761.073	42160
761.182	39555
761.292	32967
761.401	26706
761.511	22125
761.620	19157
761.729	16920
761.839	15114
761.948	16501
762.057	16820
762.166	17100
762.276	14701
762.385	16302
762.494	14155
762.603	14540
762.712	14452
762.822	13638
762.931	10912
763.040	10500
763.149	10326
763.258	10195
763.367	11080
763.476	10926
763.585	10572
763.694	10022
763.803	10401
763.912	11047
764.021	11063
764.130	10575
764.238	11978
764.347	12829
764.456	14467
764.565	13557
764.674	10891
764.783	10805
764.891	10170
765.000	10148
765.109	9203
765.217	8832
765.326	9699
765.435	10163
765.543	10027
765.652	9398
765.761	9679
765.869	9523
765.978	9316
766.086	10513
766.195	9716
766.303	11074
766.412	19812
766.520	14191
766.629	9238
766.737	9083
766.846	9047
766.954	8388
767.062	10633
767.171	10357
767.279	11330
767.387	9492
767.496	8963
767.604	8127
767.712	8876
767.820	8607
767.928	8810
768.037	8388
768.145	9095
768.253	8243
768.361	8039
768.469	8405
768.577	8348
768.685	9295
768.793	9098
768.901	8870
769.009	9677
769.117	8750
769.225	8009
769.333	9995
769.441	10331
769.549	10279
769.657	9729
769.765	12316
769.873	16421
769.981	9818
770.088	10269
770.196	10755
770.304	11302
770.412	12845
770.519	11793
770.627	12974
770.735	12490
770.842	12561
770.950	13082
771.058	14193
771.165	18440
771.273	19137
771.380	19985
771.488	28569
771.595	30968
771.703	25975
771.810	24046
771.918	26813
772.025	32677
772.133	36492
772.240	32989
772.348	39568
772.455	36078
772.562	33615
772.670	32871
772.777	33965
772.884	32665
772.991	31201
773.099	33614
773.206	30563
773.313	30595
773.420	31230
773.528	32114
773.635	28996
773.742	31721
773.849	29114
773.956	31320
774.063	29447
774.170	29524
774.277	30192
774.384	28265
774.491	27259
774.598	29709
774.705	28072
774.812	27653
774.919	28003
775.026	27028
775.133	28592
775.239	27947
775.346	26839
775.453	27484
775.560	25951
775.667	28667
775.773	25537
775.880	26900
775.987	25174
776.093	26774
776.200	27087
776.307	21203
776.413	24251
776.520	30311
776.627	23611
776.733	23095
776.840	22740
776.946	30676
777.053	26204
777.159	28843
777.266	24223
777.372	28005
777.478	28810
777.585	24375
777.691	20652
777.798	26345
777.904	21317
778.010	21983
778.117	23494
778.223	22236
778.329	22304
778.435	20784
778.542	24604
778.648	21218
778.754	20188
778.860	22781
778.966	21359
779.072	20441
779.178	20338
779.284	18566
779.391	21534
779.497	21594
779.603	23178
779.708	18804
779.815	17296
779.920	21749
780.026	18566
780.132	20962
780.238	19101
780.344	17736
780.450	24302
780.556	14976
780.661	19114
780.767	21567
780.873	14371
780.979	17713
781.085	20635
781.190	17910
781.296	16752
781.402	19354
781.507	18712
781.613	15092
781.719	18460
781.824	21885
781.930	21857
782.035	19413
782.141	19937
782.246	15442
782.352	16773
782.457	17367
782.563	18809
782.668	21193
782.773	14807
782.879	15732
782.984	17313
783.090	16332
783.195	17358
783.300	18490
783.405	15119
783.511	13640
783.616	16226
783.721	16738
783.826	13727
783.932	14453
784.037	16535
784.142	15736
784.247	14678
784.352	15830
784.457	12889
784.562	16010
784.667	16849
784.772	12443
784.877	15530
784.982	18929
785.087	15827
785.192	12866
785.297	14347
785.402	16176
785.507	14445
785.611	12836
785.716	12396
785.821	14631
785.926	13915
786.031	13476
786.135	14072
786.240	13692
786.345	11416
786.450	12264
786.554	12584
786.659	12558
786.763	13052
786.868	14601
786.973	17606
787.077	11667
787.182	10447
787.286	15171
787.391	15229
787.495	9995
787.600	10439
787.704	12914
787.809	13720
787.913	11030
788.017	13329
788.122	13985
788.226	11506
788.330	9497
788.435	13086
788.539	14322
788.643	11115
788.747	9751
788.852	11661
788.956	11545
789.060	12281
789.164	11602
789.268	10589
789.372	12882
789.476	11987
789.580	8854
789.684	9677
789.788	14245
789.892	11481
789.996	8962
790.100	8280
790.204	11590
790.308	12994
790.412	8658
790.516	7503
790.620	10593
790.724	13824
790.828	10437
790.931	7865
791.035	10246
791.139	10018
791.242	10927
791.346	10431
791.450	11590
791.554	8907
791.657	8456
791.761	9620
791.864	10332
791.968	11346
792.072	10025
792.175	9442
792.279	10116
792.382	8420
792.486	8412
792.589	9337
792.693	10775
792.796	8106
792.899	10184
793.003	10525
793.106	8881
793.209	9321
793.313	7883
793.416	6152
793.519	8755
793.623	11994
793.726	10281
793.829	6425
793.932	7162
794.035	7955
794.138	12134
794.242	12187
794.345	8594
794.448	13121
794.551	8069
794.654	9464
794.757	10121
794.860	8036
794.963	9876
795.066	7959
795.169	9476
795.272	7889
795.375	9588
795.477	6480
795.580	8741
795.683	8300
795.786	10729
795.889	7512
795.991	11380
796.094	9203
796.197	8885
796.300	11365
796.402	10784
796.505	7626
796.608	7108
796.710	8190
796.813	11123
796.915	10903
797.018	10631
797.120	10244
797.223	8725
797.326	11217
797.428	8139
797.530	6846
797.633	8476
797.735	11507
797.838	10731
797.940	11515
798.042	9206
798.145	7196
798.247	7937
798.349	6259
798.452	8584
798.554	9968
798.656	10884
798.758	13850
798.860	10834
798.962	8935
799.065	8078
799.167	8060
799.269	9772
799.371	11778
799.473	16241
799.575	14019
799.677	9908
799.779	8988
799.881	7522
799.983	10419
800.085	7922
800.187	8742
800.289	6092
800.390	7214
800.492	10229
800.594	8370
800.696	6259
800.798	6660
800.899	7590
801.001	7671
801.103	8191
801.205	9420
801.306	9901
801.408	8723
801.509	8618
801.611	8229
801.713	7554
801.814	6376
801.916	6425
802.017	5398
802.119	5930
802.220	7906
802.322	6491
802.423	7453
802.525	4810
802.626	5911
802.727	8672
802.829	8199
802.930	4518
803.031	7716
803.133	6561
803.234	7869
803.335	7764
803.436	5581
803.538	6357
803.639	4625
803.740	7195
803.841	6685
803.942	7612
804.043	6591
804.144	6835
804.245	6963
804.346	7111
804.447	6960
804.548	6944
804.649	7428
804.750	5431
804.851	5923
804.952	6018
805.053	5228
805.154	4740
805.255	7139
805.355	7031
805.456	6876
805.557	7517
805.658	5413
805.758	7333
805.859	6264
805.960	6351
806.061	5505
806.161	6356
806.262	9631
806.362	6329
806.463	5750
806.564	7181
806.664	6924
806.765	6900
806.865	11520
806.966	29532
807.066	15374
807.166	6779
807.267	6844
807.367	4612
807.468	6018
807.568	4058
807.668	5423
807.769	6759
807.869	4839
807.969	6392
808.069	4132
808.170	4707
808.270	4519
808.370	5727
808.470	5585
808.570	5001
808.670	4935
808.770	5043
808.870	4876
808.970	4735
809.070	4818
809.170	4651
809.271	6279
809.370	4798
809.470	5517
809.570	3547
809.670	3788
809.770	4387
809.870	6032
809.970	5404
810.070	5640
810.169	5458
810.269	3812
810.369	6501
810.469	4134
810.568	5196
810.668	4753
810.768	5233
810.867	5219
810.967	3933
811.066	4152
811.166	5811
811.265	5480
811.365	5084
811.464	4325
811.564	5637
811.663	5693
811.763	3603
811.862	6313
811.962	5905
812.061	4928
812.160	4799
812.260	3920
812.359	5093
812.458	4815
812.557	5772
812.657	4593
812.756	5881
812.855	5481
812.954	5162
813.053	6494
813.153	10423
813.252	21176
813.351	13891
813.450	6492
813.549	5503
813.648	6249
813.747	5068
813.846	5782
813.945	6115
814.044	6257
814.143	4937
814.242	5510
814.341	5119
814.439	6490
814.538	5594
814.637	7097
814.736	6429
814.835	7519
814.933	7621
815.032	9814
815.131	13446
815.229	24434
815.328	30547
815.427	22067
815.525	20542
815.624	18988
815.722	18072
815.821	20155
815.919	21247
816.018	18790
816.116	21047
816.215	20530
816.313	22358
816.412	26618
816.510	26685
816.609	29206
816.707	31505
816.805	28061
816.904	28830
817.002	28918
817.100	29859
817.198	32424
817.296	27978
817.395	29608
817.493	26616
817.591	24900
817.689	25371
817.787	25774
817.885	22710
817.983	22908
818.081	22574
818.179	22953
818.277	27179
818.375	23422
818.473	23005
818.571	20334
818.669	23770
818.767	25163
818.865	20944
818.963	18397
819.061	22423
819.158	21286
819.256	24705
819.354	20155
819.452	23709
819.549	21126
819.647	22533
819.745	18533
819.842	19608
819.940	22287
820.038	20719
820.135	20754
820.233	22399
820.330	19870
820.428	18842
820.525	21657
820.623	17633
820.720	17826
820.818	19939
820.915	19787
821.012	19725
821.110	20804
821.207	30299
821.304	23471
821.402	21133
821.499	20061
821.596	17182
821.693	18392
821.791	19547
821.888	17311
821.985	19633
822.082	14405
822.179	18863
822.276	19513
822.373	13941
822.470	17012
822.567	16931
822.664	15299
822.761	16648
822.858	17537
822.955	16127
823.052	14591
823.149	16810
823.246	17410
823.343	13151
823.440	14745
823.536	18398
823.633	16603
823.730	15144
823.827	17450
823.923	14873
824.020	14468
824.117	18518
824.213	17539
824.310	13697
824.407	13339
824.503	16819
824.600	13826
824.696	13503
824.793	18151
824.889	18005
824.986	13979
825.082	11799
825.179	13238
825.275	17142
825.371	18362
825.468	12239
825.564	9650
825.660	16981
825.757	18681
825.853	13428
825.949	11299
826.045	12189
826.142	14901
826.238	14533
826.334	15021
826.430	13706
826.526	9508
826.622	10183
826.718	16390
826.814	16293
826.910	13133
827.006	8820
827.102	9543
827.198	14075
827.294	15766
827.390	14662
827.486	10876
827.582	8946
827.678	10731
827.774	16454
827.869	10581
827.965	11279
828.061	10373
828.157	15765
828.252	15798
828.348	13115
828.444	11833
828.539	11854
828.635	13830
828.731	12561
828.826	11671
828.922	13778
829.017	16365
829.113	16025
829.208	13141
829.304	15537
829.399	19177
829.495	14678
829.590	12964
829.685	13513
829.781	14622
829.876	14739
829.971	7970
830.066	8509
830.162	12076
830.257	18423
830.352	13690
830.447	11655
830.543	17829
830.638	17551
830.733	15228
830.828	12477
830.923	13686
831.018	14163
831.113	15733
831.208	9941
831.303	8328
831.398	9243
831.493	12597
831.588	16856
831.683	10536
831.778	9417
831.873	11029
831.967	14470
832.062	13750
832.157	11780
832.252	11202
832.346	11378
832.441	13774
832.536	12056
832.631	11883
832.725	8406
832.820	9824
832.914	10923
833.009	8126
833.104	8326
833.198	9421
833.293	11072
833.387	12756
833.482	11237
833.576	11823
833.670	13313
833.765	14140
833.859	15781
833.954	12488
834.048	11111
834.142	9794
834.237	8106
834.331	10083
834.425	11443
834.519	8305
834.613	8233
834.708	8380
834.802	7729
834.896	9601
834.990	9723
835.084	8039
835.178	7883
835.272	9589
835.366	11479
835.460	12081
835.554	8407
835.648	7788
835.742	5738
835.836	7050
835.930	8919
836.024	9136
836.117	8100
836.211	8464
836.305	6595
836.399	6513
836.493	7890
836.586	9054
836.680	8639
836.774	6838
836.867	7677
836.961	8227
837.055	7990
837.148	6343
837.242	8003
837.335	8515
837.429	6671
837.522	6359
837.616	6179
837.709	7206
837.803	7322
837.896	9754
837.989	8782
838.083	5723
838.176	5189
838.269	4234
838.363	7576
838.456	7380
838.549	8427
838.642	6930
838.735	7959
838.829	9225
838.922	10566
839.015	7151
839.108	5561
839.201	7993
839.294	7855
839.387	6664
839.480	4807
839.573	6199
839.666	5483
839.759	6252
839.852	6070
839.945	7518
840.038	6143
840.131	5058
840.223	5188
840.316	6981
840.409	8188
840.502	7730
840.594	7780
840.687	3603
840.780	3822
840.873	4323
840.965	5929
841.058	7585
841.150	7915
841.243	6178
841.336	8171
841.428	6466
841.521	6049
841.613	5827
841.706	6904
841.798	5864
841.890	5724
841.983	4814
842.075	5316
842.167	5357
842.260	6883
842.352	7025
842.444	5861
842.537	4337
842.629	4278
842.721	4394
842.813	6817
842.905	5166
842.997	6415
843.090	5512
843.182	4629
843.274	2484
843.366	4725
843.458	5856
843.550	6780
843.642	5617
843.734	5471
843.826	3940
843.918	4494
844.009	5359
844.101	4535
844.193	5874
844.285	6318
844.377	6416
844.469	5781
844.560	4377
844.652	4866
844.744	4986
844.835	5511
844.927	5979
845.019	6402
845.110	5724
845.202	8016
845.293	5834
845.385	4184
845.476	4948
845.568	6309
845.659	5363
845.751	5024
845.842	5069
845.934	4740
846.025	4757
846.116	5492
846.208	5053
846.299	4398
846.390	4952
846.482	5440
846.573	5752
846.664	4929
846.755	5096
846.846	5567
846.937	2884
847.029	3725
847.120	4380
847.211	4468
847.302	6307
847.393	4803
847.484	5407
847.575	2890
847.666	2982
847.757	3543
847.847	5379
847.938	6294
848.029	6606
848.120	5314
848.211	4642
848.302	3482
848.392	4731
848.483	5210
848.574	5529
848.664	6888
848.755	5585
848.846	5538
848.936	4988
849.027	6778
849.118	9716
849.208	9651
849.299	15353
849.389	25452
849.480	48506
849.570	91024
849.661	169604
849.751	233695
849.841	95706
849.932	25111
850.022	12712
850.112	10500
850.203	9401
850.293	6771
850.383	7084
850.474	6829
850.564	5712
850.654	4946
850.744	5018
850.834	4912
850.924	6613
851.014	7988
851.104	6261
851.194	5256
851.284	5532
851.374	5815
851.464	5610
851.554	5522
851.644	4535
851.734	6058
851.824	6311
851.914	6496
852.004	6330
852.094	5349
852.183	5159
852.273	5812
852.363	5513
852.452	7229
852.542	7362
852.632	6361
852.721	7246
852.811	7455
852.901	9518
852.990	9683
853.080	11478
853.169	12462
853.259	13669
853.348	15249
853.438	20547
853.527	26035
853.617	37719
853.706	61249
853.795	102014
853.885	179396
853.974	292099
854.063	462417
854.152	508084
854.242	283517
854.331	121517
854.420	63677
854.509	41025
854.598	30911
854.687	22502
854.777	18924
854.866	14568
854.955	12718
855.044	11240
855.133	10567
855.222	9315
855.311	8012
855.400	8224
855.488	7371
855.577	7795
855.666	7219
855.755	6694
855.844	6126
855.933	7233
856.021	6604
856.110	6031
856.199	4437
856.288	4669
856.376	4118
856.465	4669
856.554	5855
856.642	6730
856.731	6976
856.819	6142
856.908	6065
856.996	4657
857.085	4272
857.173	4528
857.262	4373
857.350	3758
857.438	3727
857.527	5498
857.615	4638
857.703	5548
857.792	4318
857.880	4107
857.968	3871
858.056	4674
858.145	4859
858.233	5204
858.321	4864
858.409	5323
858.497	5521
858.585	3065
858.673	4610
858.761	3104
858.849	3840
858.937	3352
859.025	3595
859.113	4928
859.201	4771
859.289	6593
859.377	5280
859.465	4008
859.552	4067
859.640	3584
859.728	3937
859.816	3984
859.903	5014
859.991	4027
860.079	5197
860.166	3504
860.254	4431
860.342	4949
860.429	4684
860.517	4032
860.604	3908
860.692	2944
860.779	3050
860.867	4401
860.954	5450
861.042	5781
861.129	4796
861.216	5167
861.304	5109
861.391	5044
861.478	4937
861.565	4201
861.653	4774
861.740	3470
861.827	4379
861.914	4497
862.001	4212
862.089	3869
862.176	4553
862.263	4945
862.350	4269
862.437	4970
862.524	4534
862.611	4177
862.698	5899
862.785	6078
862.871	6627
862.958	5784
863.045	5656
863.132	5872
863.219	4853
863.306	3619
863.392	5845
863.479	5043
863.566	5317
863.652	5040
863.739	5227
863.826	6464
863.912	6037
863.999	6063
864.086	7107
864.172	7546
864.259	7175
864.345	8444
864.432	8046
864.518	7537
864.604	8500
864.691	7305
864.777	9577
864.863	12114
864.950	15959
865.036	21800
865.122	34490
865.209	35676
865.295	32236
865.381	32929
865.467	33893
865.553	40168
865.639	51383
865.726	73826
865.812	114532
865.898	179343
865.984	262518
866.070	396292
866.156	357409
866.242	166902
866.328	78351
866.414	49177
866.499	39337
866.585	35218
866.671	30385
866.757	29793
866.843	27383
866.928	25270
867.014	24715
867.100	23374
867.186	23841
867.271	22594
867.357	22622
867.442	20781
867.528	21891
867.614	20974
867.699	22037
867.785	22215
867.870	22077
867.956	20569
868.041	20381
868.127	19345
868.212	21064
868.297	19993
868.383	20976
868.468	19748
868.553	20997
868.639	19677
868.724	19432
868.809	19954
868.894	18053
868.979	19156
869.065	18616
869.150	16148
869.235	17965
869.320	19105
869.405	16178
869.490	19863
869.575	17877
869.660	14399
869.745	19528
869.830	20251
869.915	15901
870.000	16995
870.085	15898
870.169	20953
870.254	20742
870.339	14313
870.424	15171
870.509	17944
870.593	20849
870.678	18604
870.763	14895
870.847	14207
870.932	18699
871.016	17736
871.101	13168
871.186	17540
871.270	19757
871.355	13151
871.439	15643
871.523	17868
871.608	13468
871.692	15035
871.777	17977
871.861	17016
871.945	15052
872.030	15291
872.114	14008
872.198	13600
872.282	14363
872.367	14781
872.451	14087
872.535	14046
872.619	15552
872.703	14005
872.787	15870
872.871	14922
872.955	11620
873.039	10988
873.123	16076
873.207	15280
873.291	10760
873.375	13774
873.459	15874
873.543	13379
873.627	13876
873.711	11857
873.794	15198
873.878	12613
873.962	11431
874.045	11969
874.129	12679
874.137	12780
874.213	13786
874.245	13020
874.296	11792
874.352	11896
874.380	11950
874.460	12099
874.464	12107
874.547	11176
874.568	11866
874.631	13947
874.676	13131
874.714	12404
874.784	13454
874.798	13678
874.881	10934
874.892	10795
874.965	9864
874.999	11518
875.048	13775
875.107	12846
875.131	12435
875.215	8819
875.215	8818
875.298	9356
875.323	10424
875.381	12956
875.430	14739
875.465	15834
875.538	13065
875.548	12700
875.631	9739
875.646	9504
875.714	8620
875.753	9537
875.798	10534
875.861	12567
875.881	13152
875.964	9684
875.968	9673
876.047	9799
876.076	10508
876.130	11817
876.183	12775
876.213	13253
876.291	12630
876.296	12581
876.379	11200
876.398	10908
876.462	9803
876.506	8850
876.545	8197
876.613	9898
876.628	10290
876.711	11240
876.721	11443
876.794	12870
876.828	12424
876.877	11362
876.935	9495
876.960	8958
877.043	9167
877.043	9176
877.125	11433
877.150	12155
877.208	13234
877.258	10403
877.291	8556
877.365	8850
877.374	8907
877.456	8399
877.472	8437
877.539	9021
877.579	10311
877.622	11512
877.687	11205
877.704	11094
877.787	10663
877.794	10737
877.869	11629
877.901	11407
877.952	10352
878.008	8136
878.034	7502
878.115	8212
878.117	8231
878.199	9101
878.222	9540
878.282	10747
878.329	11828
878.364	12209
878.437	11066
878.447	10883
878.529	8205
878.544	8016
878.611	7631
878.651	8540
878.694	10129
878.758	11307
878.776	11418
878.858	12145
878.865	11976
878.941	8683
878.972	7977
879.023	8032
879.078	9264
879.105	9820
879.185	10611
879.187	10624
879.269	11079
879.292	11294
879.351	11209
879.399	9415
879.433	8327
879.506	9014
879.516	9163
879.598	9651
879.613	9576
879.680	9166
879.720	9675
879.762	10140
879.827	9547
879.844	9340
879.926	9371
879.933	9405
880.007	9762
880.040	9050
880.089	8164
880.147	9501
880.171	10399
880.253	13082
880.254	13084
880.335	11910
880.360	12175
880.417	14956
880.467	17008
880.499	17830
880.574	19456
880.580	19341
880.662	14367
880.680	13249
880.744	9467
880.787	8182
880.825	8280
880.893	9788
880.907	9949
880.989	8841
881.000	8953
881.070	10876
881.106	11379
881.152	10393
881.213	7741
881.233	7369
881.315	9042
881.319	9051
881.396	9855
881.426	9990
881.478	9931
881.532	10980
881.559	11343
881.639	10285
881.641	10241
881.722	9015
881.745	8708
881.803	9761
881.852	10309
881.885	9642
881.958	7809
881.966	7809
882.047	9723
882.064	9648
882.129	7936
882.171	7185
882.210	6771
882.277	6580
882.291	6844
882.372	9347
882.383	9555
882.454	11048
882.489	11418
882.535	11313
882.596	11767
882.616	11724
882.697	10344
882.702	10247
882.778	7692
882.808	7128
882.859	7240
882.914	7218
882.940	7481
883.020	8607
883.021	8626
883.102	9883
883.127	10638
883.183	12625
883.233	12663
883.264	10767
883.339	6926
883.345	6804
883.426	6217
883.445	6208
883.507	7962
883.551	8510
883.587	9041
883.657	10891
883.668	11091
883.749	12065
883.763	11978
883.830	8631
883.869	7214
883.910	7167
883.975	7647
883.991	7927
884.072	8586
884.081	8693
884.152	11421
884.187	12746
884.233	13142
884.292	12466
884.314	11125
884.394	6211
884.398	6005
884.475	5310
884.504	5086
884.555	5772
884.610	6411
884.636	6969
884.716	9193
884.716	9223
884.797	12685
884.821	13243
884.877	11281
884.927	9956
884.958	9437
885.033	7964
885.038	7870
885.118	6477
885.139	6112
885.199	6562
885.244	7086
885.279	8058
885.350	10411
885.359	10833
885.439	13754
885.456	14165
885.520	10982
885.561	8993
885.600	8134
885.667	7604
885.680	7914
885.760	8978
885.773	9122
885.840	6870
885.878	5868
885.920	6530
885.984	7387
886.000	7723
886.080	9419
886.089	9589
886.160	10041
886.195	9990
886.240	9915
886.300	10067
886.320	10097
886.400	10219
886.406	10185
886.480	8050
886.511	7328
886.560	7380
886.616	7330
886.640	7484
886.720	8142
886.722	8144
886.800	8103
886.827	8164
886.879	8792
886.932	9380
886.959	9924
887.038	11215
887.039	11205
887.119	9042
887.143	8462
887.198	9358
887.248	9929
887.278	9449
887.354	8479
887.358	8512
887.437	8825
887.459	8965
887.517	9868
887.564	10156
887.596	8864
887.669	6222
887.676	6158
887.755	5498
887.774	5286
887.835	5781
887.880	6267
887.914	7322
887.985	9352
887.994	9681
888.073	12666
888.090	13180
888.153	14405
888.195	15163
888.232	12705
888.300	8285
888.311	8210
888.391	7558
888.405	7461
888.470	6785
888.510	6195
888.549	6747
888.615	7981
888.628	8512
888.708	11484
888.720	11919
888.787	10451
888.825	9523
888.866	7752
888.930	5095
888.945	5636
889.024	8572
889.035	8936
889.103	10405
889.140	11171
889.182	9976
889.245	8241
889.261	8636
889.340	10413
889.349	10603
889.419	9032
889.454	8221
889.498	7751
889.559	7126
889.577	7812
889.656	10764
889.664	11044
889.735	9877
889.768	9285
889.814	9360
889.873	9414
889.978	8001
890.083	8175
890.187	10313
890.292	10852
890.397	8713
890.501	7967
890.606	7069
890.710	8674
890.815	12367
890.919	10248
891.024	9405
891.128	8200
891.233	7679
891.337	12000
891.442	10012
891.546	9090
891.650	6960
891.755	6541
891.859	9748
891.963	12093
892.068	9256
892.172	7369
892.276	6199
892.380	8357
892.484	12043
892.589	12642
892.693	10580
892.797	5613
892.901	5689
893.005	7896
893.109	12600
893.213	10366
893.317	7805
893.421	5728
893.525	4563
893.629	6364
893.733	10826
893.837	8014
893.941	7076
894.045	5366
894.148	4908
894.252	6458
894.356	11089
894.460	12142
894.564	7084
894.667	7210
894.771	5072
894.875	4632
894.978	6513
895.082	9699
895.186	10269
895.289	7613
895.393	6583
895.496	10878
895.600	6253
895.703	5293
895.807	6795
895.910	7006
896.014	8590
896.117	6504
896.221	9014
896.324	8651
896.427	5400
896.531	5497
896.634	7171
896.737	6743
896.840	7526
896.944	9318
897.047	10244
897.150	7955
897.253	5797
897.356	4882
897.460	5135
897.563	6127
897.666	9262
897.769	8880
897.872	4472
897.975	5667
898.078	6975
898.181	4646
898.284	6931
898.387	9552
898.490	9558
898.593	6432
898.695	5676
898.798	6420
898.901	5906
899.004	7042
899.107	6909
899.209	7890
899.312	10945
899.415	5650
899.518	4009
899.620	4089
899.723	5078
899.826	6763
899.928	5640
900.031	7810
900.133	9353
900.236	6346
900.338	4919
900.441	4879
900.543	6270
900.646	6056
900.748	6752
900.851	7622
900.953	5614
901.055	5261
901.158	6104
901.260	4951
901.362	3897
901.465	6317
901.567	7905
901.669	8252
901.771	6227
901.873	6357
901.976	6496
902.078	6469
902.180	4465
902.282	4441
902.384	6420
902.486	10459
902.588	7509
902.690	4021
902.792	3632
902.894	7078
902.996	8689
903.098	6675
903.200	5180
903.302	4718
903.404	4392
903.505	4384
903.607	6804
903.709	9920
903.811	8880
903.913	5300
904.014	3622
904.116	3541
904.218	5072
904.319	6463
904.421	10316
904.523	8342
904.624	5521
904.726	5331
904.827	4228
904.929	5156
905.030	5685
905.132	10312
905.233	7062
905.335	4652
905.436	4472
905.537	4180
905.639	5127
905.740	6473
905.841	7932
905.943	5903
906.044	6092
906.145	4655
906.247	4384
906.348	4968
906.449	6680
906.550	7386
906.651	4617
906.752	5239
906.854	4364
906.955	4746
907.056	5594
907.157	8174
907.258	7738
907.359	3649
907.460	4178
907.561	3976
907.662	4078
907.762	5963
907.863	6979
907.964	6666
908.065	6340
908.166	4965
908.267	4699
908.367	4300
908.468	4235
908.569	5701
908.670	6621
908.770	5969
908.871	6417
908.971	6432
909.072	5290
909.173	5280
909.273	4449
909.374	7639
909.474	5762
909.575	5932
909.675	5070
909.776	6367
909.876	5975
909.977	6080
910.077	7151
910.177	9063
910.278	6413
910.378	4373
910.478	5647
910.579	7677
910.679	7304
910.779	7711
910.879	7717
910.980	6659
911.080	7062
911.180	5440
911.280	4947
911.380	4126
911.480	5101
911.580	6242
911.680	5174
911.780	7460
911.880	5971
911.980	4248
912.080	5603
912.180	6351
912.280	5444
912.380	5107
912.480	3173
912.580	3767
912.679	5480
912.779	7613
912.879	5715
912.979	4993
913.078	4802
913.178	3506
913.278	3773
913.377	4208
913.477	3628
913.577	4289
913.676	5917
913.776	7774
913.875	5228
913.975	4238
914.074	5867
914.174	5423
914.273	4255
914.373	5565
914.472	5052
914.572	3683
914.671	4120
914.770	4538
914.870	4045
914.969	4735
915.068	6540
915.167	6240
915.267	4831
915.366	5522
915.465	5380
915.564	6399
915.663	6370
915.763	7385
915.862	8075
915.961	7061
916.060	4133
916.159	4464
916.258	3525
916.357	4896
916.456	6569
916.555	6687
916.654	5637
916.752	7723
916.851	6431
916.950	4095
917.049	4850
917.148	4362
917.247	4990
917.345	5160
917.444	3808
917.543	5013
917.642	5486
917.740	6907
917.839	9846
917.937	8690
918.036	7778
918.135	5592
918.233	5462
918.332	5440
918.430	5758
918.529	5862
918.627	6261
918.726	7565
918.824	6047
918.923	4605
919.021	5102
919.119	5371
919.218	4339
919.316	6194
919.414	5675
919.512	8247
919.611	7586
919.709	6526
919.807	9128
919.905	10006
920.003	8493
920.102	9991
920.200	8291
920.298	10041
920.396	9638
920.494	8543
920.592	8146
920.690	8813
920.788	8261
920.886	9476
920.984	9913
921.082	10943
921.180	10761
921.277	11075
921.375	13264
921.473	18559
921.571	16690
921.669	15651
921.766	14240
921.864	15032
921.962	15489
922.060	14405
922.157	15045
922.255	15912
922.352	16977
922.450	16879
922.548	17585
922.645	20739
922.743	27153
922.840	41938
922.938	45198
923.035	39333
923.133	38920
923.230	47253
923.327	52987
923.425	48555
923.522	47993
923.619	44009
923.717	39515
923.814	39182
923.911	38911
924.008	40443
924.106	37522
924.203	38258
924.300	41417
924.397	38512
924.494	38354
924.591	38587
924.688	36347
924.786	37833
924.883	39614
924.979	38800
925.077	36527
925.173	36275
925.270	37148
925.367	37570
925.464	41682
925.561	41550
925.658	43428
925.755	37495
925.852	42984
925.948	40232
926.045	36900
926.142	39871
926.239	38666
926.335	31270
926.432	37146
926.529	39265
926.625	41342
926.722	31835
926.818	34043
926.915	39030
927.011	33885
927.108	34400
927.204	35172
927.301	30972
927.397	38616
927.494	38752
927.590	27177
927.687	31549
927.783	40396
927.879	36532
927.976	30782
928.072	30709
928.168	35323
928.264	33662
928.361	32486
928.457	37341
928.553	29751
928.649	31300
928.745	32542
928.841	28860
928.937	31564
929.033	31117
929.129	30890
929.225	36250
929.321	29000
929.417	28578
929.513	32992
929.609	27621
929.705	28675
929.801	32960
929.897	27292
929.993	29872
930.089	30039
930.184	27468
930.280	31089
930.376	36949
930.471	25803
930.567	24779
930.663	28633
930.758	25677
930.854	28155
930.950	26924
931.045	24114
931.141	27872
931.236	33884
931.332	26905
931.427	24175
931.523	32509
931.618	28066
931.714	20410
931.809	26141
931.905	29059
932.000	20283
932.095	22414
932.191	32213
932.286	34609
932.381	25825
932.476	21845
932.572	26207
932.667	20759
932.762	22978
932.857	28491
932.952	31164
933.047	24350
933.142	21283
933.237	27362
933.332	28438
933.427	29058
933.522	23141
933.617	22430
933.712	23199
933.807	30978
933.902	31562
933.997	29514
934.092	20811
934.187	24406
934.282	24874
934.376	27623
934.471	25885
934.566	21107
934.661	22356
934.755	27077
934.850	27729
934.945	22429
935.039	20129
935.134	18201
935.228	26378
935.323	31897
935.417	19876
935.512	16404
935.606	19275
935.701	25489
935.795	27291
935.890	22814
935.984	18832
936.079	17734
936.173	22367
936.267	20663
936.362	18502
936.456	23685
936.550	28751
936.644	22002
936.738	17509
936.833	16869
936.927	15274
937.021	20654
937.115	23116
937.209	23331
937.303	18885
937.397	17811
937.491	20277
937.585	23639
937.679	21780
937.773	16476
937.867	14457
937.961	18112
938.055	25825
938.149	19846
938.243	15219
938.337	14678
938.430	18798
938.524	24627
938.618	19014
938.712	16661
938.805	17764
938.899	24933
938.993	25178
939.086	15714
939.180	13735
939.274	19058
939.367	23493
939.461	22224
939.554	16810
939.648	15823
939.741	16485
939.835	21006
939.928	25602
940.022	20771
940.115	18879
940.208	22118
940.302	25305
940.395	23534
940.488	16766
940.582	16113
940.675	14282
940.768	16630
940.861	21997
940.954	21162
941.048	13121
941.141	12877
941.234	16548
941.327	18629
941.420	19953
941.513	20876
941.606	17580
941.699	17637
941.792	22189
941.885	19663
941.978	19479
942.071	18723
942.164	13925
942.257	13825
942.349	17546
942.442	18176
942.535	13570
942.628	14513
942.721	16100
942.813	16175
942.906	17120
942.999	14905
943.091	14135
943.184	15601
943.277	14814
943.369	11523
943.462	10594
943.554	15601
943.647	15379
943.739	20289
943.832	17937
943.924	9838
944.017	10208
944.109	12933
944.201	13766
944.294	14065
944.386	15427
944.478	12838
944.571	12285
944.663	12948
944.755	15246
944.847	15586
944.940	14303
945.032	10046
945.124	10856
945.216	14568
945.308	14201
945.400	13543
945.492	13457
945.584	18042
945.676	17376
945.768	15230
945.860	16816
945.952	18038
946.044	14381
946.136	12645
946.228	11580
946.320	13002
946.412	14938
946.503	17299
946.595	16284
946.687	11270
946.779	10244
946.870	11666
946.962	11637
947.054	11853
947.145	14764
947.237	11342
947.329	13261
947.420	14692
947.512	11613
947.603	9732
947.695	10913
947.786	11168
947.878	11690
947.969	13441
948.061	15241
948.152	11288
948.243	9444
948.335	9446
948.426	10137
948.517	13256
948.609	13906
948.700	13361
948.791	11757
948.882	8975
948.973	10333
949.065	12264
949.156	10916
949.247	8836
949.338	10948
949.429	7855
949.520	9947
949.611	12662
949.702	13763
949.793	10136
949.884	11906
949.975	10727
950.066	7955
950.157	9989
950.247	9833
950.338	8824
950.429	9241
950.520	10769
950.611	8876
950.701	12119
950.792	15349
950.883	12600
950.973	11012
951.064	13466
951.155	13011
951.245	12464
951.336	12726
951.427	14204
951.517	15123
951.608	11771
951.698	9928
951.788	7800
951.879	8128
951.969	9303
952.060	9289
952.150	11236
952.240	14072
952.331	12120
952.421	12176
952.511	8425
952.602	7050
952.692	7271
952.782	8218
952.872	9885
952.962	11235
953.052	10494
953.143	9123
953.233	9587
953.323	10068
953.413	12250
953.503	13015
953.593	11162
953.683	10384
953.773	7550
953.863	8545
953.953	8818
954.042	11401
954.132	13125
954.222	12745
954.312	9628
954.402	9786
954.492	9936
954.581	10616
954.671	11138
954.761	9415
954.850	9688
954.940	6512
955.030	7019
955.119	8196
955.209	8907
955.298	9880
955.388	10972
955.477	10906
955.567	7513
955.656	7308
955.746	8390
955.835	7397
955.925	7913
956.014	10573
956.103	12855
956.193	13565
956.282	11180
956.371	9199
956.461	10394
956.550	8490
956.639	8637
956.728	8727
956.817	8475
956.906	10156
956.995	10839
957.085	8744
957.174	8942
957.263	7647
957.352	8369
957.441	9061
957.530	9192
957.619	7610
957.708	7831
957.796	8626
957.885	9102
957.974	7523
958.063	7669
958.152	5076
958.241	7168
958.329	6536
958.418	7436
958.507	8714
958.596	10375
958.684	7363
958.773	8330
958.861	6045
958.950	6827
959.039	7759
959.127	7363
959.216	8186
959.304	7282
959.393	9097
959.481	9368
959.570	6233
959.658	5723
959.746	6734
959.835	7423
959.923	7170
960.011	6470
960.100	7692
960.188	8966
960.276	7253
960.365	6865
960.453	5392
960.541	6688
960.629	6513
960.717	5671
960.805	4358
960.893	6967
960.981	9017
961.069	10469
961.158	11907
961.245	12880
961.333	10328
961.421	9085
961.509	7177
961.597	8675
961.685	6598
961.773	8685
961.861	8449
961.949	9171
962.036	6855
962.124	5469
962.212	5353
962.299	6832
962.387	6248
962.475	7144
962.562	6648
962.650	8612
962.738	5702
962.825	5305
962.913	5764
963.000	7408
963.088	8120
963.175	7480
963.263	6117
963.350	6799
963.438	6455
963.525	6310
963.612	6665
963.700	6379
963.787	8312
963.874	6762
963.962	5700
964.049	5731
964.136	6100
964.223	5076
964.310	5183
964.398	5816
964.485	6820
964.572	7519
964.659	7090
964.746	6368
964.833	5486
964.920	5979
965.007	6169
965.094	6133
965.181	6957
965.268	8050
965.355	6563
965.441	7136
965.528	6762
965.615	8139
965.702	7170
965.789	6942
965.875	8749
965.962	8746
966.049	8496
966.136	10025
966.222	11070
966.309	13213
966.395	12592
966.482	9859
966.569	8088
966.655	8633
966.742	7533
966.828	6996
966.915	5515
967.001	5798
967.087	3864
967.174	6338
967.260	6042
967.347	6652
967.433	7284
967.519	8725
967.605	9968
967.692	7541
967.778	6216
967.864	5945
967.950	7544
968.036	6479
968.123	7018
968.209	5370
968.295	4571
968.381	6196
968.467	6399
968.553	5196
968.639	7886
968.725	9627
968.811	16088
968.897	13074
968.983	6872
969.069	5622
969.154	4154
969.240	5199
969.326	5220
969.412	5540
969.497	5860
969.583	5206
969.669	7465
969.755	8516
969.840	8879
969.926	13368
970.012	18209
970.097	26045
970.183	22820
970.268	11483
970.354	7597
970.439	6030
970.525	7126
970.610	7097
970.696	6498
970.781	6175
970.866	4779
970.952	6143
971.037	6096
971.122	6598
971.208	6278
971.293	7129
971.378	5217
971.463	6225
971.549	5335
971.634	5273
971.719	6725
971.804	5090
971.889	6861
971.974	5579
972.059	5432
972.144	6737
972.229	6472
972.314	5227
972.399	5743
972.484	5789
972.569	5966
972.654	5170
972.739	5642
972.824	5780
972.908	5421
972.993	5126
973.078	4887
973.163	6268
973.247	5167
973.332	4682
973.417	7900
973.501	6661
973.586	6776
973.671	5466
973.755	5172
973.840	5667
973.924	7704
974.009	9919
974.093	10133
974.178	9926
974.262	7376
974.346	7430
974.431	6953
974.515	6436
974.600	7121
974.684	7637
974.768	6257
974.852	7419
974.937	5809
975.021	6914
975.105	6235
975.189	6416
975.273	6300
975.358	4659
975.442	5080
975.526	6643
975.610	6115
975.694	5646
975.778	5904
975.862	5536
975.946	4394
976.030	8339
976.114	4621
976.198	6192
976.281	5661
976.365	6389
976.449	5825
976.533	6767
976.617	5025
976.700	4707
976.784	4848
976.868	5256
976.951	5550
977.035	5168
977.119	6260
977.202	7165
977.286	6636
977.369	10334
977.453	13696
977.536	12047
977.620	9249
977.703	8614
977.787	8008
977.870	8692
977.953	9487
978.037	5045
978.120	7576
978.203	7091
978.287	8515
978.370	6813
978.453	6338
978.536	6109
978.620	7045
978.703	7100
978.786	5985
978.869	5387
978.952	6160
979.035	8598
979.118	7772
979.201	5355
979.284	6831
979.367	6260
979.450	7167
979.533	5279
979.616	5357
979.699	5172
979.782	5865
979.865	7108
979.948	5664
980.030	5189
980.113	5864
980.196	5610
980.279	7409
980.361	5675
980.444	7544
980.526	9695
980.609	12718
980.692	14119
980.774	12154
980.857	9050
980.939	9673
981.022	7924
981.104	8017
981.187	7457
981.269	8594
981.352	7593
981.434	7583
981.516	7124
981.599	7772
981.681	7736
981.763	6918
981.846	7717
981.928	7440
982.010	6845
982.092	7210
982.174	7762
982.256	6936
982.339	6831
982.421	6871
982.503	7284
982.585	6523
982.667	7007
982.749	7732
982.831	6795
982.913	6531
982.995	7865
983.077	7332
983.158	9137
983.240	8226
983.322	11879
983.404	14915
983.486	12232
983.568	12044
983.649	10776
983.731	10562
983.813	9146
983.894	9455
983.976	9607
984.058	8443
984.139	9116
984.221	8351
984.302	9755
984.384	8304
984.465	8873
984.547	9984
984.628	8771
984.710	9934
984.791	10070
984.872	9191
984.954	8795
985.035	10029
985.116	8674
985.198	8648
985.279	10651
985.360	8741
985.441	8628
985.522	10336
985.604	9533
985.685	7455
985.766	9890
985.847	10611
985.928	8928
986.009	9528
986.090	8977
986.171	10016
986.252	8985
986.333	9079
986.414	9304
986.495	8849
986.576	10761
986.656	10642
986.737	11304
986.818	10475
986.899	10282
986.980	9461
987.060	10737
987.141	11099
987.222	13239
987.302	12933
987.383	13511
987.464	12597
987.544	13299
987.625	12284
987.705	14140
987.786	13770
987.866	12629
987.947	12546
988.027	13268
988.108	11098
988.188	11807
988.268	11250
988.349	12835
988.429	11126
988.509	11012
988.589	11292
988.670	10401
988.750	12105
988.830	10293
988.910	11389
988.990	11935
989.070	10952
989.151	10501
989.231	9478
989.311	10601
989.391	9451
989.471	10254
989.551	10093
989.631	9456
989.711	10718
989.791	9459
989.870	8915
989.950	11240
990.030	9492
990.110	10448
990.190	8391
990.269	9155
990.349	10389
990.429	10152
990.509	7343
990.588	7784
990.668	9016
990.747	9675
990.827	8329
990.907	9135
990.986	10537
991.066	8810
991.145	7920
991.225	10933
991.304	9352
991.383	8880
991.463	8672
991.542	8931
991.622	7163
991.701	7277
991.780	7761
991.859	7668
991.939	8311
992.018	9010
992.097	8301
992.176	7268
992.256	7534
992.335	8346
992.414	8514
992.493	7071
992.572	6417
992.651	8208
992.730	7672
992.809	7556
992.888	6425
992.967	7181
993.046	7344
993.125	5507
993.203	7635
993.282	8176
993.361	6843
993.440	6614
993.519	6290
993.597	7240
993.676	6602
993.755	7350
993.834	7103
993.912	5030
993.991	7054
994.069	5614
994.148	6112
994.226	5676
994.305	6099
994.384	5765
994.462	8271
994.540	5582
994.619	4921
994.697	6394
994.776	6064
994.854	7085
994.932	5186
995.011	5783
995.089	4712
995.167	5238
995.245	6140
995.324	6234
995.402	6316
995.480	5429
995.558	4993
995.636	4165
995.714	5614
995.792	7086
995.870	4940
995.948	4407
996.026	5155
996.104	4536
996.182	5601
996.260	3968
996.338	4656
996.416	4396
996.494	5322
996.572	5461
996.649	4430
996.727	4278
996.805	5875
996.883	5191
996.960	4229
997.038	5369
997.116	4936
997.193	4390
997.271	3621
997.348	3744
997.426	4845
997.504	5520
997.581	5747
997.658	4060
997.736	2445
997.813	3245
997.891	4302
997.968	3786
998.046	4228
998.123	3806
998.200	5032
998.277	4524
998.355	4320
998.432	2539
998.509	2924
998.586	3694
998.663	3603
998.741	3673
998.818	2815
998.895	3214
998.972	4720
999.049	4899
999.126	2727
999.203	3406
999.280	3885
999.357	3968
999.434	3531
999.511	3797
999.587	2122
999.664	2786
999.741	3347
999.818	3981
999.895	3892
999.971	2981
1000.048	2612
1000.125	3988
1000.202	3078
1000.278	3707
1000.355	3796
1000.431	2370
1000.508	2125
1000.584	2722
1000.661	3605
1000.738	2777
1000.814	3475
1000.890	4243
1000.967	3028
1001.043	4016
1001.120	2129
1001.196	3041
1001.272	2180
1001.349	3244
1001.425	4018
1001.501	3178
1001.577	2680
1001.654	4003
1001.730	1997
1001.806	2113
1001.882	2289
1001.958	4362
1002.034	2830
1002.110	2127
1002.186	1876
1002.262	2679
1002.338	1553
1002.414	2729
1002.490	3393
1002.566	1507
1002.642	1941
1002.718	2724
1002.794	2236
1002.870	3124
1002.945	2664
1003.021	1946
1003.097	2579
1003.173	2863
1003.248	1414
1003.324	2730
1003.400	2831
1003.475	2128
1003.551	1942
1003.626	2148
1003.702	1407
1003.777	1263
1003.853	1412
1003.928	1298
1004.004	934
1004.079	2618
1004.155	2618
1004.230	1923
1004.305	3042
1004.381	908
1004.456	1497
1004.531	1702
1004.607	1428
1004.682	2369
1004.757	1885
1004.832	1336
1004.907	988
1004.982	918
1005.057	1900
1005.133	2593
1005.208	1550
1005.283	1268
1005.358	2165
1005.433	776
1005.508	1454
1005.583	2400
1005.657	1809
1005.732	1797
1005.807	1206
1005.882	766
1005.957	1152
1006.032	1849
1006.106	798
1006.181	1817
1006.256	2080
1006.331	855
1006.405	423
1006.480	1473
1006.554	1433
1006.629	1568
1006.704	982
1006.778	1398
1006.853	902
1006.927	593
1007.002	326
1007.076	1347
1007.150	1154
1007.225	818
1007.299	1677
1007.373	330
1007.448	1412
1007.522	1620
1007.596	801
1007.671	1070
1007.745	2336
1007.819	1428
1007.893	1161
1007.967	1554
1008.041	666
1008.115	2482
1008.190	718
1008.264	1250
1008.338	113
1008.412	1016
1008.486	1596
1008.560	1416
1008.633	1686
1008.707	1536
1008.781	1983
1008.855	1021
1008.929	1536
1009.003	581
1009.076	160
1009.150	856
1009.224	1477
1009.298	1179
1009.371	-516
1009.445	620
1009.519	233
1009.592	299
1009.666	1126
1009.739	1726
1009.813	24
1009.886	1173
1009.960	37
1010.033	591
1010.107	694
1010.180	414
1010.253	-168
1010.327	79
1010.400	425
1010.473	638
1010.547	1882
1010.620	881
1010.693	1001
1010.766	173
1010.840	736
1010.913	1772
1010.986	94
1011.059	422
1011.132	356
1011.205	402
1011.278	648
1011.351	394
1011.424	1057
1011.497	214
1011.570	1067
1011.643	408
1011.716	691
1011.789	-550
1011.862	-93
1011.934	400
1012.007	-1157
1012.080	1087
1012.153	769
1012.225	551
1012.298	-373
1012.371	770
1012.443	69
1012.516	172
1012.588	327
1012.661	463
1012.733	-748
1012.806	409
1012.879	438
1012.951	-865
1013.023	355
1013.096	417
1013.168	-505
1013.241	892
1013.313	-473
1013.385	406
1013.458	-35
1013.530	898
1013.602	-991
1013.674	75
1013.746	-605
1013.819	-395
1013.891	458
1013.963	198
1014.035	718
1014.107	-14
1014.179	387
1014.251	9
1014.323	758
1014.395	295
1014.467	-445
1014.539	-234
1014.611	-270
1014.683	-578
1014.754	24
1014.826	-252
1014.898	294
1014.970	-930
1015.042	1161
1015.113	72
1015.185	711
1015.257	-249
1015.328	443
1015.400	111
1015.471	-85
1015.543	-538
1015.615	603
1015.686	337
1015.757	281
1015.829	536
1015.901	-464
1015.972	-999
1016.043	-958
1016.115	-463
1016.186	-325
1016.257	-964
1016.328	-828
1016.400	209
1016.471	-916
1016.542	235
1016.613	-55
1016.685	-949
1016.756	-415
1016.827	-149
1016.898	-1273
1016.969	-239
1017.040	-602
1017.111	-590
1017.182	-1180
1017.253	-497
1017.324	-691
1017.395	-586
1017.466	-813
1017.537	-595
1017.608	-504
1017.678	-126
1017.749	-672
1017.820	-389
1017.891	-789
1017.961	-851
1018.032	-1784
1018.103	-166
1018.173	-668
1018.244	-1282
1018.315	-282
1018.385	167
1018.456	288
1018.526	-809
1018.597	-343
1018.667	-1118
1018.738	-963
1018.808	-1398
1018.878	-843
1018.949	-15
1019.019	-586
1019.089	-1403
1019.160	-810
1019.230	-1260
1019.300	-677
1019.371	-1764
1019.441	-341
1019.511	-802
1019.581	-1025
1019.651	-1088
1019.721	-321
1019.791	-529
1019.861	-446
1019.931	-6
1020.001	-854
1020.071	-576
1020.141	-998
1020.211	-689
1020.281	-1572
1020.351	-1248
1020.421	-475
1020.491	-495
1020.560	-988
1020.630	-1065
1020.700	-1129
1020.770	-961
1020.839	-1114
1020.909	-315
1020.979	-937
1021.048	-678
1021.118	-1245
1021.187	-648
1021.257	-473
1021.326	-847
1021.396	-600
1021.465	-622
1021.535	-597
1021.604	-1051
1021.674	-784
1021.743	-286
1021.812	-572
1021.882	-731
1021.951	-1088
1022.020	-16
1022.089	-610
1022.159	-787
1022.228	-1018
1022.297	-1132
1022.366	-1265
1022.435	-711
1022.504	-1720
1022.573	-769
1022.642	-866
1022.711	-300
1022.781	-919
1022.849	-237
1022.918	-1012
1022.987	-1184
1023.056	-730
1023.125	-928
1023.194	-1184
1023.263	-754
1023.331	-1103
1023.400	-772
1023.469	-1474
1023.538	-593
1023.606	-1305
1023.675	-1050
1023.744	-1288
1023.812	-1549
1023.881	-624
1023.949	-372
1024.018	-502
1024.086	-891
1024.155	-989
1024.223	-853
1024.292	-1512
1024.360	-848
1024.429	-1762
1024.497	-1384
1024.565	-1063
1024.634	-829
1024.702	-560
1024.770	207
1024.838	-541
1024.907	-651
1024.975	-1028
1025.043	-1067
1025.111	-2183
1025.179	-1815
1025.247	-1557
1025.315	-951
1025.383	-1424
1025.451	-1089
1025.519	-727
1025.587	-934
1025.655	-1451
1025.723	-1136
1025.791	-581
1025.859	-1168
1025.927	-1205
1025.995	-779
1026.062	-1089
1026.130	-740
1026.198	-1164
1026.266	-1821
1026.333	-1178
1026.401	-608
1026.469	-1361
1026.536	-1021
1026.604	-1994
1026.671	-1146
1026.739	-1048
1026.806	-963
1026.874	-1163
1026.941	-797
1027.009	-1430
1027.076	-1843
1027.144	-1012
1027.211	-756
1027.278	-1655
1027.345	-1822
1027.413	-1145
1027.480	-669
1027.547	-1299
1027.614	-1006
1027.682	-1543
1027.749	-1313
1027.816	-1684
1027.883	-1273
1027.950	-656
1028.017	-1826
1028.084	472
1028.151	-730
1028.218	-1283
1028.285	-1164
1028.352	-1275
1028.419	-1324
1028.486	-1263
1028.553	-1483
1028.619	-1847
1028.686	-1667
1028.753	-1676
1028.820	-1149
1028.886	-1837
1028.953	-1085
1029.020	-1591
1029.086	-1578
1029.153	-1830
1029.220	-1957
1029.286	-1170
1029.353	-427
1029.419	-1893
1029.486	-1177
1029.552	-2173
1029.619	-1057
1029.685	-1793
1029.751	-1331
1029.818	-569
1029.884	-636
1029.951	-833
1030.017	-1593
1030.083	-1495
1030.149	-1223
1030.216	-1703
1030.282	-1303
1030.348	-1382
1030.414	-1754
1030.480	-1962
1030.546	-1002
1030.612	-1129
1030.678	-2269
1030.744	-1990
1030.810	-552
1030.876	-1586
1030.942	-918
1031.008	-1622
1031.074	-1581
1031.140	-1178
1031.206	-465
1031.272	-1960
1031.337	-1224
1031.403	-578
1031.469	-2131
1031.534	-1261
1031.600	-1171
1031.666	-1560
1031.731	-2011
1031.797	-1217
1031.863	-1558
1031.928	-1337
1031.994	-1637
1032.059	-1297
1032.125	-2048
1032.190	-1690
1032.256	-680
1032.321	-1845
1032.386	-1301
1032.452	-358
1032.517	-1374
1032.582	-920
1032.647	-774
1032.713	-1985
1032.778	-993
1032.843	-2197
1032.908	-1772
1032.974	-1739
1033.039	-912
1033.104	-735
1033.169	-1355
1033.234	-1468
1033.299	-1465
1033.364	-806
1033.429	-545
1033.494	-1075
1033.559	-1250
1033.624	-995
1033.688	-814
1033.753	-659
1033.818	1426
1033.883	446
1033.948	2184
1034.013	2809
1034.077	5003
1034.142	7551
1034.207	10342
1034.271	15099
1034.336	19404
1034.400	13662
1034.465	8416
1034.530	2563
1034.594	1269
1034.658	-256
1034.723	493
1034.787	-413
1034.852	-1074
1034.916	-1770
1034.981	-1899
1035.045	-1482
1035.109	-2082
1035.173	-1319
1035.238	-1036
1035.302	-1856
1035.366	-972
1035.430	-1591
1035.495	-1824
1035.559	-783
1035.623	-1380
1035.687	-2046
1035.751	-1516
1035.815	-1700
1035.879	-1854
1035.943	-1453
1036.007	-1794
1036.071	-1924
1036.135	-869
1036.198	-2094
1036.262	-1819
1036.326	-1767
1036.390	-2305
1036.454	-1230
1036.517	-841
1036.581	-826
1036.645	-1421
1036.709	-886
1036.772	-1444
1036.836	-1095
1036.900	-425
1036.963	-1155
1037.026	-928
1037.090	-2632
1037.154	-1258
1037.217	-1394
1037.280	-1389
1037.344	-1461
1037.407	-483
1037.471	-582
1037.534	-1137
1037.597	-520
1037.661	164
1037.724	-80
1037.787	-1378
1037.850	-463
1037.913	-399
1037.977	-801
1038.040	-1748
1038.103	-1805
1038.166	-2089
1038.229	-1546
1038.292	-1646
1038.355	-2039
1038.418	-1880
1038.481	-1405
1038.544	-1764
1038.607	-1782
1038.670	-1992
1038.732	-2147
1038.795	-2130
1038.858	-2401
1038.921	-1949
1038.984	-1391
1039.046	-1699
1039.109	-965
1039.172	-2077
1039.234	-1399
1039.297	-1388
1039.360	-1225
1039.422	-1616
1039.485	-2066
1039.547	-2011
1039.610	-632
1039.672	-1624
1039.734	-2008
1039.797	-1279
1039.859	-1443
1039.922	-1230
1039.984	-2072
1040.046	-1998
1040.109	-2183
1040.171	-1753
1040.233	-901
1040.295	-1851
1040.358	-1897
1040.420	-2033
1040.482	-2218
1040.544	-1213
1040.606	-1932
1040.668	-1386
1040.730	-2308
1040.792	-2622
1040.854	-2100
1040.916	-2003
1040.978	-2156
1041.040	-1417
1041.102	-1043
1041.164	-2158
1041.225	-2141
1041.287	-2061
1041.349	-1825
1041.411	-1326
1041.472	-2233
1041.534	-1972
1041.596	-2367
1041.657	-2097
1041.719	-2282
1041.781	-2567
1041.842	-1755
1041.904	-2319
1041.965	-2005
1042.027	-1981
1042.088	-1425
1042.150	-1961
1042.211	-1010
1042.272	-1152
1042.334	-2492
1042.395	-2228
1042.456	-2370
1042.518	-2081
1042.579	-1856
1042.640	-1529
1042.701	-2107
1042.763	-2002
1042.824	-2502
1042.885	-1758
1042.946	-2121
1043.007	-1727
1043.068	-1394
1043.129	-2041
1043.190	-2078
1043.251	-1578
1043.312	-1536
1043.373	-1195
1043.434	-2610
1043.495	-1601
1043.556	-1893
1043.616	-2002
1043.677	-1841
1043.738	-1915
1043.799	-2574
1043.859	-1576
1043.920	-1518
1043.981	-1402
1044.041	-2270
1044.102	-2049
1044.162	-1865
1044.223	-2264
1044.284	-2161
1044.344	-1262
1044.405	-2122
1044.465	-1335
1044.525	-2673
1044.586	-953
1044.646	-1519
1044.707	-1504
1044.767	-1496
1044.827	-2010
1044.887	-2032
1044.948	-1809
1045.008	-1742
1045.068	-1909
1045.128	-2366
1045.188	-1756
1045.249	-1549
1045.309	-1793
1045.369	-2060
1045.429	-1840
1045.489	-1809
1045.549	-889
1045.609	-1960
1045.669	-1686
1045.729	-1664
1045.789	-1577
1045.848	-1879
1045.908	-1790
1045.968	-1990
1046.028	-1480
1046.088	-1645
1046.147	-868
1046.207	-1030
1046.267	-2104
1046.326	-1664
1046.386	-1002
1046.446	-1061
1046.505	-637
1046.565	-1140
1046.624	-210
1046.684	-1206
1046.743	-770
1046.803	-800
1046.862	614
1046.922	0
