'Start Wavelength	183.907
'End Wavelength	1046.922
'Gate Delay	5.000
'Gate Width (ms)	1.050
'Laser Output Level	0.000
'X Position	0.000
'Y Position	0.000
'Z Position	0.000
'Grid Point Number	1.000
'Shot Number	100.000
183.907	-68.000
183.977	-113.000
184.047	-98
184.116	298
184.186	409
184.256	447
184.325	-796
184.395	-1018
184.465	506
184.534	84
184.604	-474
184.674	-110
184.743	-350
184.813	-308
184.883	408
184.952	131
185.022	498
185.092	-321
185.161	-262
185.231	-425
185.301	-341
185.370	917
185.440	-603
185.509	-442
185.579	-1034
185.649	776
185.718	1106
185.788	579
185.857	-528
185.927	-697
185.996	235
186.066	-32
186.136	240
186.205	-446
186.275	-542
186.344	-202
186.414	34
186.483	-443
186.553	694
186.622	171
186.692	297
186.761	-603
186.831	-124
186.900	-575
186.970	-434
187.039	93
187.109	-205
187.178	117
187.248	-522
187.317	149
187.387	160
187.456	-9
187.526	670
187.595	-502
187.664	-479
187.734	39
187.803	-98
187.873	220
187.942	326
188.012	-257
188.081	-478
188.150	-311
188.220	-414
188.289	291
188.358	-459
188.428	88
188.497	-1169
188.567	637
188.636	-440
188.705	-145
188.775	-83
188.844	-1050
188.913	15
188.983	-661
189.052	369
189.121	-424
189.191	-890
189.260	417
189.329	-244
189.399	-271
189.468	-485
189.537	-929
189.606	-142
189.676	-429
189.745	-351
189.814	-135
189.883	-608
189.953	-900
190.022	-212
190.091	-888
190.161	-570
190.230	204
190.299	-568
190.368	-568
190.437	240
190.507	-264
190.576	-1013
190.645	-45
190.714	-339
190.783	-440
190.853	830
190.922	-129
190.991	-1484
191.060	31
191.129	-515
191.198	34
191.268	-476
191.337	-377
191.406	-643
191.475	-415
191.544	-1725
191.613	120
191.682	-520
191.752	-430
191.821	-510
191.890	250
191.959	232
192.028	358
192.097	31
192.166	161
192.235	-735
192.304	287
192.373	-847
192.442	102
192.511	-942
192.580	347
192.650	-202
192.719	-854
192.788	-163
192.857	-276
192.926	-407
192.995	139
193.064	-566
193.133	-595
193.202	-645
193.271	-325
193.340	-124
193.409	-762
193.478	-864
193.547	-180
193.615	-313
193.684	23
193.753	-807
193.822	-108
193.891	30
193.960	-255
194.029	-43
194.098	-244
194.167	-666
194.236	96
194.305	-528
194.374	-320
194.443	357
194.512	-778
194.580	310
194.649	48
194.718	244
194.787	-125
194.856	-201
194.925	181
194.994	-577
195.062	694
195.131	-259
195.200	-427
195.269	-559
195.338	-81
195.407	-287
195.475	-808
195.544	-483
195.613	-382
195.682	-441
195.751	-713
195.819	-984
195.888	-292
195.957	321
196.026	-628
196.094	14
196.163	-269
196.232	-526
196.301	-749
196.369	-469
196.438	-303
196.507	-334
196.576	-829
196.644	-560
196.713	78
196.782	-859
196.850	94
196.919	-670
196.988	-887
197.056	-1058
197.125	-523
197.194	-551
197.262	-586
197.331	-378
197.400	-265
197.468	-352
197.537	-1108
197.606	-184
197.674	-34
197.743	-388
197.812	-1631
197.880	-434
197.949	5
198.017	-457
198.086	-558
198.155	-157
198.223	-420
198.292	-110
198.360	-128
198.429	-496
198.497	-350
198.566	-336
198.635	-381
198.703	290
198.772	154
198.840	-303
198.909	-622
198.977	-890
199.046	-200
199.114	-805
199.183	-444
199.251	-844
199.320	-835
199.388	-162
199.457	-419
199.525	-638
199.594	328
199.662	-410
199.731	-669
199.799	476
199.867	179
199.936	-1074
200.004	-300
200.073	284
200.141	-131
200.210	-258
200.278	-488
200.346	-336
200.415	80
200.483	-614
200.552	-87
200.620	-493
200.688	-1200
200.757	-208
200.825	-14
200.893	-596
200.962	87
201.030	-677
201.098	-180
201.167	-149
201.235	-1135
201.303	194
201.372	101
201.440	-237
201.508	-354
201.577	-699
201.645	15
201.713	-762
201.781	-132
201.850	-505
201.918	-620
201.986	410
202.055	-325
202.123	-305
202.191	218
202.259	-453
202.327	-155
202.396	-104
202.464	-233
202.532	-1097
202.600	630
202.669	-578
202.737	-778
202.805	-582
202.873	164
202.941	-58
203.009	-510
203.078	-756
203.146	-536
203.214	-392
203.282	-565
203.350	-730
203.418	-1104
203.487	-236
203.555	-690
203.623	221
203.691	-458
203.759	-590
203.827	-1252
203.895	-416
203.963	-522
204.031	-252
204.099	-416
204.168	-727
204.236	-123
204.304	-486
204.372	-160
204.440	-1142
204.508	-530
204.576	-66
204.644	-66
204.712	-194
204.780	-211
204.848	-386
204.916	-970
204.984	-613
205.052	146
205.120	-1013
205.188	-442
205.256	-580
205.324	-329
205.392	-26
205.460	472
205.528	-1164
205.596	-654
205.664	-575
205.732	-751
205.799	-722
205.867	-859
205.935	-1343
206.003	-164
206.071	-804
206.139	-572
206.207	146
206.275	-615
206.343	-638
206.411	-382
206.478	-110
206.546	-492
206.614	-271
206.682	-1129
206.750	150
206.818	-630
206.885	130
206.953	-1598
207.021	1027
207.089	42
207.157	-1469
207.225	-923
207.292	-886
207.360	-1116
207.428	-1316
207.496	-972
207.563	-259
207.631	931
207.699	-1020
207.767	-449
207.834	-218
207.902	-412
207.970	-1133
208.038	-330
208.105	-235
208.173	-617
208.241	-304
208.309	-157
208.376	-739
208.444	-324
208.512	-747
208.579	-1074
208.647	285
208.715	1042
208.782	-728
208.850	-111
208.918	-553
208.985	-428
209.053	153
209.120	-279
209.188	240
209.256	-590
209.323	-1285
209.391	-1008
209.459	942
209.526	770
209.594	-681
209.661	-662
209.729	-826
209.796	-630
209.864	-832
209.932	-2120
209.999	350
210.067	-243
210.134	-1071
210.202	-807
210.269	182
210.337	-168
210.404	-221
210.472	-258
210.539	-252
210.607	-502
210.674	-376
210.742	-269
210.809	-1208
210.877	-768
210.944	402
211.012	-1521
211.079	975
211.146	318
211.214	-368
211.281	-149
211.349	414
211.416	-296
211.484	-434
211.551	-505
211.618	21
211.686	-459
211.753	-847
211.821	-381
211.888	-416
211.955	-102
212.023	-352
212.090	-171
212.157	-680
212.225	-347
212.292	-272
212.359	-66
212.427	907
212.494	-605
212.561	29
212.629	-696
212.696	-533
212.763	94
212.831	-824
212.898	-788
212.965	-391
213.032	-201
213.100	-179
213.167	-967
213.234	-76
213.301	-500
213.369	-607
213.436	-479
213.503	-1325
213.570	-303
213.638	-1046
213.705	-773
213.772	-1465
213.839	-1110
213.906	38
213.973	-313
214.041	-953
214.108	-521
214.175	-266
214.242	-1205
214.309	-296
214.376	-957
214.444	-739
214.511	-909
214.578	-1351
214.645	-22
214.712	-361
214.779	-195
214.846	-916
214.913	-99
214.980	-437
215.048	-252
215.115	-531
215.182	-654
215.249	-532
215.316	-1432
215.383	-45
215.450	-484
215.517	-159
215.584	-613
215.651	-239
215.718	-352
215.785	207
215.852	-915
215.919	-106
215.986	-521
216.053	-140
216.120	-767
216.187	-1028
216.254	-36
216.321	-538
216.388	-676
216.455	-550
216.522	-576
216.589	-420
216.656	-1069
216.722	92
216.789	-859
216.856	-523
216.923	-360
216.990	-409
217.057	-892
217.124	-701
217.191	-55
217.258	-658
217.324	-710
217.391	282
217.458	-338
217.525	-49
217.592	-419
217.659	-1797
217.725	-488
217.792	-1015
217.859	-268
217.926	-796
217.993	-894
218.059	56
218.126	-983
218.193	-818
218.260	-353
218.327	-750
218.393	-876
218.460	-180
218.527	-969
218.594	-1225
218.660	-1064
218.727	-466
218.794	-821
218.860	-315
218.927	-856
218.994	-1113
219.061	-841
219.127	-1039
219.194	-367
219.261	-280
219.327	-617
219.394	706
219.461	-749
219.527	-404
219.594	-619
219.661	-716
219.727	-1245
219.794	-225
219.860	-1754
219.927	-551
219.994	749
220.060	-1063
220.127	-186
220.193	45
220.260	-570
220.326	109
220.393	-1000
220.460	-1076
220.526	-1006
220.593	-1055
220.659	702
220.726	-919
220.792	-1230
220.859	-1033
220.925	-945
220.992	-1209
221.058	1
221.125	-119
221.191	-1277
221.258	-438
221.324	-382
221.391	-1126
221.457	-1330
221.524	-737
221.590	-147
221.657	-828
221.723	-909
221.789	-845
221.856	-579
221.922	-1398
221.989	273
222.055	-465
222.121	-1032
222.188	537
222.254	-719
222.321	-1087
222.387	-1040
222.453	-481
222.520	-796
222.586	-1096
222.652	-1108
222.719	-199
222.785	-375
222.851	-607
222.918	-452
222.984	-1147
223.050	-683
223.116	-2006
223.183	-222
223.249	-818
223.315	-805
223.382	-869
223.448	-640
223.514	-1176
223.580	-998
223.647	-1316
223.713	-1104
223.779	-467
223.845	-679
223.911	-326
223.978	-1147
224.044	244
224.110	-1195
224.176	99
224.242	-181
224.309	-1947
224.375	-465
224.441	-150
224.507	-868
224.573	-1802
224.639	477
224.705	-1801
224.772	-431
224.838	-551
224.904	-1240
224.970	-303
225.036	-1551
225.102	-1384
225.168	-158
225.234	-143
225.300	-573
225.366	-996
225.432	450
225.499	-451
225.565	-451
225.631	-742
225.697	-1423
225.763	-532
225.829	-470
225.895	-627
225.961	-1167
226.027	-1027
226.093	-1101
226.159	279
226.225	-315
226.291	-604
226.357	-155
226.423	-792
226.489	-488
226.554	-530
226.620	245
226.686	-434
226.752	-877
226.818	-906
226.884	-239
226.950	36
227.016	-279
227.082	-236
227.148	-326
227.214	-1299
227.279	-710
227.345	-736
227.411	-1089
227.477	-935
227.543	1244
227.609	524
227.674	362
227.740	-587
227.806	-600
227.872	-1091
227.938	-174
228.003	-1087
228.069	-683
228.135	-944
228.201	-311
228.267	-251
228.332	-1161
228.398	-1207
228.464	-55
228.530	-877
228.595	-418
228.661	-1356
228.727	-1464
228.792	306
228.858	-1302
228.924	-2939
228.990	934
229.055	-1453
229.121	-281
229.187	-493
229.252	-654
229.318	-1507
229.384	43
229.449	-155
229.515	-2254
229.581	-772
229.646	318
229.712	-948
229.777	-1069
229.843	-914
229.909	-36
229.974	-488
230.040	-845
230.105	-127
230.171	-1741
230.236	-192
230.302	-1352
230.368	-719
230.433	-1384
230.499	-783
230.564	556
230.630	-1085
230.695	-1133
230.761	-414
230.826	-2066
230.892	705
230.957	-825
231.023	-1293
231.088	-405
231.154	-852
231.219	269
231.284	-1418
231.350	-314
231.415	-1649
231.481	-173
231.546	-1051
231.612	-1007
231.677	-1273
231.742	-1427
231.808	892
231.873	-1424
231.939	-3413
232.004	225
232.069	235
232.135	-1456
232.200	-1572
232.265	-389
232.331	-944
232.396	-1353
232.461	-999
232.527	-1580
232.592	-545
232.657	-988
232.723	-757
232.788	-1006
232.853	714
232.918	-707
232.984	-2123
233.049	-984
233.114	-654
233.179	-338
233.245	-303
233.310	-653
233.375	-1298
233.440	-129
233.506	-1297
233.571	-1245
233.636	-677
233.701	-448
233.766	-1100
233.832	-763
233.897	-784
233.962	-2204
234.027	290
234.092	-875
234.157	-1905
234.222	-1295
234.288	-1014
234.353	-940
234.418	-827
234.483	-170
234.548	-693
234.613	-1143
234.678	-597
234.743	-1815
234.808	366
234.873	-2602
234.938	336
235.004	-677
235.069	-832
235.134	-945
235.199	227
235.264	-70
235.329	-2328
235.394	-328
235.459	-273
235.524	-1845
235.589	-319
235.654	-907
235.719	-1801
235.784	-775
235.849	-1158
235.913	-852
235.978	-543
236.043	-768
236.108	-1411
236.173	-1744
236.238	-565
236.303	-705
236.368	-493
236.433	71
236.498	-1344
236.563	-419
236.627	-678
236.692	-186
236.757	45
236.822	-597
236.887	-1655
236.952	31
237.017	-2321
237.081	-50
237.146	-1488
237.211	-442
237.276	-657
237.341	747
237.405	-976
237.470	-1072
237.535	-751
237.600	-673
237.664	-439
237.729	-2080
237.794	-1775
237.859	38
237.923	-1197
237.988	-550
238.053	-783
238.118	-1166
238.182	-1366
238.247	-183
238.312	-1905
238.376	-270
238.441	-2416
238.506	-7
238.570	-1983
238.635	109
238.700	-1179
238.764	-979
238.829	-1068
238.893	-1961
238.958	-180
239.023	-1537
239.087	-1515
239.152	-371
239.216	-1142
239.281	-617
239.346	-1065
239.410	-1041
239.475	-1055
239.539	-631
239.604	-1908
239.668	-68
239.733	-889
239.797	134
239.862	1705
239.926	1306
239.991	1
240.055	-745
240.120	-1834
240.184	-44
240.249	-1425
240.313	-1110
240.378	-1335
240.442	-867
240.507	-372
240.571	-1419
240.635	-1119
240.700	-894
240.764	-1612
240.829	-729
240.893	-2144
240.957	-28
241.022	-779
241.086	-231
241.151	-1860
241.215	-1808
241.279	83
241.344	-1915
241.408	-471
241.472	-1782
241.537	442
241.601	-291
241.665	-1328
241.730	-1328
241.794	-195
241.858	-1398
241.922	-1368
241.987	-1166
242.051	-1488
242.115	-1530
242.179	-1079
242.244	-1300
242.308	-992
242.372	-308
242.436	-1620
242.501	-477
242.565	-1314
242.629	-1451
242.693	-694
242.757	-1149
242.822	-1381
242.886	-351
242.950	-237
243.014	-1350
243.078	-850
243.142	-1474
243.206	-1652
243.271	-904
243.335	-1270
243.399	-569
243.463	-1708
243.527	-216
243.591	-1089
243.655	-1204
243.719	-634
243.783	111
243.847	-342
243.911	-535
243.975	-1272
244.040	-2317
244.104	249
244.168	-449
244.232	-1426
244.296	-861
244.360	-1210
244.424	-2071
244.488	-911
244.552	-573
244.615	-2776
244.679	-524
244.743	-916
244.807	-1759
244.871	-368
244.935	344
244.999	-2280
245.063	-654
245.127	-8
245.191	-8
245.255	-1652
245.319	-1361
245.383	-2181
245.446	269
245.510	-2060
245.574	-775
245.638	-777
245.702	-2310
245.766	-287
245.829	-89
245.893	-2108
245.957	-1687
246.021	-231
246.085	-1423
246.149	-1325
246.212	-139
246.276	-1232
246.340	-1358
246.404	-1003
246.467	260
246.531	-2830
246.595	-242
246.659	36
246.722	-2103
246.786	-1419
246.850	-765
246.913	-853
246.977	-2182
247.041	-780
247.104	-1184
247.168	-860
247.232	-202
247.295	-1044
247.359	-712
247.423	-734
247.486	-1043
247.550	436
247.614	-826
247.677	-1207
247.741	-1301
247.804	-1046
247.868	-776
247.932	-1606
247.995	-63
248.059	-1044
248.122	-2013
248.186	-125
248.249	-1075
248.313	-406
248.376	487
248.440	-935
248.503	-2373
248.567	836
248.630	-2044
248.694	-938
248.757	-268
248.821	-208
248.884	13
248.948	-1314
249.011	-830
249.075	-1018
249.138	13
249.202	-1782
249.265	-1323
249.328	-515
249.392	-2127
249.455	-94
249.519	-1965
249.582	-1444
249.645	-265
249.709	-1009
249.772	-1206
249.835	-1210
249.899	-517
249.962	-595
250.025	-1005
250.089	-729
250.152	-146
250.215	-580
250.279	-1545
250.342	-472
250.405	-500
250.468	-863
250.532	-1881
250.595	-614
250.658	-1147
250.721	956
250.785	-1647
250.848	-497
250.911	-1572
250.974	-939
251.038	-1385
251.101	158
251.164	-1486
251.227	-805
251.290	-1634
251.354	-925
251.417	587
251.480	-482
251.543	-639
251.606	2651
251.669	1820
251.732	588
251.795	-422
251.859	-360
251.922	443
251.985	328
252.048	-278
252.111	-873
252.174	-1589
252.237	-646
252.300	190
252.363	-690
252.426	1978
252.489	-634
252.552	-527
252.615	-2094
252.678	106
252.741	-791
252.804	-1282
252.867	792
252.930	-48
252.993	-262
253.056	-686
253.119	-847
253.182	-1835
253.245	-818
253.308	-793
253.371	-1450
253.434	-326
253.497	-836
253.559	-419
253.622	-1150
253.685	-1797
253.748	-1057
253.811	-1336
253.874	-688
253.937	-1831
254.000	-1010
254.062	-910
254.125	-1648
254.188	-48
254.251	-1436
254.314	-1185
254.376	-1470
254.439	-546
254.502	-1499
254.565	-889
254.628	-122
254.690	-760
254.753	-1291
254.816	-1234
254.878	-1947
254.941	-149
255.004	-1384
255.067	-587
255.129	-1208
255.192	-608
255.255	-2443
255.317	-1482
255.380	-764
255.443	-966
255.505	-1483
255.568	-1956
255.631	-1500
255.693	-397
255.756	-1578
255.819	-492
255.881	-992
255.944	-705
256.006	-714
256.069	-1249
256.132	-1670
256.194	-892
256.257	-459
256.319	-1050
256.382	-1676
256.444	-528
256.507	-1563
256.569	-1106
256.632	-1170
256.694	-1644
256.757	-478
256.819	-327
256.882	-2065
256.944	-1348
257.007	-492
257.069	-1716
257.132	-1270
257.194	-704
257.257	-1099
257.319	-1985
257.381	-2070
257.444	311
257.506	-845
257.569	-248
257.631	-998
257.693	-954
257.756	-620
257.818	-1149
257.880	-1771
257.943	-368
258.005	-1018
258.067	-839
258.130	-1110
258.192	-1909
258.254	-1937
258.317	-1034
258.379	-535
258.441	-1569
258.503	-954
258.566	-1412
258.628	-881
258.690	-2203
258.753	-850
258.815	-784
258.877	-1750
258.939	-366
259.001	-1089
259.064	-1599
259.126	-1468
259.188	-935
259.250	-599
259.312	-442
259.375	-967
259.437	-950
259.499	-994
259.561	-1553
259.623	-1016
259.685	-1748
259.747	-664
259.809	-642
259.872	-1322
259.934	-861
259.996	-1012
260.058	-857
260.120	-1048
260.182	-1731
260.244	-925
260.306	-1540
260.368	-1071
260.430	-1369
260.492	-1786
260.554	-544
260.616	-1742
260.678	-924
260.740	-1414
260.802	-1129
260.864	-804
260.926	-2122
260.988	-956
261.050	-944
261.112	-1973
261.174	-926
261.236	-740
261.298	-1811
261.359	-1362
261.421	-327
261.483	-1935
261.545	-633
261.607	-1754
261.669	-1232
261.731	-848
261.793	-882
261.854	-3194
261.916	-957
261.978	-1025
262.040	-572
262.102	-1020
262.164	-2053
262.225	-1650
262.287	-736
262.349	-1801
262.411	-1320
262.472	-967
262.534	-2072
262.596	-1688
262.658	-662
262.719	-2354
262.781	-223
262.843	-1892
262.904	-851
262.966	-1117
263.028	-887
263.090	-1077
263.151	-1080
263.213	-986
263.275	-547
263.336	-1227
263.398	-20
263.459	-1721
263.521	-830
263.583	-976
263.644	-604
263.706	-1718
263.767	-1472
263.829	-1219
263.891	-1315
263.952	-1038
264.014	-1319
264.075	-1462
264.137	-1645
264.198	-506
264.260	-1623
264.321	-1722
264.383	-1557
264.444	-422
264.506	-1847
264.567	-367
264.629	-394
264.690	-2181
264.752	-1448
264.813	-1572
264.875	-2007
264.936	-968
264.998	-1887
265.059	-782
265.120	-1390
265.182	-609
265.243	-1831
265.305	-1162
265.366	-518
265.427	-1585
265.489	-1039
265.550	-2369
265.611	-1047
265.673	-1589
265.734	-959
265.795	-1095
265.857	-889
265.918	-2572
265.979	-762
266.040	-1222
266.102	-445
266.163	-692
266.224	-1582
266.286	-762
266.347	-2513
266.408	-1357
266.469	-1278
266.530	-900
266.592	-1411
266.653	-716
266.714	-1551
266.775	-1800
266.836	-379
266.898	-1879
266.959	-1718
267.020	-1654
267.081	-854
267.142	-1402
267.203	-1200
267.264	-1323
267.326	-239
267.387	-1781
267.448	-1921
267.509	-804
267.570	-1116
267.631	-1589
267.692	-2337
267.753	-975
267.814	-1346
267.875	-1149
267.936	-1428
267.997	-1614
268.058	-1457
268.119	-1655
268.180	-1135
268.241	-2552
268.302	-570
268.363	-1169
268.424	-1575
268.485	-1326
268.546	-1068
268.607	-2127
268.668	-1425
268.729	-1355
268.790	-1530
268.851	-1049
268.912	-1495
268.972	-2070
269.033	-1501
269.094	-1593
269.155	-1211
269.216	-1756
269.277	-1731
269.338	-1544
269.398	-1578
269.459	-2015
269.520	-1161
269.581	-1535
269.642	-1749
269.702	-1278
269.763	-1317
269.824	-1856
269.885	-1025
269.945	-494
270.006	-1309
270.067	-1271
270.128	-1013
270.188	-1824
270.249	-1448
270.310	-1624
270.370	-1352
270.431	-1674
270.492	-1671
270.553	-1479
270.613	-1944
270.674	-2663
270.734	-924
270.795	-1484
270.856	-1045
270.916	-1573
270.977	-1952
271.038	-271
271.098	-1192
271.159	-1231
271.219	-1257
271.280	-763
271.340	-1577
271.401	-2274
271.462	-781
271.522	-1923
271.583	-1255
271.643	-1273
271.704	-1762
271.764	-742
271.825	-1229
271.885	-1475
271.946	338
272.006	-810
272.066	-229
272.127	174
272.187	740
272.248	-579
272.308	-742
272.369	-1342
272.429	-927
272.489	-1001
272.550	-1092
272.610	-849
272.671	-476
272.731	-909
272.791	-1694
272.852	-1516
272.912	-673
272.972	-1608
273.033	-1465
273.093	-1137
273.153	-568
273.214	-813
273.274	-1416
273.334	-651
273.394	78
273.455	-1010
273.515	-466
273.575	-766
273.635	-372
273.696	418
273.756	268
273.816	-153
273.876	-190
273.936	-494
273.997	-375
274.057	-1161
274.117	-773
274.177	-810
274.237	-810
274.297	236
274.358	-1181
274.418	-1214
274.478	-634
274.538	-910
274.598	-1651
274.658	-1083
274.718	-1409
274.778	-1452
274.838	-947
274.898	-2034
274.958	-600
275.018	-1298
275.078	-1286
275.138	-1541
275.198	-1262
275.258	-1300
275.318	-1518
275.378	-1057
275.438	-1075
275.498	-1147
275.558	-1485
275.618	-995
275.678	-1779
275.738	-1438
275.798	-1828
275.858	-1731
275.918	-811
275.978	-1421
276.038	-1489
276.098	-841
276.157	-996
276.217	-1419
276.277	-940
276.337	-1067
276.397	-1350
276.457	-1009
276.517	-558
276.576	-824
276.636	-1559
276.696	-1015
276.756	-1551
276.815	-1315
276.875	-404
276.935	-1578
276.995	-1188
277.055	-1083
277.114	-921
277.174	-1052
277.234	-573
277.293	-1187
277.353	-524
277.413	-502
277.472	-595
277.532	-512
277.592	-439
277.651	2351
277.711	9343
277.771	1797
277.830	8007
277.890	8176
277.950	3514
278.009	16575
278.069	7561
278.128	5246
278.188	9481
278.248	2907
278.307	8579
278.367	7955
278.426	267
278.486	268
278.545	-300
278.605	474
278.664	-798
278.724	-617
278.783	308
278.843	1108
278.902	43
278.962	-332
279.021	-211
279.081	1674
279.140	1330
279.199	163
279.259	863
279.318	968
279.378	2217
279.437	4326
279.496	12296
279.556	64152
279.615	55561
279.675	12776
279.734	5218
279.793	5271
279.853	6561
279.912	2625
279.971	1760
280.031	1745
280.090	2720
280.149	4338
280.208	7038
280.268	42800
280.327	49273
280.386	10679
280.445	3814
280.505	1862
280.564	1503
280.623	680
280.682	910
280.742	1217
280.801	-230
280.860	-831
280.919	-415
280.978	-158
281.037	-560
281.097	-362
281.156	-79
281.215	-1121
281.274	-77
281.333	-534
281.392	-1061
281.451	-1076
281.510	-367
281.569	-726
281.628	-1045
281.688	-1043
281.747	-274
281.806	-459
281.865	-1210
281.924	-1312
281.983	-1336
282.042	-1500
282.101	-132
282.160	-543
282.219	-526
282.278	-522
282.337	-1171
282.396	-269
282.454	-683
282.513	-777
282.572	-1003
282.631	-975
282.690	-856
282.749	-1159
282.808	-521
282.867	-887
282.926	-355
282.985	-234
283.043	-1024
283.102	-928
283.161	147
283.220	-102
283.279	139
283.338	-518
283.396	-1150
283.455	489
283.514	-90
283.573	78
283.631	-20
283.690	-951
283.749	-583
283.808	-220
283.866	-252
283.925	-1154
283.984	-119
284.043	300
284.101	-362
284.160	-343
284.219	970
284.277	1035
284.336	557
284.395	1817
284.453	1185
284.512	1404
284.570	2541
284.629	2149
284.688	2778
284.746	4384
284.805	5468
284.863	8124
284.922	10923
284.981	13101
285.039	17507
285.098	26218
285.156	40825
285.215	50621
285.273	42287
285.332	41408
285.390	32946
285.449	22452
285.507	16274
285.566	10791
285.624	8878
285.683	7959
285.741	5008
285.799	3983
285.858	3172
285.916	2676
285.975	2006
286.033	1789
286.091	727
286.150	358
286.208	739
286.267	445
286.325	-185
286.383	331
286.442	410
286.500	-146
286.558	175
286.616	17
286.675	665
286.733	249
286.791	-300
286.850	187
286.908	-426
286.966	-959
287.024	-289
287.083	-377
287.141	-245
287.199	-624
287.257	-351
287.315	-751
287.374	-867
287.432	-636
287.490	-820
287.548	-690
287.606	-921
287.664	-776
287.723	-707
287.781	-537
287.839	-1122
287.897	-1367
287.955	-823
288.013	194
288.071	-575
288.129	742
288.187	10091
288.245	4127
288.303	214
288.361	-751
288.419	-878
288.477	-831
288.535	-1034
288.593	-1114
288.651	-363
288.709	-1517
288.767	-1013
288.825	-2243
288.883	-1039
288.941	-1556
288.999	-1785
289.057	-984
289.115	-1690
289.173	-1466
289.231	-1906
289.289	-1374
289.346	-666
289.404	-747
289.462	-895
289.520	-1602
289.578	-1006
289.636	-1430
289.694	-1961
289.751	-1265
289.809	-1021
289.867	-828
289.925	-160
289.983	-633
290.040	-1209
290.098	-1278
290.156	-1322
290.214	-1371
290.271	-768
290.329	-27
290.387	-840
290.444	-2159
290.502	-1156
290.560	-830
290.617	-2230
290.675	-1361
290.733	-1403
290.790	-702
290.848	-1307
290.906	-969
290.963	-695
291.021	-1167
291.078	-1445
291.136	-851
291.194	-1409
291.251	-1602
291.309	-1135
291.366	-876
291.424	-987
291.481	-1122
291.539	-1526
291.596	-413
291.654	-1057
291.711	-1355
291.769	-1825
291.826	-1514
291.884	-1491
291.941	-1151
291.999	-951
292.056	-1334
292.114	-1388
292.171	-1828
292.228	-523
292.286	-1356
292.343	-1542
292.401	-1402
292.458	-774
292.515	-2011
292.573	142
292.630	-1679
292.687	-1383
292.745	-1347
292.802	-1372
292.859	-1596
292.917	-305
292.974	-597
293.031	-716
293.089	-1079
293.146	-118
293.203	-1770
293.260	-1239
293.318	-973
293.375	-1555
293.432	-1159
293.489	-445
293.546	-966
293.604	-1862
293.661	153
293.718	2282
293.775	-455
293.832	-88
293.889	653
293.947	630
294.004	-991
294.061	-709
294.118	-1075
294.175	-270
294.232	1673
294.289	374
294.346	-580
294.403	-809
294.460	-1696
294.517	-1516
294.574	-1573
294.631	-1325
294.688	-1104
294.745	-904
294.802	-273
294.859	-65
294.916	-1360
294.973	-1134
295.030	-1557
295.087	-1241
295.144	-1019
295.201	-1823
295.258	-1177
295.315	-1780
295.372	77
295.429	-33
295.486	-1666
295.542	-997
295.599	-872
295.656	-1084
295.713	-798
295.770	-728
295.827	-1396
295.883	-1155
295.940	-1658
295.997	-1335
296.054	-1888
296.111	-613
296.167	-692
296.224	-1161
296.281	-1486
296.338	-1227
296.394	-1949
296.451	-940
296.508	-1016
296.564	-591
296.621	-130
296.678	594
296.734	442
296.791	-794
296.848	-951
296.904	-1184
296.961	-1457
297.018	-304
297.074	-1010
297.131	-1231
297.187	-946
297.244	-787
297.301	195
297.357	1541
297.414	241
297.470	-213
297.527	-1767
297.583	-813
297.640	-1266
297.696	-1632
297.753	-1197
297.809	-1508
297.866	-1420
297.922	-1434
297.979	-1965
298.035	-1264
298.092	-1287
298.148	-826
298.204	-139
298.261	-797
298.317	-562
298.374	506
298.430	12
298.486	-857
298.543	-880
298.599	-1501
298.656	-1360
298.712	-1220
298.768	-720
298.824	-1580
298.881	-1035
298.937	-1033
298.993	-706
299.050	-1550
299.106	-1590
299.162	-1221
299.218	-739
299.275	-1466
299.331	-1223
299.387	-231
299.443	565
299.500	5754
299.556	5440
299.612	1719
299.668	1179
299.724	3387
299.780	7302
299.837	2165
299.893	389
299.949	2454
300.005	6453
300.061	4422
300.117	8253
300.173	3711
300.229	656
300.285	-871
300.341	-647
300.397	-647
300.453	-969
300.510	-200
300.566	-256
300.622	816
300.678	7457
300.734	12571
300.790	6517
300.845	2434
300.901	3015
300.957	7675
301.013	3943
301.069	864
301.125	204
301.181	-680
301.237	-1164
301.293	-311
301.349	-677
301.405	-1138
301.461	-1164
301.516	-454
301.572	-1280
301.628	-681
301.684	-2000
301.740	-1257
301.796	-893
301.851	-829
301.907	-345
301.963	-905
302.019	-811
302.074	3863
302.130	4994
302.186	2606
302.242	361
302.297	-697
302.353	-1033
302.409	-269
302.464	-1182
302.520	-869
302.576	-183
302.631	786
302.687	-607
302.743	-965
302.798	-1124
302.854	-1319
302.910	-1448
302.965	-1117
303.021	-1294
303.076	-743
303.132	-1056
303.187	-1118
303.243	-1226
303.299	-1584
303.354	-2079
303.410	-1341
303.465	-1304
303.521	-1231
303.576	-1651
303.632	-1320
303.687	-979
303.743	-120
303.798	658
303.853	-1142
303.909	-2114
303.964	-1314
304.020	-1830
304.075	-1588
304.130	-1197
304.186	-829
304.241	-667
304.297	-939
304.352	-1709
304.358	-1648
304.407	-1156
304.449	-743
304.463	-599
304.518	-1138
304.539	-1319
304.573	-1635
304.629	-1398
304.630	-1399
304.684	-1481
304.720	-1047
304.739	-835
304.794	171
304.811	307
304.850	620
304.902	-1298
304.905	-1424
304.960	-1562
304.992	-1300
305.015	-1131
305.071	-918
305.083	-932
305.126	-966
305.173	-928
305.181	-917
305.236	-1663
305.264	-1443
305.292	-1251
305.347	-1341
305.354	-1305
305.402	-1012
305.445	-793
305.457	-758
305.512	-389
305.535	-671
305.567	-950
305.622	-168
305.626	-209
305.678	-949
305.716	-554
305.733	-398
305.788	569
305.807	239
305.843	-297
305.897	154
305.898	160
305.953	1000
305.988	576
306.008	295
306.063	-269
306.078	-338
306.118	-388
306.168	-379
306.173	-392
306.228	-880
306.259	-458
306.283	-122
306.338	-926
306.349	-811
306.393	-252
306.440	-639
306.448	-692
306.503	-506
306.530	-654
306.558	-882
306.613	-471
306.620	-485
306.668	-502
306.711	-287
306.723	-266
306.778	-323
306.801	-405
306.833	-418
306.888	-102
306.892	-142
306.943	-690
306.982	-1150
306.997	-1292
307.052	-554
307.072	-451
307.107	-303
307.162	-316
307.163	-321
307.217	-526
307.253	-329
307.272	-220
307.327	-415
307.343	-362
307.381	-360
307.434	-297
307.436	-275
307.491	-331
307.524	-106
307.546	-71
307.600	185
307.614	89
307.655	-142
307.704	42
307.710	56
307.765	-440
307.795	-352
307.819	-192
307.874	317
307.885	184
307.929	-204
307.975	651
307.984	788
308.038	859
308.065	1088
308.093	1897
308.148	3795
308.156	4447
308.202	7887
308.246	10924
308.257	11009
308.312	5621
308.336	3486
308.366	2197
308.421	1194
308.426	1144
308.475	674
308.517	438
308.530	404
308.585	848
308.607	812
308.639	824
308.694	1353
308.697	1362
308.748	1480
308.787	1594
308.803	1561
308.857	1567
308.877	1546
308.912	1896
308.967	2544
308.967	2555
309.021	3883
309.058	5284
309.076	6022
309.130	9901
309.148	10687
309.185	15254
309.238	23018
309.239	23098
309.293	31003
309.328	32486
309.348	30099
309.402	18096
309.418	14801
309.457	11248
309.508	7872
309.511	7772
309.566	8555
309.598	9919
309.620	13095
309.674	24159
309.688	27176
309.729	26762
309.778	21421
309.783	20911
309.837	13344
309.868	9237
309.892	7364
309.946	4749
309.959	4368
310.001	3406
310.049	2582
310.055	2494
310.109	2261
310.139	1860
310.163	1306
310.218	1031
310.229	873
310.272	1115
310.319	1563
310.326	1466
310.381	685
310.409	280
310.435	244
310.489	349
310.499	380
310.543	427
310.589	393
310.598	391
310.652	370
310.679	296
310.706	240
310.760	311
310.769	308
310.814	638
310.859	977
310.868	965
310.923	876
310.948	795
310.977	696
311.031	614
311.038	592
311.085	305
311.128	-18
311.139	56
311.193	450
311.218	691
311.247	786
311.301	813
311.308	805
311.356	502
311.398	327
311.410	427
311.464	849
311.488	1014
311.518	733
311.572	247
311.578	187
311.626	388
311.668	571
311.680	527
311.734	268
311.758	166
311.788	280
311.842	472
311.847	490
311.896	596
311.937	669
311.950	681
312.004	733
312.027	755
312.058	860
312.112	1038
312.117	1055
312.165	873
312.207	720
312.297	379
312.386	1244
312.476	609
312.566	848
312.656	1198
312.745	-113
312.835	289
312.925	1357
313.015	484
313.104	573
313.194	1237
313.284	1017
313.374	391
313.463	869
313.553	1094
313.643	930
313.732	599
313.822	574
313.912	1324
314.001	1332
314.091	1707
314.180	744
314.270	1941
314.360	738
314.449	1018
314.539	1227
314.628	1205
314.718	2000
314.808	1178
314.897	1209
314.987	2356
315.076	1774
315.166	1589
315.255	1391
315.345	1713
315.434	1378
315.524	1892
315.613	1701
315.703	1575
315.792	4866
315.881	16323
315.971	4109
316.060	1478
316.150	1886
316.239	1170
316.328	1327
316.418	625
316.507	1316
316.597	1616
316.686	1870
316.775	384
316.865	1770
316.954	1831
317.043	1718
317.133	1187
317.222	709
317.311	1360
317.400	845
317.490	2292
317.579	800
317.668	1938
317.757	2888
317.847	8537
317.936	26758
318.025	6671
318.114	6197
318.203	2580
318.293	1565
318.382	2486
318.471	3206
318.560	2732
318.649	2421
318.738	557
318.828	1818
318.917	1356
319.006	694
319.095	768
319.184	2774
319.273	1109
319.362	1172
319.451	1062
319.540	594
319.629	584
319.718	1172
319.807	674
319.896	512
319.985	2954
320.074	1048
320.163	355
320.252	1020
320.341	1592
320.430	660
320.519	1788
320.608	1241
320.697	974
320.786	1240
320.875	2134
320.964	2345
321.053	2915
321.142	2256
321.230	2878
321.319	2500
321.408	3391
321.497	3815
321.586	2601
321.675	1258
321.764	2359
321.852	2868
321.941	1619
322.030	2172
322.119	2670
322.207	3088
322.296	3759
322.385	4363
322.474	3899
322.562	6033
322.651	3855
322.740	3204
322.829	2452
322.917	1859
323.006	1984
323.095	830
323.183	1650
323.272	643
323.361	1856
323.449	1647
323.538	1434
323.626	1203
323.715	1423
323.804	1373
323.892	850
323.981	765
324.069	1577
324.158	1689
324.246	1186
324.335	1561
324.424	1414
324.512	992
324.601	1379
324.689	1003
324.778	540
324.866	1138
324.954	827
325.043	1058
325.131	554
325.220	1603
325.308	681
325.397	575
325.485	1284
325.574	1205
325.662	1065
325.750	25
325.839	1764
325.927	920
326.015	949
326.104	305
326.192	1032
326.280	278
326.369	878
326.457	608
326.545	837
326.634	773
326.722	495
326.810	543
326.898	1853
326.987	1426
327.075	705
327.163	1946
327.251	390
327.340	1409
327.428	2084
327.516	2436
327.604	1637
327.692	835
327.781	1234
327.869	417
327.957	919
328.045	659
328.133	957
328.221	725
328.309	874
328.397	1452
328.485	654
328.574	1627
328.662	2784
328.750	1586
328.838	713
328.926	771
329.014	311
329.102	567
329.190	763
329.278	1020
329.366	623
329.454	-134
329.542	1053
329.630	-33
329.718	979
329.806	906
329.893	1351
329.981	675
330.069	1011
330.157	1036
330.245	1576
330.333	1973
330.421	808
330.509	1429
330.597	1169
330.684	698
330.772	1477
330.860	759
330.948	1430
331.036	286
331.123	937
331.211	973
331.299	591
331.387	551
331.475	532
331.562	488
331.650	568
331.738	895
331.825	1203
331.913	1166
332.001	-532
332.089	961
332.176	1152
332.264	354
332.352	-167
332.439	669
332.527	577
332.614	790
332.702	1477
332.790	1270
332.877	955
332.965	2501
333.052	2661
333.140	2653
333.228	6950
333.315	1902
333.403	1454
333.490	907
333.578	3038
333.665	10513
333.753	3708
333.840	1406
333.928	1130
334.015	1858
334.103	2013
334.190	2650
334.278	3349
334.365	5135
334.452	6072
334.540	3343
334.627	2287
334.715	3365
334.802	5030
334.889	8688
334.977	15114
335.064	9212
335.151	4026
335.239	2813
335.326	1874
335.413	2307
335.501	1915
335.588	1843
335.675	2564
335.762	2510
335.850	3614
335.937	5450
336.024	9850
336.111	19146
336.199	18922
336.286	7584
336.373	3905
336.460	2222
336.547	2099
336.635	1823
336.722	1546
336.809	969
336.896	852
336.983	840
337.070	1827
337.157	2011
337.245	2145
337.332	2017
337.419	377
337.506	915
337.593	878
337.680	559
337.767	2142
337.854	628
337.941	1239
338.028	1424
338.115	-73
338.202	1756
338.289	912
338.376	818
338.463	1204
338.550	1050
338.637	861
338.724	1120
338.811	1334
338.898	436
338.984	549
339.071	447
339.158	818
339.245	1104
339.332	1259
339.419	666
339.506	1584
339.593	258
339.679	1412
339.766	236
339.853	1009
339.940	834
340.027	1358
340.113	883
340.200	1223
340.287	57
340.374	-119
340.460	1932
340.547	-770
340.634	2076
340.720	1421
340.807	479
340.894	656
340.980	1649
341.067	-329
341.154	1649
341.240	915
341.327	668
341.414	1399
341.500	433
341.587	685
341.674	1768
341.760	936
341.847	1060
341.933	501
342.020	-124
342.106	574
342.193	723
342.279	399
342.366	279
342.452	1400
342.539	851
342.625	1292
342.712	643
342.798	1039
342.885	564
342.971	-361
343.058	1105
343.144	1007
343.230	1479
343.317	1367
343.403	276
343.490	832
343.576	-197
343.662	800
343.749	-259
343.835	186
343.921	580
344.008	2763
344.094	5802
344.180	1894
344.267	-5
344.353	498
344.439	874
344.525	580
344.612	869
344.698	503
344.784	100
344.870	921
344.957	462
345.043	1680
345.129	260
345.215	1343
345.301	157
345.387	694
345.474	1356
345.560	693
345.646	825
345.732	1720
345.818	266
345.904	1123
345.990	676
346.076	697
346.162	84
346.249	915
346.335	128
346.421	-178
346.507	793
346.593	1460
346.679	-198
346.765	1541
346.851	1435
346.937	79
347.023	1675
347.108	1148
347.194	1217
347.280	1349
347.366	2203
347.452	3967
347.538	3755
347.624	3725
347.710	2009
347.796	353
347.882	554
347.967	508
348.053	513
348.139	244
348.225	1299
348.311	83
348.397	550
348.482	1357
348.568	962
348.654	1117
348.740	5187
348.825	2752
348.911	2714
348.997	1120
349.083	2054
349.168	875
349.254	729
349.340	351
349.425	342
349.511	391
349.597	512
349.682	1055
349.768	1729
349.854	890
349.939	598
350.025	671
350.110	1215
350.196	683
350.282	-118
350.367	2237
350.453	1229
350.538	510
350.624	558
350.709	1265
350.795	897
350.880	522
350.966	1922
351.051	900
351.137	153
351.222	1264
351.308	1475
351.393	705
351.479	41
351.564	426
351.649	556
351.735	427
351.820	407
351.906	1391
351.991	83
352.076	198
352.162	885
352.247	1593
352.332	1244
352.418	405
352.503	473
352.588	1533
352.673	961
352.759	771
352.844	409
352.929	422
353.014	-179
353.100	1321
353.185	1237
353.270	87
353.355	781
353.441	1348
353.526	7
353.611	809
353.696	281
353.781	874
353.866	-136
353.952	1000
354.037	-476
354.122	1625
354.207	926
354.292	847
354.377	1014
354.462	300
354.547	42
354.632	1205
354.717	846
354.802	216
354.887	770
354.972	1193
355.057	695
355.142	695
355.227	960
355.312	50
355.397	546
355.482	703
355.567	517
355.652	1996
355.737	693
355.822	1236
355.907	676
355.991	1624
356.076	-92
356.161	572
356.246	501
356.331	841
356.416	169
356.501	3518
356.585	986
356.670	-495
356.755	2315
356.840	1240
356.924	2381
357.009	5694
357.094	2833
357.179	-162
357.263	755
357.348	1644
357.433	971
357.517	965
357.602	1042
357.687	340
357.771	1242
357.856	886
357.941	1346
358.025	2201
358.110	7533
358.195	3088
358.279	535
358.364	744
358.448	1285
358.533	2039
358.617	1049
358.702	1435
358.787	1404
358.871	1128
358.956	111
359.040	186
359.125	385
359.209	1152
359.294	1471
359.378	999
359.462	1066
359.547	1302
359.631	539
359.716	-189
359.800	424
359.885	1502
359.969	-275
360.053	1413
360.138	62
360.222	-82
360.306	105
360.391	1449
360.475	193
360.559	1129
360.644	1169
360.728	346
360.812	2762
360.896	3379
360.981	607
361.065	632
361.149	1755
361.233	1375
361.318	48
361.402	1574
361.486	1238
361.570	448
361.654	998
361.739	726
361.823	2086
361.907	4616
361.991	1678
362.075	1690
362.159	752
362.243	4964
362.327	11067
362.411	22577
362.495	7542
362.580	2978
362.664	3239
362.748	1303
362.832	4535
362.916	9593
363.000	34614
363.084	54181
363.168	18118
363.252	5540
363.336	3443
363.420	3061
363.503	1954
363.587	1723
363.671	1446
363.755	889
363.839	2666
363.923	1097
364.007	2332
364.091	3021
364.175	3811
364.258	14064
364.342	33208
364.426	80466
364.510	41078
364.594	10760
364.677	5305
364.761	3513
364.845	3383
364.929	1743
365.013	1577
365.096	1295
365.180	732
365.264	1330
365.347	2494
365.431	605
365.515	-225
365.598	232
365.682	2321
365.766	426
365.849	287
365.933	322
366.017	2968
366.100	669
366.184	323
366.267	1720
366.351	1738
366.435	1051
366.518	431
366.602	1148
366.685	1111
366.769	693
366.852	1014
366.936	1065
367.019	303
367.103	84
367.186	2437
367.270	658
367.353	-383
367.436	1821
367.520	1250
367.603	956
367.687	99
367.770	958
367.853	2366
367.937	2091
368.020	1667
368.104	223
368.187	1759
368.270	1437
368.353	393
368.437	925
368.520	982
368.603	409
368.687	210
368.770	1419
368.853	794
368.936	1379
369.020	2376
369.103	606
369.186	973
369.269	65
369.352	1182
369.436	678
369.519	902
369.602	-625
369.685	2280
369.768	-85
369.851	903
369.934	252
370.018	576
370.101	215
370.184	2058
370.267	1241
370.350	1063
370.433	857
370.516	2677
370.599	9266
370.682	1701
370.765	2552
370.848	2545
370.931	1211
371.014	2442
371.097	-544
371.180	1638
371.263	1890
371.346	497
371.429	1864
371.511	1080
371.594	1278
371.677	1570
371.760	3077
371.843	2041
371.926	5279
372.009	8722
372.091	7704
372.174	1780
372.257	4212
372.340	1798
372.423	2096
372.505	3674
372.588	1034
372.671	2199
372.754	1069
372.836	1800
372.919	2720
373.002	2519
373.085	1453
373.167	2923
373.250	1921
373.332	2412
373.415	5372
373.498	7322
373.580	6518
373.663	14731
373.746	13618
373.828	2537
373.911	2944
373.993	1173
374.076	1747
374.159	1636
374.241	1823
374.324	1898
374.406	2567
374.489	3181
374.571	5424
374.654	1914
374.736	1722
374.819	2890
374.901	6330
374.983	5791
375.066	1847
375.148	855
375.231	1978
375.313	3037
375.395	1293
375.478	1647
375.560	2471
375.643	1817
375.725	1646
375.807	2537
375.890	3985
375.972	-72
376.054	1693
376.136	1717
376.219	126
376.301	2090
376.383	2321
376.465	1399
376.548	432
376.630	676
376.712	2873
376.794	943
376.877	1120
376.959	-55
377.041	920
377.123	726
377.205	1261
377.287	-345
377.369	1241
377.452	892
377.534	1110
377.616	1406
377.698	159
377.780	192
377.862	699
377.944	2172
378.026	-151
378.108	1617
378.190	395
378.272	2093
378.354	1073
378.436	-51
378.518	-3
378.600	701
378.682	1127
378.764	450
378.846	1966
378.928	484
379.010	353
379.091	1553
379.173	664
379.255	203
379.337	474
379.419	607
379.501	2732
379.583	736
379.664	1274
379.746	-267
379.828	2632
379.910	958
379.991	1416
380.073	50
380.155	725
380.237	256
380.318	567
380.400	866
380.482	1611
380.564	585
380.645	414
380.727	383
380.809	1322
380.890	1295
380.972	311
381.053	1122
381.135	1142
381.217	79
381.298	2924
381.380	1328
381.461	626
381.543	2277
381.624	2999
381.706	1452
381.787	826
381.869	2126
381.951	2520
382.032	4670
382.113	6124
382.195	641
382.276	2852
382.358	2128
382.439	2613
382.521	5070
382.602	6636
382.684	5983
382.765	9247
382.846	29730
382.928	77970
383.009	38002
383.090	28753
383.172	100798
383.253	140652
383.334	37235
383.416	11402
383.497	9722
383.578	10426
383.659	22541
383.741	83613
383.822	196180
383.903	93561
383.984	18035
384.066	11649
384.147	6006
384.228	4681
384.309	4188
384.390	3587
384.471	2886
384.553	3212
384.634	2802
384.715	3878
384.796	2165
384.877	1122
384.958	3560
385.039	685
385.120	1418
385.201	3165
385.282	2094
385.363	3776
385.444	2209
385.525	3072
385.606	2666
385.687	3157
385.768	2084
385.849	1406
385.930	5181
386.011	6779
386.092	2565
386.173	1976
386.254	1603
386.335	2105
386.416	1507
386.496	1901
386.577	2227
386.658	1797
386.739	780
386.820	2295
386.901	768
386.981	2616
387.062	2777
387.143	2045
387.224	3382
387.304	4535
387.385	4538
387.466	1035
387.547	4024
387.627	3419
387.708	3896
387.789	4362
387.869	2853
387.950	3504
388.031	1882
388.111	199
388.192	2849
388.273	3177
388.353	1220
388.434	1245
388.514	2123
388.595	3319
388.676	2267
388.756	1303
388.837	2434
388.917	864
388.998	-366
389.078	2221
389.159	1295
389.239	-120
389.320	2327
389.400	-390
389.480	1633
389.561	711
389.641	1456
389.722	1661
389.802	606
389.883	811
389.963	2985
390.043	1134
390.124	503
390.204	1027
390.284	1058
390.365	1010
390.445	2114
390.525	1233
390.605	1701
390.686	132
390.766	2091
390.846	2608
390.927	-15
391.007	869
391.087	2288
391.167	602
391.247	81
391.328	2141
391.408	2548
391.488	1573
391.568	459
391.648	866
391.728	1852
391.808	2229
391.888	1318
391.969	1615
392.049	1562
392.129	3056
392.209	2339
392.289	3664
392.369	3203
392.449	3033
392.529	2786
392.609	4478
392.689	4559
392.769	5257
392.849	6692
392.929	9912
393.009	11826
393.089	16604
393.169	36292
393.248	102097
393.328	271600
393.408	267631
393.488	94829
393.568	33371
393.648	15928
393.728	9418
393.807	6611
393.887	6401
393.967	4940
394.047	3913
394.127	2943
394.206	2651
394.286	4804
394.366	19274
394.446	19316
394.525	3700
394.605	1282
394.685	2256
394.764	3417
394.844	4441
394.924	6072
395.003	3354
395.083	1622
395.163	1296
395.242	1072
395.322	1526
395.402	267
395.481	3282
395.561	1368
395.640	9028
395.720	16004
395.799	6755
395.879	2578
395.958	2466
396.038	6199
396.117	28302
396.197	27047
396.276	7277
396.356	3998
396.435	4619
396.515	7909
396.594	11256
396.673	28066
396.753	99742
396.832	240633
396.912	160341
396.991	40532
397.070	16879
397.150	7395
397.229	8407
397.308	15330
397.388	27222
397.467	11776
397.546	3806
397.625	684
397.705	3389
397.784	2254
397.863	877
397.942	2217
398.022	1249
398.101	1080
398.180	1937
398.259	612
398.338	1641
398.417	541
398.497	696
398.576	1253
398.655	-678
398.734	1344
398.813	1023
398.892	1128
398.971	2116
399.050	255
399.129	-180
399.208	1279
399.287	1671
399.366	182
399.445	608
399.524	538
399.603	-1140
399.682	494
399.761	1298
399.840	1769
399.919	2141
399.998	1091
400.077	-522
400.156	-1642
400.235	2371
400.313	-282
400.392	-408
400.471	1340
400.550	953
400.629	-74
400.708	1327
400.786	-406
400.865	-89
400.944	-611
401.023	1747
401.102	-380
401.180	520
401.259	-69
401.338	-281
401.416	346
401.495	-485
401.574	795
401.652	154
401.731	1275
401.810	-842
401.888	759
401.967	-487
402.046	-224
402.124	569
402.203	-801
402.281	756
402.360	6
402.438	836
402.517	-925
402.596	116
402.674	-584
402.753	10
402.831	961
402.910	826
402.988	-312
403.066	1080
403.145	1634
403.223	1927
403.302	318
403.380	995
403.459	202
403.537	314
403.615	497
403.694	-97
403.772	1922
403.850	105
403.929	-188
404.007	-235
404.085	1091
404.164	-224
404.242	-307
404.320	1687
404.398	1524
404.477	594
404.555	2495
404.633	2019
404.711	1006
404.789	612
404.868	114
404.946	254
405.024	-288
405.102	172
405.180	-19
405.258	-1237
405.336	1124
405.415	-516
405.493	430
405.571	997
405.649	-1011
405.727	-772
405.805	1746
405.883	1061
405.961	1242
406.039	-283
406.117	-1014
406.195	-138
406.273	-1044
406.351	1752
406.429	1298
406.507	-134
406.585	-287
406.663	653
406.740	-408
406.818	-573
406.896	-799
406.974	996
407.052	-926
407.130	308
407.208	589
407.285	1136
407.363	-477
407.441	-295
407.519	-499
407.596	207
407.674	656
407.752	3136
407.830	1221
407.907	471
407.985	-553
408.063	27
408.141	-80
408.218	1033
408.296	-1381
408.373	-620
408.451	1084
408.529	805
408.606	872
408.684	357
408.762	953
408.839	374
408.917	541
408.994	731
409.072	-583
409.149	357
409.227	2491
409.304	4849
409.382	4507
409.459	4862
409.537	7998
409.614	6084
409.692	3307
409.769	3127
409.846	8449
409.924	10087
410.001	3766
410.079	2439
410.156	2677
410.233	1451
410.311	658
410.388	204
410.465	964
410.543	-401
410.620	1190
410.697	1307
410.775	831
410.852	-253
410.929	2460
411.006	1929
411.083	108
411.161	194
411.238	683
411.315	10
411.392	659
411.469	970
411.547	1045
411.624	-853
411.701	97
411.778	237
411.855	-452
411.932	-146
412.009	177
412.086	440
412.163	-173
412.240	-246
412.317	828
412.394	-378
412.471	328
412.548	-702
412.625	-29
412.702	-421
412.779	479
412.856	-261
412.933	-654
413.010	65
413.087	33
413.164	-262
413.241	351
413.318	-25
413.395	221
413.471	-355
413.548	137
413.625	2
413.702	-310
413.779	325
413.855	-25
413.932	-346
414.009	-1334
414.086	-1166
414.162	-348
414.239	181
414.316	-121
414.393	1446
414.469	-601
414.546	-389
414.623	-531
414.699	-363
414.776	-488
414.853	-173
414.929	246
415.006	-231
415.082	-221
415.159	-405
415.236	-88
415.312	604
415.389	-313
415.465	-1171
415.542	275
415.618	-915
415.695	135
415.771	-286
415.848	-168
415.924	102
416.000	-1057
416.077	351
416.153	-618
416.230	-779
416.306	817
416.383	-437
416.459	59
416.535	-1181
416.612	-531
416.688	-102
416.764	-632
416.841	-210
416.917	-23
416.993	-370
417.069	50
417.146	-782
417.222	-285
417.298	-419
417.374	-1002
417.451	20
417.527	-19
417.603	-602
417.679	-815
417.755	30
417.831	-908
417.908	465
417.984	-1022
418.060	-1278
418.136	20
418.212	-417
418.288	-18
418.364	-272
418.440	-1189
418.516	818
418.592	-465
418.668	-397
418.744	-1224
418.820	606
418.896	-469
418.972	-754
419.048	-604
419.124	1026
419.200	-1140
419.276	-147
419.352	-763
419.428	-308
419.504	-374
419.579	-391
419.655	-478
419.731	-963
419.807	475
419.883	-896
419.959	188
420.034	-33
420.110	66
420.186	-423
420.262	579
420.337	-251
420.413	-46
420.489	-12
420.565	1050
420.640	207
420.716	984
420.792	-398
420.867	768
420.943	544
421.019	771
421.094	1221
421.170	763
421.245	869
421.321	1936
421.397	1518
421.472	2532
421.548	2631
421.623	3063
421.699	2725
421.774	3538
421.850	2962
421.925	4394
422.001	5840
422.076	7135
422.152	9160
422.227	12441
422.302	19054
422.378	26890
422.453	46875
422.529	87835
422.604	142085
422.679	154225
422.755	138654
422.830	86239
422.905	48603
422.981	30563
423.056	20304
423.131	14903
423.207	10756
423.282	8017
423.357	7146
423.432	5649
423.508	4678
423.583	3123
423.658	3053
423.733	3833
423.808	1709
423.883	3503
423.959	2908
424.034	3456
424.109	3469
424.184	1493
424.259	2070
424.334	1210
424.409	1172
424.484	796
424.559	643
424.634	307
424.709	-764
424.784	442
424.859	-122
424.934	81
425.009	-224
425.084	571
425.159	692
425.234	1001
425.309	305
425.384	121
425.459	-745
425.534	324
425.609	-522
425.683	-621
425.758	-291
425.833	-153
425.908	1171
425.983	-627
426.058	1032
426.132	-544
426.207	-268
426.282	745
426.357	-1191
426.431	-547
426.506	198
426.581	-317
426.655	-455
426.730	-809
426.805	-1112
426.879	147
426.954	-223
427.029	-553
427.103	53
427.178	719
427.253	332
427.327	-6
427.402	-390
427.476	-605
427.551	-505
427.625	-46
427.700	374
427.774	-145
427.849	426
427.923	-769
427.998	-306
428.072	129
428.147	1542
428.221	13012
428.296	45497
428.370	21553
428.444	1872
428.519	-1040
428.593	-187
428.667	-505
428.742	609
428.816	4854
428.890	24896
428.965	40235
429.039	7468
429.113	389
429.188	-216
429.262	-372
429.336	260
429.410	-264
429.485	-201
429.559	95
429.633	694
429.707	235
429.781	2724
429.855	24144
429.930	35089
430.004	6599
430.078	3753
430.152	14653
430.226	58993
430.300	55033
430.374	8548
430.448	2399
430.522	10
430.596	1316
430.670	6613
430.744	33317
430.818	33984
430.892	4564
430.966	-618
431.040	-72
431.114	-472
431.188	-623
431.262	-1091
431.336	-324
431.410	84
431.484	-954
431.557	-83
431.631	-135
431.705	1232
431.779	10018
431.853	42043
431.927	25234
432.000	2088
432.074	496
432.148	-184
432.222	-714
432.295	-307
432.369	-1273
432.443	-1091
432.516	-359
432.590	456
432.664	-294
432.737	-1203
432.811	-821
432.885	-1114
432.958	-766
433.032	-842
433.106	-1149
433.179	-218
433.253	-695
433.326	-1015
433.400	-177
433.473	-1149
433.547	-514
433.620	-829
433.694	-1599
433.767	-657
433.841	-480
433.914	-800
433.988	-465
434.061	-446
434.134	-618
434.208	-1640
434.281	-1065
434.355	-1639
434.428	-303
434.501	-1109
434.575	-719
434.648	-1434
434.721	-937
434.795	-793
434.868	-1059
434.941	-483
435.014	-1111
435.088	-65
435.161	281
435.234	315
435.307	-46
435.381	1150
435.454	1831
435.527	4852
435.600	3130
435.673	1801
435.746	766
435.819	146
435.892	-299
435.966	602
436.039	-399
436.112	183
436.185	-1214
436.258	-774
436.331	-1214
436.404	-185
436.477	-1009
436.550	-517
436.623	-690
436.696	-795
436.769	-964
436.842	-1065
436.915	-1045
436.987	-1142
437.060	-692
437.133	-947
437.206	-1242
437.279	-381
437.352	-714
437.425	-1295
437.498	-676
437.570	-1029
437.643	-1141
437.716	-1149
437.789	-852
437.861	-862
437.934	-787
438.007	-1910
438.080	-1113
438.152	-1256
438.225	-601
438.298	-579
438.370	1925
438.443	230
438.516	-800
438.588	-501
438.661	-1281
438.734	-149
438.806	-1242
438.879	-210
438.951	-1333
439.024	-948
439.096	-1213
439.169	-1726
439.241	-1076
439.314	-256
439.386	-797
439.459	-700
439.531	-416
439.604	-419
439.676	-389
439.749	-390
439.821	-1341
439.893	-963
439.966	-1213
440.038	-1850
440.110	-1259
440.183	-715
440.255	-1537
440.327	-344
440.400	-271
440.472	210
440.544	-496
440.617	-527
440.689	193
440.761	-632
440.833	-910
440.905	-306
440.978	-753
441.050	-1099
441.122	-88
441.194	-1287
441.266	97
441.338	-1667
441.411	-526
441.483	387
441.555	-603
441.627	-788
441.699	-554
441.771	-281
441.843	-937
441.915	-594
441.987	-1224
442.059	86
442.131	290
442.203	-5
442.275	173
442.347	983
442.419	4935
442.491	30016
442.563	65601
442.635	22422
442.706	3146
442.778	1657
442.850	132
442.922	298
442.994	171
443.066	173
443.137	938
443.209	1155
443.281	2375
443.353	7481
443.425	34477
443.496	107987
443.568	103041
443.640	36412
443.711	7244
443.783	1584
443.855	957
443.926	818
443.998	-116
444.070	418
444.141	-136
444.213	-490
444.285	338
444.356	-75
444.428	48
444.499	355
444.571	-518
444.642	-110
444.714	-764
444.785	-31
444.857	664
444.928	182
445.000	52
445.071	1285
445.143	1640
445.214	2840
445.285	4991
445.357	16636
445.428	68297
445.500	131895
445.571	91766
445.642	57900
445.714	16532
445.785	4671
445.856	1278
445.928	570
445.999	822
446.070	-380
446.141	113
446.213	-635
446.284	-865
446.355	-300
446.426	-796
446.497	-1013
446.569	-1307
446.640	-598
446.711	-706
446.782	-1049
446.853	-142
446.924	-529
446.995	-1057
447.066	-809
447.138	-132
447.209	-312
447.280	-1121
447.351	-916
447.422	-1608
447.493	-747
447.564	-1145
447.635	-899
447.706	-1101
447.777	-1418
447.847	-1211
447.918	-1494
447.989	-1041
448.060	-491
448.131	-1017
448.202	-1219
448.273	-555
448.344	-653
448.414	-1196
448.485	-860
448.556	-334
448.627	-726
448.698	587
448.768	-1498
448.839	-662
448.910	-1383
448.981	-682
449.051	-667
449.122	-247
449.193	-708
449.263	-1388
449.334	-1584
449.405	-114
449.475	-666
449.546	-403
449.616	-1243
449.687	-495
449.758	-1051
449.828	-816
449.899	-1395
449.969	-1523
450.040	-444
450.110	-815
450.181	27
450.251	-525
450.322	385
450.392	-642
450.463	-1023
450.533	-944
450.604	-496
450.674	-474
450.744	-723
450.815	-997
450.885	-858
450.955	-104
451.026	-991
451.096	-445
451.166	-776
451.237	-727
451.307	-435
451.377	-1179
451.447	-227
451.518	-444
451.588	-1241
451.658	-330
451.728	-897
451.799	-1105
451.869	-833
451.939	-867
452.009	-697
452.079	-1531
452.149	-601
452.219	-637
452.289	-976
452.360	-615
452.430	-953
452.500	-723
452.570	791
452.640	3445
452.710	10293
452.780	9350
452.850	2463
452.920	33
452.990	279
453.060	-457
453.129	-1035
453.199	-1059
453.269	-376
453.339	-525
453.409	-680
453.479	256
453.549	-251
453.619	128
453.688	-861
453.758	-934
453.828	-914
453.898	-878
453.968	-1541
454.037	-647
454.087	-840
454.107	-928
454.168	-1403
454.177	-1490
454.247	-383
454.249	-379
454.316	-530
454.330	-686
454.386	-1344
454.411	-1294
454.456	-1281
454.492	-1234
454.525	-1184
454.574	-644
454.595	-448
454.655	-664
454.665	-703
454.734	-508
454.736	-503
454.804	-859
454.817	-755
454.873	-487
454.898	-486
454.943	-438
454.979	-725
455.013	-1028
455.060	-541
455.082	-345
455.141	-949
455.152	-1065
455.221	-387
455.222	-375
455.291	-579
455.303	-554
455.360	-427
455.384	-309
455.430	-247
455.465	-289
455.499	-411
455.546	-617
455.569	-688
455.627	-143
455.638	-57
455.707	-529
455.708	-518
455.777	-670
455.789	-515
455.846	119
455.869	101
455.916	53
455.950	-185
455.985	-389
456.031	-382
456.054	-475
456.112	-431
456.124	-370
456.193	21
456.193	6
456.262	118
456.274	54
456.332	-4
456.355	54
456.401	-73
456.436	-259
456.470	-398
456.516	-398
456.540	-447
456.597	133
456.609	269
456.678	781
456.678	768
456.747	89
456.759	-50
456.817	-253
456.840	-53
456.886	131
456.920	323
456.955	495
457.001	699
457.024	765
457.082	735
457.093	714
457.162	1341
457.163	1354
457.232	365
457.243	356
457.301	928
457.324	858
457.370	291
457.405	731
457.439	1287
457.485	1516
457.508	1657
457.566	2611
457.577	2942
457.646	4351
457.647	4395
457.715	13025
457.727	15021
457.784	28961
457.808	37115
457.853	42404
457.889	44690
457.922	39326
457.969	25077
457.991	28254
458.050	42001
458.060	44719
458.129	75452
458.130	76383
458.198	56813
458.211	48998
458.267	22906
458.292	14051
458.336	11430
458.372	11910
458.405	20785
458.453	35044
458.474	45764
458.533	82070
458.543	83784
458.611	110390
458.614	110895
458.680	49794
458.694	35130
458.749	15384
458.775	10004
458.818	6228
458.855	4797
458.887	4334
458.936	3822
458.955	3553
459.016	2633
459.024	2616
459.093	2808
459.097	2790
459.162	1775
459.177	1800
459.230	2024
459.257	2080
459.299	2181
459.338	1968
459.368	1825
459.418	1808
459.437	1727
459.499	1238
459.505	1216
459.574	2022
459.579	2022
459.643	1756
459.659	1776
459.711	1642
459.740	1573
459.780	1590
459.820	1622
459.849	1648
459.900	1763
459.917	1747
459.981	1460
459.986	1456
460.054	1842
460.061	1866
460.123	1899
460.141	1875
460.191	1713
460.222	1657
460.260	1620
460.302	1382
460.328	1366
460.382	1942
460.397	2000
460.462	2020
460.465	2069
460.534	3536
460.543	3624
460.602	7773
460.623	9669
460.671	15166
460.703	19428
460.739	16391
460.783	10992
460.808	8814
460.864	2974
460.876	2650
460.944	2047
460.945	2042
461.013	1917
461.024	1917
461.081	1782
461.104	1900
461.150	2104
461.184	2155
461.218	2314
461.264	2353
461.286	2279
461.345	2109
461.355	2016
461.423	1495
461.425	1480
461.491	1427
461.505	1504
461.559	1903
461.585	1959
461.628	2099
461.665	2377
461.696	2541
461.745	2824
461.764	2721
461.825	1868
461.832	1897
461.901	2798
461.905	2835
461.969	1887
461.985	1703
462.037	2465
462.065	2634
462.105	2034
462.145	1869
462.173	2175
462.225	2419
462.241	2466
462.305	3035
462.310	3077
462.378	3230
462.385	3268
462.446	2748
462.465	2557
462.514	2339
462.545	2198
462.582	2254
462.625	2403
462.650	2274
462.705	1857
462.718	1862
462.785	2292
462.786	2295
462.854	2075
462.865	1976
462.922	1895
462.945	2136
462.990	2576
463.025	2651
463.058	2521
463.104	2438
463.126	2409
463.184	2215
463.194	2239
463.262	2567
463.264	2565
463.330	2581
463.344	2665
463.398	3508
463.424	3727
463.466	2635
463.504	1923
463.533	2589
463.583	3342
463.601	3115
463.663	2702
463.669	2754
463.737	2968
463.743	2997
463.805	2694
463.823	2624
463.873	3001
463.903	3199
463.940	3081
463.982	2921
464.008	2947
464.062	3013
464.076	2960
464.142	2710
464.144	2722
464.211	2953
464.221	2969
464.279	2766
464.301	2657
464.347	2668
464.381	2836
464.414	2920
464.461	3016
464.482	3109
464.540	3064
464.550	2983
464.617	2527
464.620	2507
464.685	2730
464.699	2772
464.753	2602
464.779	2599
464.820	2779
464.859	2690
464.888	2160
464.938	1409
464.956	2051
465.018	4376
465.023	4330
465.091	3688
465.098	3597
465.158	3452
465.177	3422
465.226	3223
465.257	3092
465.293	3155
465.336	3140
465.361	2991
465.416	2726
465.428	2861
465.495	3572
465.496	3577
465.563	3063
465.575	2989
465.631	3319
465.654	3500
465.698	3555
465.734	3473
465.765	3504
465.813	3525
465.833	3521
465.893	3526
465.900	3512
465.968	3332
465.972	3309
466.035	3019
466.052	2952
466.102	3315
466.131	3499
466.170	3133
466.210	2674
466.237	2994
466.290	3670
466.304	3653
466.369	3500
466.372	3514
466.439	3717
466.449	3730
466.506	3580
466.528	3508
466.573	4007
466.607	4341
466.641	3875
466.687	3294
466.708	3728
466.766	4833
466.775	4692
466.842	3538
466.845	3478
466.909	3606
466.925	3620
466.977	3714
467.004	3765
467.044	3514
467.083	3245
467.111	3314
467.163	3417
467.178	3660
467.242	4668
467.245	4639
467.312	3883
467.321	3779
467.379	4087
467.400	4187
467.446	4658
467.480	4985
467.559	5159
467.638	3846
467.717	3684
467.796	4025
467.875	4601
467.955	4615
468.034	6883
468.113	7369
468.192	10472
468.271	11240
468.350	16767
468.429	25205
468.508	27324
468.588	15593
468.667	8656
468.746	6574
468.825	5511
468.904	4421
468.983	5228
469.062	5084
469.141	5206
469.220	4716
469.299	4763
469.378	3284
469.456	5001
469.535	3839
469.614	4207
469.693	4350
469.772	5442
469.851	5585
469.930	4935
470.009	5260
470.088	7192
470.166	10390
470.245	21896
470.324	26459
470.403	16201
470.482	7619
470.560	6816
470.639	4484
470.718	5886
470.797	5174
470.875	5501
470.954	3913
471.033	5065
471.111	3989
471.190	4243
471.269	3385
471.347	3717
471.426	2706
471.505	3919
471.583	4509
471.662	4107
471.740	3707
471.819	4297
471.898	3462
471.976	4484
472.055	3990
472.133	3451
472.212	4370
472.290	4441
472.369	4404
472.447	4537
472.526	3531
472.604	3963
472.683	4222
472.761	4305
472.839	4027
472.918	4862
472.996	3873
473.075	4822
473.153	3936
473.231	4516
473.310	4441
473.388	3843
473.466	4429
473.545	5264
473.623	3948
473.701	4349
473.780	5134
473.858	3813
473.936	5385
474.014	4653
474.093	4844
474.171	5337
474.249	4429
474.327	3867
474.405	2950
474.484	4004
474.562	3697
474.640	4296
474.718	3843
474.796	4123
474.874	3491
474.952	3995
475.030	3802
475.108	4571
475.187	3278
475.265	4247
475.343	4522
475.421	5256
475.499	3389
475.577	3653
475.655	4237
475.733	4581
475.811	4588
475.889	4062
475.966	4687
476.044	3191
476.122	3768
476.200	3375
476.278	2385
476.356	3770
476.434	4474
476.512	3784
476.590	3162
476.667	4660
476.745	3616
476.823	3958
476.901	3324
476.979	3325
477.056	3862
477.134	3192
477.212	3501
477.290	3895
477.367	2714
477.445	3672
477.523	3356
477.601	4189
477.678	2939
477.756	3803
477.834	3179
477.911	3980
477.989	3427
478.066	4064
478.144	3520
478.222	4115
478.299	3425
478.377	4168
478.454	4605
478.532	3606
478.609	3725
478.687	4295
478.764	2771
478.842	3760
478.919	3749
478.997	3623
479.074	2795
479.152	3271
479.229	3516
479.307	3501
479.384	3754
479.461	4257
479.539	3477
479.616	3629
479.694	3161
479.771	4623
479.848	3009
479.926	2374
480.003	4902
480.080	3964
480.157	3907
480.235	4205
480.312	3226
480.389	3692
480.467	4288
480.544	4291
480.621	4661
480.698	4858
480.775	4378
480.853	4528
480.930	4220
481.007	4308
481.084	2932
481.161	4399
481.238	4345
481.315	3999
481.392	2983
481.470	4350
481.547	4027
481.624	4037
481.701	4552
481.778	4051
481.855	4080
481.932	5449
482.009	5657
482.086	6203
482.163	7812
482.240	8387
482.317	8380
482.393	7368
482.470	6110
482.547	6939
482.624	5427
482.701	5276
482.778	4463
482.855	5335
482.932	4900
483.009	6139
483.085	5943
483.162	8117
483.239	8623
483.316	8178
483.393	8927
483.469	7440
483.546	7054
483.623	5125
483.699	4407
483.776	4437
483.853	4432
483.930	3936
484.006	4174
484.083	7132
484.160	4962
484.236	6193
484.313	5196
484.389	5972
484.466	6721
484.543	8498
484.619	12077
484.696	14804
484.772	8985
484.849	6701
484.925	5455
485.002	5389
485.078	4677
485.155	4811
485.231	4133
485.308	4308
485.384	4420
485.461	4773
485.537	4110
485.614	4613
485.690	4408
485.766	4198
485.843	3219
485.919	3909
485.995	4429
486.072	5208
486.148	3355
486.224	3894
486.301	3224
486.377	4879
486.453	3386
486.530	5294
486.606	5544
486.682	4776
486.758	4923
486.835	6266
486.911	3801
486.987	6525
487.063	6458
487.139	7176
487.215	7931
487.292	10825
487.368	12770
487.444	14898
487.520	21609
487.596	33671
487.672	89896
487.748	293751
487.824	412155
487.900	105381
487.976	27251
488.052	15160
488.128	11105
488.204	7682
488.280	7444
488.356	6210
488.432	6558
488.508	6894
488.584	5052
488.660	5562
488.736	4733
488.812	3547
488.888	5113
488.964	3761
489.039	3455
489.115	5689
489.191	4243
489.267	5043
489.343	3979
489.418	4006
489.494	3145
489.570	3069
489.646	5015
489.722	4751
489.797	3703
489.873	5193
489.949	5589
490.024	5337
490.100	4379
490.176	4026
490.251	4353
490.327	4744
490.403	4250
490.478	4061
490.554	4666
490.629	4894
490.705	3735
490.781	5210
490.856	3225
490.932	4760
491.007	4421
491.083	3135
491.158	4319
491.234	4718
491.309	4598
491.385	3632
491.460	3195
491.536	4976
491.611	3387
491.686	4150
491.762	4873
491.837	4409
491.913	4123
491.988	4931
492.063	4535
492.139	3896
492.214	3617
492.289	4304
492.365	3339
492.440	4048
492.515	2638
492.590	2979
492.666	2842
492.741	4310
492.816	3604
492.891	3163
492.967	3744
493.042	4189
493.117	3146
493.192	4216
493.267	4532
493.342	4955
493.418	4612
493.493	3778
493.568	3578
493.643	4152
493.718	3581
493.793	3759
493.868	3575
493.943	4715
494.018	3896
494.093	3831
494.168	3855
494.243	3410
494.318	3981
494.393	4240
494.468	3766
494.543	4063
494.618	3225
494.693	3909
494.768	3564
494.842	4286
494.917	4882
494.992	4109
495.067	3161
495.142	3964
495.217	3612
495.292	4604
495.366	3682
495.441	3781
495.516	4740
495.591	4328
495.665	5296
495.740	8116
495.815	4871
495.890	3560
495.964	2513
496.039	6847
496.114	4281
496.188	5012
496.263	4772
496.338	5071
496.412	3186
496.487	4611
496.561	3560
496.636	3819
496.710	3542
496.785	4756
496.860	4056
496.934	3651
497.009	3805
497.083	4403
497.158	4733
497.232	5686
497.307	5294
497.381	6648
497.455	5778
497.530	4860
497.604	3716
497.679	4108
497.753	4398
497.827	3615
497.902	4166
497.976	5066
498.050	6511
498.125	12783
498.199	10808
498.273	5415
498.348	4910
498.422	5984
498.496	5772
498.570	6711
498.645	3446
498.719	2039
498.793	3607
498.867	3995
498.941	4812
499.016	6539
499.090	10707
499.164	5916
499.238	4765
499.312	5144
499.386	4287
499.460	6181
499.534	6777
499.609	8740
499.683	4475
499.757	3601
499.831	4759
499.905	8686
499.979	6366
500.053	3626
500.127	4060
500.201	3509
500.275	4809
500.349	4709
500.422	5397
500.496	5683
500.570	7156
500.644	12106
500.718	11755
500.792	4756
500.866	3031
500.940	2413
501.013	3056
501.087	2838
501.161	3174
501.235	2055
501.309	6227
501.382	6352
501.456	5628
501.530	3697
501.603	2518
501.677	3095
501.751	2079
501.825	4721
501.898	3376
501.972	5001
502.046	3785
502.119	1386
502.193	3378
502.266	3529
502.340	3501
502.413	3670
502.487	4224
502.561	2798
502.634	3929
502.708	3311
502.781	2060
502.855	3867
502.928	2196
503.002	3696
503.075	2316
503.149	2674
503.222	2789
503.295	2167
503.369	3737
503.442	4363
503.516	4888
503.589	6810
503.662	7319
503.736	8210
503.809	11170
503.882	14244
503.956	22462
504.029	49484
504.102	156302
504.175	210041
504.249	62350
504.322	22351
504.395	11945
504.468	8042
504.542	4478
504.615	3704
504.688	4262
504.761	2268
504.834	3962
504.907	3515
504.980	2484
505.053	3614
505.127	414
505.200	5369
505.273	2789
505.346	2126
505.419	757
505.492	3733
505.565	1499
505.638	2734
505.711	1083
505.784	993
505.857	2337
505.930	4451
506.003	447
506.076	3676
506.149	1038
506.221	-155
506.294	2853
506.367	1322
506.440	2829
506.513	3319
506.586	2209
506.659	2246
506.731	1906
506.804	1457
506.877	1408
506.950	2260
507.022	2301
507.095	384
507.168	2082
507.241	2873
507.313	1975
507.386	86
507.459	2126
507.531	1254
507.604	1839
507.677	2779
507.749	-210
507.822	3080
507.894	88
507.967	2728
508.040	949
508.112	2972
508.185	1396
508.257	89
508.330	2960
508.402	1500
508.475	1455
508.547	1932
508.620	1855
508.692	2672
508.765	2529
508.837	940
508.909	2482
508.982	1080
509.054	1736
509.127	2261
509.199	1316
509.271	1049
509.344	1411
509.416	1627
509.488	1308
509.560	3000
509.633	1326
509.705	1262
509.777	1493
509.849	2670
509.922	-337
509.994	1196
510.066	1999
510.138	1222
510.210	4182
510.283	1515
510.355	2346
510.427	3075
510.499	2563
510.571	1277
510.643	747
510.715	2975
510.787	-739
510.859	3273
510.931	1043
511.003	2175
511.076	2576
511.148	801
511.219	916
511.291	1718
511.363	2480
511.435	2502
511.507	420
511.579	3191
511.651	2976
511.723	1393
511.795	1239
511.867	1670
511.939	2525
512.010	1583
512.082	2985
512.154	1653
512.226	1553
512.298	3456
512.369	1581
512.441	3002
512.513	1557
512.585	694
512.656	2412
512.728	1542
512.800	1338
512.871	2386
512.943	2606
513.015	1594
513.086	2065
513.158	2327
513.230	545
513.301	1151
513.373	2917
513.444	2216
513.516	1477
513.588	1526
513.659	2418
513.731	2394
513.802	-13
513.874	3799
513.945	2039
514.016	2165
514.088	2382
514.159	1249
514.231	2107
514.302	1497
514.374	2175
514.445	870
514.516	3845
514.588	1156
514.659	1634
514.730	1345
514.802	2576
514.873	-166
514.944	4039
515.016	2345
515.087	1919
515.158	2279
515.229	2851
515.301	961
515.372	3650
515.443	1243
515.514	2090
515.585	820
515.656	3342
515.728	4302
515.799	1931
515.870	3483
515.941	3615
516.012	2213
516.083	5493
516.154	4437
516.225	6363
516.296	9774
516.367	9381
516.438	12384
516.509	16635
516.580	29505
516.651	124908
516.722	381676
516.793	99103
516.864	24140
516.935	21766
517.006	28436
517.077	37808
517.148	101738
517.219	491914
517.289	573844
517.360	66016
517.431	20569
517.502	11804
517.573	12466
517.643	9993
517.714	10016
517.785	11477
517.856	13923
517.926	18945
517.997	24189
518.068	30650
518.138	44692
518.209	79875
518.280	320567
518.350	936757
518.421	275178
518.492	48375
518.562	30811
518.633	33061
518.703	43536
518.774	104709
518.845	279832
518.915	220287
518.986	51481
519.056	22097
519.127	16244
519.197	11487
519.268	8316
519.338	7930
519.408	5194
519.479	4472
519.549	2924
519.620	5494
519.690	3837
519.760	3471
519.831	3779
519.901	2390
519.971	3155
520.042	1265
520.112	2008
520.182	3194
520.253	3173
520.323	1193
520.393	1371
520.463	4242
520.534	560
520.604	4106
520.674	3291
520.744	1017
520.814	1959
520.885	3025
520.955	2913
521.025	3841
521.095	2218
521.165	3035
521.235	2431
521.305	1662
521.375	2365
521.445	1656
521.515	1936
521.585	1913
521.655	-164
521.725	3376
521.795	3920
521.865	-848
521.935	4381
522.005	1744
522.075	1729
522.145	2938
522.215	537
522.285	2466
522.355	2801
522.424	2631
522.494	1426
522.564	2481
522.634	1529
522.704	4773
522.774	946
522.843	2143
522.913	2048
522.983	2052
523.053	1746
523.122	2655
523.192	2032
523.262	2409
523.331	1619
523.401	2473
523.471	2181
523.540	2613
523.610	1109
523.680	1544
523.749	2769
523.819	2764
523.888	2463
523.958	1481
524.027	2948
524.097	1773
524.166	2076
524.236	1636
524.305	4341
524.375	2191
524.444	1595
524.514	4447
524.583	2049
524.653	610
524.722	2644
524.791	1384
524.861	4650
524.930	1710
524.999	2698
525.069	3655
525.138	3686
525.207	3410
525.277	4362
525.346	3376
525.415	5571
525.484	5725
525.554	6398
525.623	9361
525.692	11841
525.761	13881
525.830	19584
525.900	24700
525.969	42257
526.038	78839
526.107	186130
526.176	492460
526.245	315367
526.314	94600
526.383	256778
526.452	291347
526.522	479338
526.591	339090
526.660	52110
526.729	35601
526.797	39913
526.867	59019
526.935	192329
527.004	702154
527.073	332566
527.142	39849
527.211	17928
527.280	13580
527.349	10517
527.418	6388
527.487	7606
527.555	3302
527.624	3862
527.693	2602
527.762	5238
527.831	2961
527.899	4534
527.968	2645
528.037	2144
528.106	3399
528.174	2563
528.243	2920
528.312	2059
528.380	3018
528.449	2090
528.518	4112
528.586	1473
528.655	3205
528.723	2810
528.792	1263
528.861	1930
528.929	955
528.998	2938
529.066	2092
529.135	3426
529.203	1893
529.272	1488
529.340	2576
529.409	4184
529.477	1996
529.545	1147
529.614	4338
529.682	790
529.751	2919
529.819	4990
529.887	3630
529.956	2332
530.024	3812
530.092	2315
530.161	3354
530.229	3052
530.297	2897
530.365	4661
530.434	3802
530.502	2279
530.570	3645
530.638	2011
530.707	2874
530.775	4108
530.843	2479
530.911	3437
530.979	3661
531.047	3111
531.115	3551
531.183	3514
531.252	2897
531.320	2560
531.388	2699
531.456	4637
531.524	1309
531.592	4025
531.660	5665
531.728	2422
531.796	2509
531.864	3631
531.932	2925
532.000	3460
532.067	3477
532.135	4141
532.203	5532
532.271	3093
532.339	5781
532.407	5437
532.475	4466
532.542	4128
532.610	3643
532.678	3445
532.746	7357
532.814	8163
532.881	4130
532.949	5232
533.017	4796
533.084	4416
533.152	3487
533.220	3921
533.287	2993
533.355	4626
533.423	4588
533.490	3745
533.558	3683
533.625	4194
533.693	4177
533.761	4502
533.828	4603
533.896	3173
533.963	5578
534.031	5535
534.098	7501
534.166	7791
534.233	5788
534.300	9296
534.368	8338
534.435	8025
534.503	9962
534.570	11078
534.637	12312
534.705	14645
534.772	20180
534.840	46369
534.907	224998
534.974	204706
535.041	21174
535.109	10192
535.176	7459
535.243	8665
535.310	7226
535.378	5578
535.445	7525
535.512	6942
535.579	6961
535.646	6571
535.714	7160
535.781	9053
535.848	8506
535.915	7541
535.982	5937
536.049	6832
536.116	8006
536.183	6163
536.250	5919
536.317	6423
536.384	7658
536.451	7758
536.518	7390
536.585	6490
536.652	8450
536.719	7637
536.786	5561
536.853	7139
536.920	8393
536.987	7584
537.053	5970
537.120	8464
537.187	8827
537.254	6976
537.321	7280
537.388	9607
537.454	7071
537.521	6940
537.588	7172
537.654	8998
537.721	7668
537.788	8305
537.855	6994
537.921	7753
537.988	6136
538.055	7852
538.121	6627
538.188	6433
538.254	6616
538.321	6897
538.388	7031
538.454	9679
538.521	8282
538.587	9111
538.654	8528
538.720	7626
538.787	7705
538.853	8710
538.920	7724
538.986	7272
539.053	6892
539.119	7057
539.185	6557
539.252	9027
539.318	7689
539.385	10177
539.451	6668
539.517	8696
539.583	8405
539.650	7489
539.716	7931
539.782	7590
539.849	6005
539.915	8463
539.981	7622
540.047	7558
540.114	6282
540.180	8970
540.246	6697
540.312	8886
540.378	7365
540.444	9605
540.510	8993
540.576	9737
540.643	7764
540.709	5943
540.775	7147
540.841	7936
540.907	7310
540.973	7323
541.039	7529
541.105	8575
541.171	8348
541.237	7455
541.303	8407
541.369	10144
541.435	7281
541.500	8535
541.566	5706
541.632	7186
541.698	7748
541.764	8590
541.830	7482
541.896	7228
541.961	7692
542.027	7138
542.093	8132
542.159	9796
542.224	6933
542.290	8874
542.356	6378
542.421	7418
542.487	7322
542.553	7681
542.618	7356
542.684	7766
542.750	7603
542.815	8040
542.881	7757
542.947	7910
543.012	9389
543.078	7803
543.143	6778
543.209	7906
543.274	6829
543.340	7772
543.405	7649
543.471	8958
543.536	8029
543.602	8312
543.667	6298
543.732	9594
543.798	7081
543.863	8947
543.928	7511
543.994	7209
544.059	8519
544.124	8558
544.190	7409
544.255	9480
544.320	8444
544.386	8371
544.451	9680
544.516	8434
544.581	8593
544.646	9753
544.712	10519
544.777	9132
544.842	8454
544.907	9437
544.972	8634
545.037	8845
545.102	9661
545.168	9599
545.233	10692
545.298	10901
545.363	9178
545.428	11750
545.493	11187
545.558	10937
545.623	10833
545.688	10801
545.753	12241
545.818	11818
545.883	12427
545.947	12632
546.012	13739
546.077	14425
546.142	15566
546.207	15479
546.272	17216
546.337	16162
546.401	17795
546.466	18205
546.531	17365
546.596	20921
546.661	20474
546.725	23592
546.790	23510
546.855	28368
546.919	28041
546.984	33281
547.049	33328
547.113	41114
547.178	43371
547.243	51587
547.307	58143
547.372	64527
547.436	63196
547.501	68246
547.565	73513
547.630	65790
547.695	63964
547.759	64796
547.823	65437
547.888	67679
547.952	68454
548.017	71506
548.081	70980
548.146	72197
548.210	74912
548.274	80802
548.339	77862
548.403	71415
548.468	66629
548.532	66275
548.596	67691
548.660	68295
548.725	73982
548.789	81132
548.853	78660
548.917	76293
548.982	71739
549.046	65374
549.110	58537
549.174	62337
549.238	72358
549.303	79637
549.367	80919
549.431	76375
549.495	70980
549.559	72571
549.623	85831
549.687	91548
549.751	90340
549.815	110263
549.879	108684
549.943	104999
550.007	110817
550.071	107092
550.135	94388
550.199	93077
550.263	90236
550.327	84723
550.391	89366
550.455	97608
550.519	103439
550.582	111718
550.646	124655
550.710	124956
550.774	122377
550.838	126981
550.901	128844
550.965	139102
551.029	141613
551.093	154898
551.156	168286
551.220	194230
551.284	212423
551.347	157369
551.411	135027
551.475	129356
551.538	135186
551.602	124142
551.666	117871
551.729	110635
551.793	108932
551.856	107854
551.920	104747
551.983	105610
552.047	103530
552.110	106659
552.174	105092
552.237	109506
552.301	98989
552.364	95367
552.428	93867
552.491	98244
552.554	99299
552.618	99101
552.681	101706
552.745	100657
552.808	119668
552.871	129887
552.934	108108
552.998	99863
553.061	97504
553.124	92325
553.187	92645
553.251	94801
553.314	95093
553.377	95348
553.440	102617
553.503	105854
553.567	103803
553.630	103454
553.693	104221
553.756	104083
553.819	101458
553.882	96637
553.945	98311
554.008	97520
554.071	99157
554.134	99680
554.197	92536
554.260	92203
554.323	94478
554.386	94429
554.449	98774
554.512	100017
554.575	93013
554.638	92671
554.701	93697
554.764	91695
554.827	88521
554.889	85349
554.952	78180
555.015	80197
555.078	79422
555.141	81180
555.203	80417
555.266	78516
555.329	78193
555.391	74706
555.454	74525
555.517	71195
555.580	68897
555.642	66300
555.705	64693
555.768	65147
555.830	62980
555.893	59743
555.955	57507
556.018	57237
556.080	57561
556.143	59072
556.206	57461
556.268	56708
556.330	55396
556.393	53986
556.455	53042
556.518	51476
556.580	49257
556.643	48214
556.705	47638
556.767	45595
556.830	44764
556.892	44084
556.955	42752
557.017	42341
557.079	41875
557.142	40712
557.204	40239
557.266	40304
557.328	37577
557.391	35723
557.453	34855
557.515	35619
557.577	35747
557.639	35597
557.701	35291
557.764	35919
557.826	37093
557.888	39376
557.950	41210
558.012	46140
558.074	60633
558.136	145856
558.198	280005
558.260	80236
558.322	41378
558.384	42399
558.446	44992
558.508	48270
558.570	54603
558.632	63939
558.694	83568
558.756	146582
558.818	421020
558.880	737102
558.942	271817
559.003	302256
559.065	116007
559.127	55272
559.189	53677
559.251	61663
559.312	94354
559.374	232589
559.436	580002
559.498	224570
559.559	60112
559.621	53299
559.683	65627
559.744	112158
559.806	347873
559.868	389064
559.929	77575
559.991	62105
560.052	111829
560.114	289355
560.176	145432
560.237	177964
560.299	227388
560.360	39914
560.422	21482
560.483	19141
560.545	16624
560.606	16302
560.667	15465
560.729	14552
560.790	13932
560.852	14124
560.913	13852
560.974	13709
561.036	11974
561.097	12274
561.158	12371
561.220	12401
561.281	11742
561.342	10556
561.403	11848
561.465	11748
561.526	12158
561.587	12433
561.648	10752
561.709	9844
561.771	10469
561.832	10099
561.893	8967
561.954	9974
562.015	9755
562.076	10482
562.137	9093
562.198	9309
562.259	10293
562.320	9267
562.381	9581
562.442	9814
562.503	9259
562.564	9551
562.625	9441
562.686	9279
562.747	7412
562.808	8662
562.869	8915
562.930	8345
562.991	7815
563.051	8456
563.112	8435
563.173	8907
563.234	6970
563.294	8489
563.355	6997
563.416	8103
563.477	8420
563.537	7980
563.598	8314
563.659	8260
563.720	7191
563.780	7547
563.841	7309
563.901	7802
563.962	6902
564.023	8348
564.083	6806
564.144	7157
564.204	7461
564.265	7415
564.325	7406
564.386	7355
564.446	6053
564.507	7438
564.567	6283
564.628	6522
564.688	6161
564.749	6385
564.809	7706
564.869	7459
564.930	6348
564.990	7906
565.050	6822
565.111	6751
565.171	6662
565.231	6805
565.292	7450
565.352	6645
565.412	7225
565.472	6937
565.532	6520
565.593	6317
565.653	6438
565.713	6550
565.773	7639
565.833	6790
565.893	6751
565.953	6787
566.013	6104
566.074	8002
566.134	6259
566.194	5164
566.254	5514
566.314	6206
566.374	5634
566.434	5819
566.494	5963
566.554	6523
566.614	6686
566.673	6663
566.733	7159
566.793	6151
566.853	6474
566.913	7212
566.973	6356
567.033	7324
567.092	6215
567.152	6828
567.212	7388
567.272	6918
567.331	7263
567.391	7233
567.451	7863
567.511	7692
567.570	7445
567.630	7529
567.690	7357
567.749	7091
567.809	6306
567.868	6825
567.928	6500
567.988	6596
568.047	6431
568.107	7267
568.166	7540
568.226	7237
568.285	7398
568.345	7360
568.404	7394
568.464	7704
568.523	6295
568.582	7393
568.642	6242
568.701	7131
568.761	6928
568.820	7203
568.879	7163
568.939	7060
568.998	6626
569.057	5764
569.116	7244
569.176	6510
569.235	6920
569.294	6324
569.353	5669
569.413	6479
569.472	5245
569.531	6388
569.590	6618
569.649	7344
569.708	6200
569.767	7236
569.827	6332
569.886	6441
569.945	6699
570.004	6600
570.063	6770
570.122	6223
570.181	7401
570.240	7020
570.299	6736
570.358	6967
570.417	7047
570.475	7446
570.534	7365
570.593	8060
570.652	6888
570.711	7355
570.770	6882
570.829	6689
570.887	5982
570.946	7743
571.005	7441
571.064	7944
571.122	8385
571.181	6779
571.240	7084
571.299	6660
571.357	6902
571.416	7222
571.475	6212
571.533	7378
571.592	6768
571.650	8404
571.709	7092
571.768	9334
571.826	9017
571.885	8201
571.943	7193
572.002	6774
572.060	6497
572.119	7227
572.177	6152
572.236	7329
572.294	6635
572.352	8182
572.411	7365
572.469	7298
572.528	6279
572.586	6683
572.644	6160
572.703	7152
572.761	5615
572.819	6054
572.877	5541
572.936	5228
572.994	5549
573.052	5776
573.110	5744
573.169	7331
573.227	6996
573.285	6389
573.343	7269
573.401	5958
573.459	7123
573.517	7062
573.576	6789
573.634	6478
573.692	7031
573.750	6463
573.808	6386
573.866	5520
573.924	5669
573.982	5545
574.040	5781
574.098	6234
574.155	5752
574.213	6423
574.271	6236
574.329	7685
574.387	5949
574.445	5268
574.503	5763
574.560	5925
574.618	5093
574.676	5630
574.734	5767
574.792	5861
574.849	4598
574.907	4415
574.965	4654
575.022	4414
575.080	5227
575.138	5485
575.195	4495
575.253	3591
575.311	3832
575.368	5407
575.426	4022
575.483	5760
575.541	5155
575.598	4879
575.656	4843
575.713	4224
575.771	5237
575.828	4960
575.886	4404
575.943	5917
576.001	4219
576.058	4050
576.115	3633
576.173	4662
576.230	4690
576.287	4480
576.345	4819
576.402	5055
576.459	4670
576.517	3862
576.574	4932
576.631	4518
576.688	4548
576.746	3924
576.803	4307
576.860	3169
576.917	4248
576.974	4021
577.031	5011
577.089	4273
577.146	2945
577.203	3778
577.260	4488
577.317	4040
577.374	3951
577.431	3869
577.488	3359
577.545	3411
577.602	4998
577.659	4283
577.716	4235
577.773	4503
577.830	3560
577.886	4398
577.943	2999
578.000	3640
578.057	3380
578.114	3805
578.171	3697
578.227	4102
578.284	4173
578.341	3893
578.398	3841
578.454	4115
578.511	3914
578.568	4243
578.625	3788
578.681	4621
578.738	4592
578.794	4006
578.851	3570
578.908	4372
578.964	3795
579.021	3937
579.077	4022
579.134	3799
579.190	4125
579.247	5032
579.303	3463
579.360	4136
579.416	4536
579.473	4130
579.529	3735
579.586	4078
579.642	4032
579.698	4148
579.755	5040
579.811	4840
579.867	3706
579.924	3509
579.980	3854
580.036	4454
580.093	4544
580.149	4282
580.205	4244
580.261	4891
580.317	4919
580.374	5234
580.430	4473
580.486	5586
580.542	4789
580.598	4501
580.619	4766
580.654	5229
580.692	5303
580.710	5347
580.765	4706
580.767	4690
580.823	5168
580.838	4950
580.879	4372
580.911	4819
580.935	5159
580.984	5176
580.991	5186
581.047	6086
581.057	5887
581.103	5020
581.130	4885
581.159	4740
581.203	4500
581.215	4435
581.270	4899
581.276	4848
581.326	4380
581.349	4439
581.382	4544
581.422	4646
581.438	4687
581.494	3697
581.494	3698
581.550	3951
581.567	4097
581.606	4422
581.640	4466
581.661	4490
581.713	5516
581.717	5596
581.773	5040
581.786	5053
581.829	5120
581.859	4804
581.885	4585
581.932	4803
581.940	4832
581.996	5266
582.004	5296
582.052	5476
582.077	5117
582.107	4668
582.150	5088
582.163	5213
582.219	4073
582.223	4058
582.274	3909
582.296	4242
582.330	4828
582.368	5372
582.386	5623
582.441	5159
582.441	5158
582.497	5040
582.514	4684
582.552	3952
582.587	5265
582.608	6043
582.659	4636
582.663	4520
582.719	5333
582.732	5171
582.774	4687
582.805	5020
582.830	5361
582.877	4392
582.885	4200
582.941	4886
582.950	4928
582.996	5250
583.023	5457
583.052	5819
583.095	5228
583.107	4996
583.162	5545
583.168	5498
583.218	5030
583.240	5118
583.273	5383
583.313	5168
583.328	5081
583.384	4618
583.385	4618
583.439	4393
583.458	4458
583.494	4603
583.531	4696
583.549	4843
583.603	4933
583.605	4928
583.660	5635
583.676	5297
583.715	4591
583.748	4835
583.770	4920
583.820	5279
583.825	5313
583.881	4476
583.893	4588
583.936	5122
583.965	4998
583.991	4805
584.038	5167
584.046	5279
584.101	4829
584.110	5003
584.156	5654
584.183	5345
584.211	4873
584.255	5336
584.266	5554
584.321	5554
584.328	5540
584.376	5695
584.400	6077
584.431	6229
584.472	5827
584.486	5731
584.541	6468
584.545	6474
584.596	6481
584.617	6379
584.651	6468
584.689	6966
584.706	7059
584.761	6725
584.762	6726
584.816	7219
584.834	7173
584.871	7138
584.906	7971
584.926	8322
584.978	8555
584.980	8578
585.035	10290
585.051	10513
585.090	11078
585.123	12145
585.145	12835
585.195	13122
585.200	13243
585.254	16413
585.267	17353
585.309	19979
585.340	21645
585.364	23021
585.412	26089
585.419	26702
585.473	34654
585.484	36980
585.528	48986
585.556	61293
585.583	83845
585.628	138595
585.637	156622
585.692	324324
585.700	347105
585.747	412647
585.772	337183
585.801	199788
585.845	69413
585.856	53485
585.910	27670
585.917	25320
585.965	19369
585.989	17089
586.019	15623
586.061	14720
586.074	14366
586.128	12812
586.133	12730
586.183	12130
586.205	11720
586.237	11497
586.277	11627
586.292	11722
586.346	12021
586.349	12026
586.401	11919
586.421	11876
586.455	11589
586.493	11056
586.509	11167
586.564	11932
586.565	11950
586.618	12983
586.637	13453
586.672	15108
586.709	17387
586.727	18183
586.781	19954
586.781	19956
586.835	14662
586.853	13664
586.889	12641
586.925	12020
586.944	11931
586.996	12153
586.998	12168
587.052	11946
587.068	11967
587.106	12085
587.140	11791
587.161	11853
587.212	12892
587.215	12919
587.269	12617
587.284	12647
587.323	12967
587.356	13126
587.377	13359
587.427	13781
587.431	13789
587.485	13793
587.499	13809
587.539	14516
587.571	14944
587.593	15232
587.643	16012
587.648	16052
587.702	15919
587.715	15959
587.755	15998
587.786	15894
587.810	16103
587.858	16367
587.864	16394
587.917	16452
587.930	16547
587.971	16861
588.001	16703
588.025	16460
588.073	16703
588.079	16821
588.133	17093
588.145	17195
588.187	17216
588.217	17144
588.241	17620
588.288	18685
588.295	18762
588.348	19135
588.360	19238
588.402	20051
588.431	20311
588.456	20603
588.503	21772
588.510	21952
588.564	23220
588.575	23479
588.617	24856
588.646	25761
588.671	26680
588.718	28919
588.725	29592
588.778	35478
588.789	37343
588.832	57686
588.861	73533
588.886	105821
588.932	177859
588.939	183734
588.993	218727
589.004	215558
589.047	113282
589.075	56587
589.100	44191
589.147	29863
589.154	29331
589.207	25922
589.218	25315
589.261	26339
589.290	27274
589.314	27999
589.361	30127
589.368	31243
589.421	41266
589.433	43941
589.475	76647
589.504	103019
589.528	133876
589.576	196766
589.582	190301
589.635	93364
589.647	74780
589.689	43376
589.718	26155
589.742	24802
589.790	21986
589.795	21888
589.849	21124
589.861	20925
589.902	20344
589.932	19847
589.955	19712
590.004	19373
590.009	19421
590.062	19806
590.075	19880
590.115	19527
590.146	19073
590.168	19001
590.218	18923
590.222	18957
590.275	19218
590.289	19213
590.328	20058
590.360	20573
590.381	20807
590.431	21356
590.435	21376
590.488	21202
590.503	21115
590.541	21461
590.574	21595
590.594	21961
590.645	23074
590.647	23117
590.700	23049
590.716	22996
590.753	23755
590.787	24434
590.806	24645
590.859	25211
590.859	25267
590.912	26070
590.930	26403
590.965	26745
591.001	26798
591.018	26453
591.071	25182
591.072	25127
591.124	25887
591.143	26068
591.177	26232
591.214	26303
591.230	26458
591.283	27013
591.285	26979
591.336	26670
591.356	26576
591.389	26372
591.427	25918
591.442	25994
591.495	26124
591.498	26090
591.547	25721
591.569	25569
591.600	26575
591.640	27678
591.653	27896
591.706	28667
591.711	28703
591.759	28763
591.782	28681
591.811	29732
591.853	31192
591.864	31162
591.917	30629
591.924	30504
591.969	30610
591.995	30586
592.022	30801
592.066	31019
592.075	31371
592.127	33234
592.137	33517
592.180	33453
592.208	33272
592.233	33750
592.279	34578
592.285	34701
592.338	35190
592.350	35219
592.390	35092
592.421	34940
592.443	35271
592.491	35779
592.495	35902
592.548	36755
592.562	36924
592.600	37038
592.633	37025
592.653	37036
592.704	36702
592.705	36914
592.775	36942
592.846	39940
592.916	39527
592.987	41153
593.058	40852
593.128	40623
593.199	41131
593.270	41805
593.341	43459
593.411	44661
593.482	47199
593.553	47250
593.623	46902
593.694	48957
593.764	50491
593.835	49698
593.906	49664
593.976	50068
594.047	51947
594.117	54995
594.188	55175
594.258	54944
594.329	55641
594.399	56491
594.470	58220
594.540	61188
594.611	61884
594.681	60407
594.751	60600
594.822	64326
594.892	66706
594.963	67875
595.033	69556
595.103	72886
595.174	72149
595.244	74451
595.314	75819
595.384	78469
595.455	80571
595.525	85174
595.595	87019
595.665	85038
595.736	83695
595.806	86534
595.876	87628
595.946	87891
596.016	93678
596.087	96284
596.157	95561
596.227	96822
596.297	101770
596.367	108423
596.437	113615
596.507	114562
596.577	112034
596.647	117911
596.717	124304
596.787	125566
596.857	124477
596.927	125257
596.997	127320
597.067	128714
597.137	129818
597.207	131964
597.277	131073
597.347	125346
597.417	121292
597.487	123055
597.557	126290
597.626	129361
597.696	129646
597.766	127713
597.836	120200
597.906	115349
597.975	113635
598.045	115185
598.115	121063
598.185	130255
598.254	146234
598.324	158743
598.394	160796
598.464	154616
598.533	151308
598.603	140966
598.672	137551
598.742	140681
598.812	141151
598.881	146377
598.951	142732
599.020	147479
599.090	152204
599.159	155590
599.229	148041
599.299	146352
599.368	149667
599.437	147198
599.507	134010
599.576	130906
599.646	127952
599.715	127659
599.785	125039
599.854	121707
599.924	120045
599.993	119837
600.062	122343
600.132	125873
600.201	134583
600.270	157684
600.340	163371
600.409	160505
600.478	159189
600.547	164479
600.617	144481
600.686	116845
600.755	106114
600.824	98921
600.894	97579
600.963	98516
601.032	96602
601.101	93138
601.170	88476
601.239	86584
601.308	86851
601.378	86544
601.447	87476
601.516	87297
601.585	88640
601.654	89751
601.723	91010
601.792	92644
601.861	96054
601.930	99927
601.999	99509
602.068	98479
602.137	99256
602.206	103143
602.275	103777
602.343	104311
602.412	103870
602.481	106811
602.550	107285
602.619	111450
602.688	110886
602.756	112679
602.825	112959
602.894	117175
602.963	119074
603.032	120917
603.100	122482
603.169	122582
603.238	121231
603.307	122879
603.375	125093
603.444	127724
603.513	128535
603.581	130950
603.650	132247
603.719	130649
603.787	133792
603.856	139454
603.924	140891
603.993	146087
604.061	150624
604.130	157495
604.198	160301
604.267	164525
604.335	167279
604.404	169208
604.472	172303
604.541	172301
604.609	175503
604.678	175359
604.746	176852
604.815	181622
604.883	184281
604.951	184306
605.020	189194
605.088	192496
605.156	196715
605.225	200677
605.293	198546
605.361	198970
605.429	199278
605.498	202584
605.566	210344
605.634	222747
605.702	228710
605.771	235550
605.839	235760
605.907	232894
605.975	220536
606.043	219595
606.111	218595
606.180	219131
606.248	216723
606.316	216304
606.384	215304
606.452	216459
606.520	222658
606.588	231174
606.656	233925
606.724	224810
606.792	212536
606.860	191020
606.928	176233
606.996	168591
607.064	166470
607.132	171694
607.200	181842
607.267	188623
607.335	191929
607.403	197227
607.471	188936
607.539	184852
607.607	181231
607.674	162154
607.742	162348
607.810	159366
607.878	159587
607.946	164577
608.013	173574
608.081	174827
608.149	178346
608.216	184691
608.284	188692
608.352	190180
608.419	185435
608.487	182638
608.555	181412
608.622	185878
608.690	199405
608.757	220280
608.825	222839
608.893	217518
608.960	201891
609.028	196922
609.095	197872
609.163	193583
609.230	172348
609.298	159938
609.365	169621
609.432	183504
609.500	199906
609.567	227385
609.635	260493
609.702	271550
609.769	254791
609.837	195357
609.904	172340
609.971	175279
610.039	188074
610.106	227622
610.173	365581
610.241	696327
610.308	386579
610.375	205642
610.442	185209
610.509	178702
610.577	180384
610.644	183699
610.711	191720
610.778	195865
610.845	203376
610.912	214169
610.980	223052
611.047	224353
611.114	219897
611.181	213921
611.248	211092
611.315	225513
611.382	229176
611.449	238407
611.516	241463
611.583	237097
611.650	238966
611.717	239950
611.784	244527
611.851	252630
611.918	257088
611.984	285868
612.051	357130
612.118	581455
612.185	1088224
612.252	692834
612.319	329183
612.386	301412
612.452	278643
612.519	267992
612.586	263100
612.653	271018
612.719	282089
612.786	268361
612.853	252029
612.919	248614
612.986	252250
613.053	237666
613.120	222387
613.186	216444
613.253	217570
613.319	219239
613.386	220276
613.453	223950
613.519	225088
613.586	218532
613.652	222336
613.719	220209
613.785	223212
613.852	227161
613.918	224353
613.985	227712
614.051	237152
614.118	232142
614.184	223231
614.250	225248
614.317	229409
614.383	228926
614.449	232633
614.516	231388
614.582	230039
614.648	225797
614.715	224388
614.781	220021
614.847	218946
614.914	220059
614.980	213047
615.046	214049
615.112	222092
615.179	224074
615.245	224804
615.311	221760
615.377	222610
615.443	225249
615.509	230561
615.575	236312
615.642	230681
615.708	238441
615.774	246051
615.840	256182
615.906	262409
615.972	293326
616.038	386567
616.104	666285
616.170	1208746
616.236	939885
616.302	408997
616.368	349804
616.434	277824
616.500	263834
616.565	287251
616.631	333396
616.697	285675
616.763	296185
616.829	405446
616.895	630146
616.961	554077
617.026	293363
617.092	242022
617.158	236517
617.224	230955
617.289	215778
617.355	205452
617.421	205468
617.487	206721
617.552	199311
617.618	196244
617.684	196033
617.749	199658
617.815	189057
617.880	187303
617.946	187422
618.012	191301
618.077	195699
618.143	187501
618.208	189839
618.274	202286
618.339	201182
618.405	168390
618.470	168128
618.536	168872
618.601	167227
618.667	154452
618.732	148163
618.798	147155
618.863	146038
618.928	145617
618.994	146742
619.059	145158
619.124	148633
619.190	145953
619.255	143612
619.320	145212
619.386	146397
619.451	143804
619.516	139649
619.581	142453
619.647	148689
619.712	148253
619.777	143254
619.842	144437
619.907	145789
619.972	148708
620.038	145932
620.103	141058
620.168	143110
620.233	145992
620.298	148477
620.363	148370
620.428	153148
620.493	156694
620.558	158121
620.623	160813
620.688	158445
620.753	157705
620.818	161419
620.883	161384
620.948	161588
621.013	157550
621.078	155806
621.143	156774
621.207	159948
621.272	153912
621.337	151367
621.402	151124
621.467	148142
621.532	148967
621.596	150651
621.661	146622
621.726	144206
621.791	147414
621.855	147175
621.920	144459
621.985	145844
622.049	150069
622.114	150498
622.179	150926
622.243	155541
622.308	159141
622.373	165814
622.437	161385
622.502	152553
622.566	151480
622.631	152589
622.695	154704
622.760	152618
622.824	151646
622.889	154367
622.953	155350
623.018	163252
623.082	164560
623.147	161504
623.211	159375
623.276	161138
623.340	151935
623.404	149987
623.469	150892
623.533	153144
623.597	147202
623.662	147461
623.726	137473
623.790	131141
623.854	126974
623.919	131165
623.983	131996
624.047	133299
624.111	134177
624.176	135751
624.240	136061
624.304	140744
624.368	134492
624.432	136709
624.496	138161
624.560	145879
624.625	143733
624.689	145701
624.753	152233
624.817	144181
624.881	140836
624.945	128016
625.009	123575
625.073	128440
625.137	130975
625.201	136260
625.265	136541
625.329	131147
625.393	131941
625.456	134210
625.520	136312
625.584	137458
625.648	141646
625.712	145956
625.776	142835
625.839	133565
625.903	113925
625.967	108802
626.031	118088
626.095	137207
626.158	125160
626.222	99197
626.286	95735
626.349	91506
626.413	84986
626.477	85693
626.540	86673
626.604	83982
626.668	84787
626.731	82853
626.795	81931
626.858	80800
626.922	80545
626.986	80586
627.049	78150
627.113	83695
627.176	79453
627.240	79072
627.303	78299
627.366	77090
627.430	77491
627.493	77617
627.557	74600
627.620	77214
627.684	80412
627.747	80281
627.810	71081
627.874	66591
627.937	62511
628.000	67115
628.064	62876
628.127	56465
628.190	57703
628.253	56338
628.317	51862
628.380	50934
628.443	49348
628.506	50053
628.569	47335
628.632	45205
628.696	45176
628.759	44040
628.822	42251
628.885	41675
628.948	41252
629.011	39688
629.074	39073
629.137	37472
629.200	37157
629.263	38156
629.326	35240
629.389	36711
629.452	35345
629.515	34549
629.578	33858
629.641	35025
629.704	33913
629.767	34764
629.830	33896
629.892	31902
629.955	30817
630.018	34452
630.081	30647
630.144	33640
630.207	31090
630.269	33222
630.332	31516
630.395	31316
630.458	29500
630.520	27739
630.583	30743
630.646	30974
630.708	30418
630.771	30739
630.834	32633
630.896	30234
630.959	31219
631.021	29743
631.084	30348
631.146	30197
631.209	30591
631.272	29358
631.334	30985
631.397	30667
631.459	30541
631.522	31896
631.584	31544
631.646	35074
631.709	33980
631.771	34501
631.834	33328
631.896	32066
631.958	30019
632.021	30317
632.083	28207
632.145	28273
632.208	28095
632.270	29455
632.332	28120
632.395	27347
632.457	29150
632.519	27357
632.581	29102
632.643	27349
632.706	27946
632.768	26749
632.830	28097
632.892	28382
632.954	28245
633.016	29064
633.078	28740
633.141	28532
633.203	28034
633.265	28339
633.327	27500
633.389	27194
633.451	28621
633.513	27081
633.575	29608
633.637	26915
633.698	28065
633.760	30547
633.822	30879
633.884	31646
633.946	31705
634.008	32976
634.070	33181
634.132	33688
634.193	34434
634.255	38843
634.317	37918
634.379	40182
634.441	34710
634.502	32186
634.564	30986
634.626	28016
634.687	27376
634.749	26593
634.811	26978
634.873	25840
634.934	26868
634.996	27573
635.057	25660
635.119	26548
635.181	26558
635.242	28340
635.304	25678
635.365	29684
635.427	26453
635.488	26326
635.550	25812
635.611	27121
635.673	23930
635.734	29035
635.796	28537
635.857	32363
635.918	33024
635.980	37715
636.041	37138
636.102	41544
636.164	40502
636.225	39379
636.286	32345
636.348	31746
636.409	29164
636.470	27189
636.531	27769
636.593	25791
636.654	25976
636.715	25041
636.776	24855
636.838	24379
636.899	25388
636.960	24233
637.021	23012
637.082	23014
637.143	24030
637.204	21662
637.265	22555
637.326	23243
637.387	23843
637.448	21865
637.509	23059
637.570	22266
637.631	23691
637.692	21593
637.753	20055
637.814	22421
637.875	21403
637.936	21828
637.997	20601
638.058	21251
638.119	22158
638.179	21814
638.240	21063
638.301	21319
638.362	20115
638.423	20463
638.483	21713
638.544	18791
638.605	21377
638.666	19892
638.726	20355
638.787	21377
638.848	20296
638.908	19262
638.969	19954
639.030	19647
639.090	18947
639.151	18773
639.211	19788
639.272	20082
639.332	20818
639.393	19993
639.453	20510
639.514	21976
639.574	20746
639.635	17720
639.695	18531
639.756	18011
639.816	18020
639.877	17851
639.937	19062
639.997	17828
640.058	17140
640.118	17925
640.178	19542
640.239	18402
640.299	18213
640.359	18330
640.420	19093
640.480	21380
640.540	22997
640.600	22062
640.661	20769
640.721	18804
640.781	19902
640.841	17163
640.901	19331
640.961	18629
641.021	19463
641.082	18982
641.142	17514
641.202	19207
641.262	16151
641.322	17779
641.382	16297
641.442	17422
641.502	17788
641.562	17931
641.622	17138
641.682	18661
641.742	20123
641.802	19930
641.861	17019
641.921	16178
641.981	16603
642.041	16374
642.101	15612
642.161	14479
642.221	15075
642.280	15844
642.340	15526
642.400	15684
642.460	16969
642.519	15867
642.579	16145
642.639	17954
642.698	14626
642.758	19518
642.818	16537
642.877	15863
642.937	16584
642.997	17518
643.056	17340
643.116	14511
643.175	17458
643.235	17698
643.294	17095
643.354	18220
643.414	19052
643.473	21597
643.532	24319
643.592	31511
643.651	47081
643.711	79016
643.770	152103
643.830	365592
643.889	614373
643.948	147180
644.008	40183
644.067	27694
644.126	21921
644.186	20172
644.245	19214
644.304	16190
644.363	18535
644.423	15424
644.482	16098
644.541	18675
644.600	15606
644.659	21289
644.719	25436
644.778	35905
644.837	61471
644.896	127948
644.955	259312
645.014	71998
645.073	23294
645.132	19720
645.191	17799
645.250	17286
645.309	19653
645.368	20754
645.427	27179
645.486	45100
645.545	68006
645.604	21398
645.663	16321
645.722	16269
645.781	17364
645.840	18815
645.898	22350
645.957	30466
646.016	41983
646.075	76022
646.134	146054
646.192	386303
646.251	450247
646.310	76558
646.369	30720
646.427	26795
646.486	20243
646.545	17793
646.603	15681
646.662	15626
646.721	14211
646.779	14154
646.838	15494
646.896	18232
646.955	24513
647.014	39186
647.072	73860
647.131	186361
647.189	70533
647.248	17081
647.306	14688
647.365	13583
647.423	10254
647.481	14307
647.540	10609
647.598	12439
647.657	10967
647.715	12685
647.773	10415
647.832	11492
647.890	10338
647.948	9870
648.007	10180
648.065	8798
648.123	8950
648.181	10708
648.240	9863
648.298	9107
648.356	9380
648.414	9779
648.472	9413
648.531	9226
648.589	8563
648.647	8995
648.705	8957
648.763	9358
648.821	9174
648.879	9580
648.937	10226
648.995	12519
649.053	14102
649.111	21894
649.169	35243
649.227	65472
649.285	140502
649.343	359013
649.401	133368
649.459	23575
649.516	14555
649.574	10910
649.632	11560
649.690	14309
649.748	16754
649.806	24587
649.863	48904
649.921	137017
649.979	69775
650.037	12334
650.094	8217
650.152	8336
650.210	6736
650.268	7890
650.325	7104
650.383	6315
650.440	5948
650.498	7307
650.556	6348
650.613	5625
650.671	6498
650.728	7170
650.786	7218
650.843	10283
650.901	5761
650.958	6821
651.016	5354
651.073	5920
651.131	5121
651.188	4634
651.246	4784
651.303	4243
651.360	5812
651.418	4678
651.475	4380
651.532	4156
651.590	4988
651.647	4224
651.704	4388
651.762	4500
651.819	4825
651.876	4258
651.933	5007
651.990	5149
652.048	3215
652.105	4490
652.162	4419
652.219	3640
652.276	4103
652.333	3688
652.390	3486
652.448	4139
652.505	4098
652.562	3705
652.619	4468
652.676	3923
652.733	4031
652.790	3759
652.847	2512
652.904	4245
652.961	1900
653.017	3449
653.074	4679
653.131	3733
653.188	3361
653.245	3869
653.302	3047
653.359	3752
653.415	3746
653.472	3702
653.529	3437
653.586	2804
653.642	3078
653.699	4237
653.756	2354
653.813	2848
653.869	3919
653.926	2550
653.983	3328
654.039	3540
654.096	2765
654.152	3903
654.209	2529
654.266	4256
654.322	2056
654.379	4424
654.435	3856
654.492	2965
654.548	3078
654.605	2554
654.661	3979
654.717	2712
654.774	3385
654.830	2924
654.887	2490
654.943	3567
655.000	4764
655.056	2843
655.112	2376
655.168	2037
655.225	2984
655.281	3840
655.337	2397
655.394	2396
655.450	2601
655.506	3146
655.562	2005
655.618	3886
655.675	1958
655.731	2982
655.787	2944
655.843	4379
655.899	2354
655.955	3333
656.011	3585
656.067	2653
656.123	2904
656.179	3527
656.235	3801
656.291	2296
656.347	4495
656.403	2744
656.459	2539
656.515	2965
656.571	2512
656.627	3129
656.683	2233
656.739	4166
656.795	2457
656.850	2792
656.906	3716
656.962	3416
657.018	2466
657.074	4396
657.129	6582
657.185	10658
657.241	23698
657.297	10200
657.352	3531
657.408	2545
657.464	3294
657.519	2393
657.575	2246
657.630	2052
657.686	2229
657.742	2133
657.797	1732
657.853	2295
657.908	2916
657.964	1831
658.019	2646
658.075	2440
658.130	2094
658.186	872
658.241	2592
658.297	1955
658.352	1832
658.407	2483
658.463	1916
658.518	2433
658.573	2203
658.629	2182
658.684	2090
658.739	1955
658.795	2371
658.850	2479
658.905	1674
658.960	2358
659.016	1142
659.071	1941
659.126	2015
659.181	1772
659.236	3073
659.291	2155
659.346	1799
659.401	2113
659.457	3554
659.512	1518
659.567	3050
659.622	2446
659.677	1181
659.732	1802
659.787	1508
659.842	2141
659.897	1705
659.952	2019
660.007	1653
660.061	1826
660.116	817
660.171	2278
660.226	2143
660.281	2558
660.336	2065
660.391	2495
660.445	1438
660.500	2203
660.555	1501
660.610	1541
660.664	2017
660.719	1600
660.774	1755
660.828	1655
660.883	1143
660.938	2345
660.992	982
661.047	1667
661.101	1555
661.156	2094
661.211	966
661.265	1552
661.320	600
661.374	2046
661.429	1187
661.483	2864
661.538	263
661.592	1869
661.647	2144
661.701	1253
661.755	792
661.810	2036
661.864	940
661.919	1348
661.973	1668
662.027	2155
662.081	1103
662.136	1707
662.190	1969
662.244	2055
662.299	2138
662.353	1553
662.407	1101
662.461	1952
662.515	1648
662.569	1267
662.624	1903
662.678	1707
662.732	981
662.786	1653
662.840	1354
662.894	2171
662.948	1421
663.002	2197
663.056	1791
663.110	1771
663.164	1334
663.218	1340
663.272	1711
663.326	758
663.380	1570
663.434	1833
663.488	1289
663.542	1357
663.595	990
663.649	1747
663.703	1641
663.757	1687
663.811	813
663.864	1766
663.918	1134
663.972	859
664.026	1307
664.079	963
664.133	1908
664.187	2028
664.240	1872
664.294	1685
664.348	1463
664.401	1310
664.455	788
664.508	1465
664.562	1136
664.615	1723
664.669	1033
664.722	1668
664.776	753
664.829	1243
664.883	1360
664.936	1026
664.990	924
665.043	2070
665.097	1061
665.150	2409
665.203	1927
665.257	1932
665.310	1525
665.363	1164
665.417	1241
665.470	1338
665.523	1311
665.576	1215
665.630	747
665.683	1761
665.736	2246
665.789	1380
665.842	1076
665.895	1737
665.949	1386
666.002	953
666.055	1720
666.108	2242
666.161	1431
666.214	2271
666.267	1443
666.320	2480
666.373	1731
666.426	1654
666.479	460
666.532	1610
666.585	1473
666.638	1680
666.691	1923
666.744	2533
666.796	1465
666.849	2137
666.902	2005
666.955	1510
667.008	2181
667.060	1708
667.113	876
667.166	2032
667.219	1595
667.271	2327
667.324	1398
667.377	2312
667.430	2169
667.482	2152
667.535	988
667.587	1790
667.640	1074
667.693	1126
667.745	1695
667.798	2087
667.850	1513
667.903	1921
667.955	2001
668.008	1385
668.060	1170
668.113	1972
668.165	2072
668.218	1276
668.270	1050
668.322	2004
668.375	1841
668.427	1896
668.479	1750
668.532	1918
668.584	1482
668.636	1637
668.689	1670
668.741	1582
668.793	1048
668.845	1795
668.898	1243
668.950	1916
669.002	1853
669.054	1797
669.106	1186
669.158	1467
669.211	1205
669.263	1994
669.315	1363
669.367	2137
669.419	910
669.471	2359
669.523	1593
669.575	1691
669.627	1094
669.679	1400
669.731	1494
669.783	1574
669.835	1304
669.886	1141
669.938	1789
669.990	1308
670.042	551
670.094	2619
670.146	870
670.197	1947
670.249	1656
670.301	1467
670.353	2056
670.404	1989
670.456	1680
670.508	2699
670.560	3554
670.611	5573
670.663	7840
670.715	19284
670.766	23809
670.818	5276
670.869	2733
670.921	2143
670.972	1856
671.024	862
671.075	997
671.127	1497
671.178	2202
671.230	1807
671.281	1802
671.333	1807
671.384	2143
671.436	4582
671.487	6449
671.538	10376
671.590	16159
671.641	27900
671.692	55459
671.744	99378
671.795	53011
671.846	16255
671.897	7642
671.949	4127
672.000	2875
672.051	3671
672.102	2162
672.153	1734
672.204	1310
672.256	1814
672.307	1726
672.358	855
672.409	397
672.460	1158
672.511	412
672.562	687
672.613	1060
672.664	876
672.715	1783
672.766	682
672.817	323
672.868	872
672.919	953
672.970	417
673.021	674
673.071	471
673.122	562
673.173	1552
673.224	1023
673.275	808
673.326	621
673.376	703
673.427	-18
673.478	772
673.528	1607
673.579	889
673.630	1109
673.680	1705
673.731	348
673.782	693
673.832	878
673.883	525
673.934	-179
673.984	738
674.035	453
674.085	1165
674.136	424
674.186	1091
674.237	-97
674.287	687
674.338	346
674.388	263
674.438	945
674.489	553
674.539	968
674.589	708
674.640	342
674.690	1560
674.740	763
674.791	1121
674.841	595
674.891	825
674.942	163
674.992	274
675.042	92
675.092	-571
675.142	56
675.193	555
675.243	-588
675.293	869
675.343	468
675.393	736
675.443	1091
675.493	797
675.543	-694
675.593	-28
675.643	467
675.693	758
675.743	749
675.793	963
675.843	-887
675.893	-56
675.943	-583
675.993	-401
676.043	508
676.093	634
676.142	-59
676.192	915
676.242	120
676.292	-6
676.341	-399
676.391	-236
676.441	-523
676.491	765
676.540	-434
676.590	950
676.640	222
676.689	318
676.739	-994
676.789	-133
676.838	-815
676.888	37
676.937	241
676.987	374
677.037	214
677.086	363
677.136	-498
677.185	-700
677.235	-762
677.284	568
677.333	104
677.383	-334
677.432	-726
677.482	-469
677.531	305
677.580	-357
677.630	-150
677.679	-580
677.728	341
677.778	1043
677.827	-426
677.876	256
677.925	595
677.975	8
678.024	-948
678.073	-98
678.122	-955
678.171	-153
678.220	-510
678.269	179
678.319	459
678.368	1263
678.417	208
678.466	921
678.515	-270
678.564	-320
678.613	-1219
678.662	-724
678.711	-269
678.760	-220
678.809	-610
678.857	-424
678.906	8
678.955	-634
679.004	-356
679.053	-833
679.102	-510
679.151	-258
679.199	-497
679.248	-570
679.297	-1286
679.346	-1061
679.394	-882
679.443	-484
679.492	-71
679.540	605
679.589	-767
679.638	-677
679.686	-986
679.735	-199
679.784	-267
679.832	-74
679.881	194
679.929	-510
679.978	-580
680.026	-461
680.075	46
680.123	-948
680.172	-1058
680.220	277
680.268	-414
680.317	-625
680.365	-722
680.414	-357
680.462	-578
680.510	-235
680.559	-446
680.607	-514
680.655	-649
680.703	-179
680.752	57
680.800	427
680.848	-668
680.896	-743
680.945	-1151
680.993	-1008
681.041	-1108
681.089	134
681.137	-1136
681.185	-805
681.233	-399
681.258	-106
681.281	148
681.329	28
681.377	-921
681.380	-876
681.425	-510
681.473	49
681.502	-98
681.521	-245
681.569	-179
681.617	139
681.624	144
681.665	-26
681.713	100
681.745	-106
681.761	-240
681.809	0
681.857	983
681.867	690
681.904	-429
681.952	738
681.989	453
682.000	335
682.048	-186
682.096	-83
682.111	141
682.143	526
682.191	463
682.233	1513
682.239	1651
682.286	977
682.334	324
682.354	325
682.382	250
682.430	1573
682.476	435
682.477	389
682.525	1071
682.572	709
682.598	679
682.620	603
682.667	811
682.715	1173
682.720	1171
682.763	1004
682.810	830
682.841	1097
682.857	1199
682.905	1681
682.952	1446
682.963	1503
683.000	1534
683.047	1396
683.085	2359
683.095	2624
683.142	1609
683.190	1822
683.206	1578
683.237	1013
683.284	2315
683.328	1433
683.332	1344
683.379	1823
683.426	1744
683.449	1742
683.473	1740
683.521	1674
683.568	2209
683.571	2248
683.615	2401
683.662	3009
683.693	2182
683.709	1698
683.757	2058
683.804	1578
683.814	1526
683.851	1339
683.898	2661
683.936	2679
683.945	2659
683.992	2076
684.039	1800
684.057	1964
684.086	2196
684.133	2780
684.179	2396
684.180	2368
684.227	2145
684.274	2600
684.300	2846
684.321	3028
684.368	2484
684.415	3075
684.422	3025
684.462	2650
684.509	2831
684.543	2744
684.556	2702
684.603	3018
684.649	2794
684.665	2890
684.696	3027
684.743	3512
684.786	3653
684.790	3647
684.837	3086
684.883	3164
684.908	3259
684.930	3357
684.977	3115
685.023	2957
685.029	3002
685.070	3257
685.117	3415
685.150	3457
685.164	3465
685.210	2982
685.257	4011
685.272	3951
685.303	3794
685.350	3415
685.393	3652
685.396	3647
685.443	3681
685.490	3463
685.514	3222
685.536	3102
685.583	3760
685.629	3847
685.636	3783
685.675	3303
685.722	4107
685.757	3882
685.768	3781
685.815	3725
685.861	3660
685.878	3600
685.908	3633
685.954	4174
686.000	4610
686.000	4607
686.047	4727
686.093	4412
686.121	4212
686.139	4094
686.185	4308
686.232	4395
686.242	4488
686.278	4847
686.324	4521
686.363	4267
686.370	4204
686.416	4237
686.463	5026
686.484	5064
686.509	5046
686.555	5238
686.601	3875
686.606	3999
686.647	5175
686.693	4572
686.727	4656
686.739	4682
686.785	4717
686.831	4593
686.848	4747
686.877	5060
686.923	4996
686.969	5140
686.969	5140
687.015	5491
687.061	5682
687.090	6114
687.107	6309
687.153	5343
687.199	6076
687.211	6041
687.245	5729
687.291	5126
687.332	5171
687.336	5221
687.382	5761
687.428	5074
687.453	5702
687.474	6083
687.520	6002
687.565	6061
687.574	5929
687.611	5611
687.657	6651
687.695	6280
687.702	6174
687.748	6342
687.794	6381
687.816	6520
687.839	6700
687.885	6317
687.931	6451
687.937	6430
687.976	6308
688.022	6232
688.058	6614
688.067	6679
688.113	6402
688.158	6097
688.179	5994
688.204	6014
688.249	6176
688.295	5998
688.300	6067
688.340	6657
688.386	6686
688.421	6630
688.431	6597
688.477	6891
688.522	6545
688.542	6807
688.567	7182
688.613	7005
688.658	7237
688.663	7214
688.703	7061
688.749	6826
688.784	7107
688.794	7191
688.839	7676
688.884	7076
688.905	7235
688.930	7247
688.975	6981
689.020	6584
689.026	6528
689.065	6631
689.110	7132
689.146	6975
689.155	6912
689.201	7103
689.246	7195
689.267	7274
689.291	7491
689.336	7741
689.381	7520
689.388	7539
689.426	7446
689.471	7787
689.509	7417
689.516	7370
689.561	6890
689.606	7717
689.630	7483
689.651	7323
689.696	7087
689.741	7791
689.750	7737
689.785	7697
689.830	8143
689.871	8048
689.875	8025
689.920	7817
689.965	7767
689.992	7798
690.010	7837
690.054	7375
690.099	7698
690.112	7518
690.144	7254
690.189	7560
690.233	7338
690.233	7349
690.278	7498
690.323	7575
690.354	7599
690.367	7719
690.412	8197
690.457	8078
690.474	8287
690.501	8322
690.546	7680
690.590	7645
690.595	7615
690.635	7751
690.680	7422
690.716	7413
690.724	7437
690.769	7658
690.813	8075
690.836	8021
690.857	8286
690.902	8888
690.946	9567
690.957	9666
690.991	10025
691.035	10827
691.077	11290
691.080	11276
691.124	10642
691.168	10365
691.198	9773
691.213	9481
691.257	9261
691.301	7973
691.318	7890
691.346	8175
691.390	8341
691.434	8216
691.439	8186
691.478	8218
691.522	8640
691.559	8775
691.567	8830
691.611	9088
691.655	9023
691.680	9094
691.699	9054
691.743	9152
691.787	9261
691.800	9129
691.831	9014
691.875	9109
691.919	9122
691.921	9102
691.964	9028
692.008	9229
692.041	8988
692.052	8994
692.096	9061
692.139	9932
692.162	9900
692.183	9602
692.227	9438
692.271	8811
692.282	8812
692.315	9285
692.359	9482
692.402	9577
692.403	9595
692.447	9322
692.490	9110
692.523	8831
692.534	8789
692.578	9018
692.622	8891
692.643	8834
692.666	8825
692.709	8723
692.753	8809
692.763	8804
692.797	9190
692.840	9346
692.884	9724
692.884	9746
692.928	9693
692.971	9294
693.004	9160
693.015	9209
693.059	9192
693.102	9547
693.124	9223
693.146	8923
693.189	9315
693.233	9065
693.245	9045
693.276	9334
693.320	9595
693.363	9819
693.365	9804
693.407	9974
693.450	10009
693.485	10249
693.493	10324
693.537	10733
693.580	10581
693.605	10805
693.624	11093
693.667	11272
693.710	11730
693.725	11773
693.753	13246
693.797	15789
693.840	18311
693.845	18525
693.883	16498
693.926	14361
693.966	12623
693.970	12585
694.013	11547
694.056	10980
694.086	10077
694.099	9880
694.142	9777
694.185	9371
694.206	9131
694.229	9347
694.272	9981
694.315	10661
694.326	10685
694.358	10672
694.401	11094
694.444	11322
694.446	11308
694.487	11265
694.530	11190
694.566	10858
694.573	10848
694.616	10784
694.659	10788
694.686	10760
694.702	10868
694.745	11287
694.787	11139
694.806	11344
694.830	11209
694.873	10494
694.916	9834
694.926	9649
694.959	10234
695.002	10976
695.044	11707
695.046	11718
695.087	12179
695.130	12096
695.166	12366
695.172	12446
695.215	12537
695.258	12779
695.286	12784
695.301	12778
695.343	12748
695.386	12977
695.406	12914
695.428	13645
695.471	15102
695.514	16261
695.526	16611
695.556	17317
695.599	18586
695.641	19229
695.646	19309
695.684	18554
695.726	17411
695.766	16264
695.769	16252
695.811	15445
695.854	14873
695.886	14274
695.896	14404
695.938	14818
695.981	15104
696.005	15364
696.023	16006
696.065	17263
696.108	18624
696.125	19153
696.150	19399
696.192	19680
696.235	19881
696.245	19910
696.277	20036
696.319	20064
696.361	20107
696.365	20051
696.404	19691
696.446	19432
696.485	19193
696.488	19250
696.530	19035
696.572	18966
696.604	18939
696.614	18988
696.656	18739
696.698	18846
696.724	18769
696.740	18896
696.783	18946
696.825	19190
696.844	19255
696.867	19394
696.909	19299
696.951	19403
696.964	19402
696.992	19739
697.034	19936
697.076	20338
697.083	20360
697.118	21055
697.160	21583
697.202	22312
697.203	22270
697.244	21583
697.286	20901
697.323	20227
697.327	20356
697.369	20965
697.411	21548
697.442	22028
697.453	22052
697.494	21820
697.536	21602
697.562	21448
697.578	21599
697.620	21746
697.661	21934
697.682	21956
697.703	22456
697.744	23426
697.786	24355
697.801	24607
697.828	24559
697.869	24372
697.911	24215
697.921	24118
697.952	23670
697.994	22967
698.035	22262
698.040	22114
698.077	22597
698.118	23135
698.160	23648
698.160	23588
698.201	24100
698.243	24563
698.279	24981
698.284	25114
698.325	25661
698.367	26231
698.399	26603
698.408	26719
698.449	26906
698.491	27135
698.518	27210
698.532	27431
698.573	27845
698.614	28305
698.638	28478
698.656	28481
698.697	28331
698.738	28152
698.757	28002
698.779	27972
698.820	27757
698.862	27549
698.877	27394
698.903	27459
698.944	27455
698.985	27438
698.996	27363
699.026	27380
699.067	27299
699.116	27130
699.235	26543
699.354	26716
699.474	24743
699.593	25235
699.713	26246
699.832	25620
699.951	26507
700.070	26495
700.190	24381
700.309	24406
700.428	22941
700.547	22983
700.667	23656
700.786	22887
700.905	22099
701.024	22938
701.143	20977
701.262	23300
701.381	22892
701.500	23426
701.619	22738
701.738	23447
701.857	22771
701.976	21037
702.095	22479
702.214	23664
702.333	21764
702.452	23609
702.571	23004
702.690	22569
702.809	23277
702.928	21701
703.047	20314
703.165	21926
703.284	21216
703.403	19764
703.522	20038
703.640	19514
703.759	19538
703.878	19685
703.997	20494
704.115	19291
704.234	18276
704.353	19441
704.471	19377
704.590	18823
704.708	17226
704.827	18337
704.946	18379
705.064	18920
705.183	17862
705.301	17281
705.420	17934
705.538	16893
705.656	15843
705.775	15869
705.893	16989
706.012	16344
706.130	15990
706.249	17406
706.367	15698
706.485	16617
706.604	15638
706.722	14979
706.840	17013
706.958	17427
707.077	14922
707.195	14413
707.313	14887
707.431	14884
707.549	13912
707.668	13336
707.786	15977
707.904	13636
708.022	14998
708.140	13773
708.258	13004
708.376	14567
708.494	13442
708.612	14785
708.730	14607
708.848	13881
708.966	14036
709.084	14097
709.202	13948
709.320	12933
709.438	12722
709.556	13243
709.674	12249
709.791	12436
709.909	12574
710.027	13324
710.145	12777
710.263	12359
710.380	12865
710.498	10992
710.616	11378
710.733	11388
710.851	11332
710.969	10917
711.086	10847
711.204	12243
711.322	11362
711.439	11409
711.557	10837
711.674	10480
711.792	9957
711.909	10825
712.027	10935
712.144	10773
712.262	10998
712.379	10984
712.497	10551
712.614	9971
712.732	11323
712.849	10223
712.966	10199
713.084	10785
713.201	9495
713.318	11081
713.436	11982
713.553	10261
713.670	10985
713.787	12015
713.905	9627
714.022	11602
714.139	11530
714.256	13744
714.373	18794
714.490	35124
714.608	91615
714.725	345726
714.842	264269
714.959	29461
715.076	14952
715.193	12325
715.310	12157
715.427	9810
715.544	9806
715.661	9554
715.778	9140
715.895	10542
716.011	9201
716.128	9440
716.245	8978
716.362	9323
716.479	8082
716.596	8491
716.713	8175
716.829	7377
716.946	7660
717.063	8128
717.180	7987
717.296	8172
717.413	8009
717.530	7548
717.646	6662
717.763	7996
717.880	6804
717.996	6898
718.113	7523
718.229	7261
718.346	6810
718.462	5896
718.579	7341
718.695	7252
718.812	7680
718.928	7570
719.045	7258
719.161	6567
719.277	7774
719.394	8657
719.510	7393
719.626	7971
719.743	10404
719.859	15586
719.975	32513
720.092	130315
720.208	232438
720.324	26409
720.440	10134
720.557	7980
720.673	7865
720.789	7697
720.905	6712
721.021	6941
721.137	6260
721.253	6928
721.369	5764
721.486	6357
721.602	6574
721.718	6289
721.834	5808
721.950	6383
722.066	5584
722.181	5497
722.297	6027
722.413	5349
722.529	7088
722.645	5759
722.761	6202
722.877	5828
722.993	6949
723.108	8412
723.224	5714
723.340	6573
723.456	6102
723.571	5120
723.687	4957
723.803	5314
723.918	4999
724.034	4915
724.150	5558
724.265	6153
724.381	5105
724.497	5063
724.612	5191
724.728	4831
724.843	4822
724.959	5299
725.074	6319
725.190	5436
725.305	5441
725.421	4542
725.536	5642
725.651	5612
725.767	5192
725.882	6164
725.997	4508
726.113	6032
726.228	5126
726.343	4884
726.459	5805
726.574	4638
726.689	4686
726.804	5706
726.920	4468
727.035	4839
727.150	4894
727.265	5216
727.380	4291
727.495	4872
727.610	4576
727.725	4570
727.841	5280
727.956	4985
728.071	4106
728.186	5109
728.301	3900
728.416	4634
728.531	4944
728.645	5820
728.760	5884
728.875	4874
728.990	4663
729.105	4154
729.220	4276
729.335	4419
729.449	4302
729.564	5417
729.679	5088
729.794	5272
729.908	4882
730.023	4868
730.138	5190
730.253	5147
730.367	3698
730.482	4815
730.596	4960
730.711	5561
730.826	8467
730.940	7470
731.055	6797
731.169	6250
731.284	6942
731.398	6642
731.513	7423
731.627	8204
731.742	10636
731.856	13232
731.970	12696
732.085	14419
732.199	19693
732.313	33240
732.428	86425
732.542	246924
732.656	119184
732.771	26103
732.885	17146
732.999	17721
733.113	18863
733.227	18603
733.342	16822
733.456	16422
733.570	15178
733.684	14983
733.798	14172
733.912	14477
734.026	15441
734.140	14954
734.254	13960
734.368	14007
734.482	14698
734.596	14719
734.710	12917
734.824	13974
734.938	12840
735.052	14505
735.166	13858
735.280	13994
735.393	12210
735.507	13211
735.621	12998
735.735	12233
735.849	13707
735.962	11959
736.076	12409
736.190	11333
736.303	11734
736.417	12845
736.531	11342
736.644	12540
736.758	11613
736.872	11428
736.985	12238
737.099	10539
737.212	11304
737.326	10850
737.439	11983
737.553	10038
737.666	11808
737.780	10786
737.893	11499
738.007	10299
738.120	10866
738.233	9433
738.347	10240
738.460	9161
738.573	12350
738.687	9480
738.800	8953
738.913	10446
739.026	9265
739.140	9994
739.253	9920
739.366	9452
739.479	8856
739.592	9464
739.705	8222
739.818	11458
739.932	8436
740.045	9654
740.158	8792
740.271	10121
740.384	8421
740.497	8513
740.610	9748
740.723	8298
740.836	8799
740.949	9301
741.062	9819
741.174	8480
741.287	9316
741.400	9138
741.513	7289
741.626	8559
741.739	7832
741.851	8075
741.964	8510
742.077	7654
742.189	7300
742.302	8674
742.415	7426
742.527	7730
742.640	8076
742.753	7699
742.865	8161
742.978	7109
743.090	7141
743.203	8179
743.316	7068
743.428	7177
743.541	8213
743.653	6339
743.766	6581
743.878	8065
743.990	6311
744.103	8011
744.215	7736
744.327	6454
744.440	9139
744.552	6590
744.664	6293
744.777	8520
744.889	6410
745.001	7182
745.113	7702
745.226	6047
745.338	5765
745.450	7769
745.562	5750
745.674	5894
745.786	7559
745.898	7698
746.010	6304
746.122	6791
746.234	6886
746.347	7196
746.459	7120
746.570	5102
746.682	6791
746.794	7693
746.906	5784
747.018	6246
747.130	6305
747.242	4985
747.354	5954
747.466	7109
747.577	5242
747.689	6841
747.801	5827
747.913	5829
748.024	4963
748.136	6063
748.248	5582
748.359	5484
748.471	6784
748.583	4266
748.694	4948
748.806	6096
748.918	4893
749.029	5772
749.141	4953
749.252	6303
749.364	5052
749.475	5107
749.587	3806
749.698	4639
749.809	5542
749.921	5102
750.032	4967
750.144	4057
750.255	4954
750.366	5823
750.478	4610
750.589	5558
750.700	4697
750.811	5325
750.923	4181
751.034	4612
751.145	6292
751.256	5000
751.367	4149
751.479	4410
751.590	4595
751.701	5222
751.812	3672
751.923	4064
752.034	5463
752.145	4233
752.256	4159
752.367	4578
752.478	4300
752.589	4367
752.700	4352
752.811	3926
752.922	4023
753.032	4346
753.143	4404
753.254	3495
753.365	5337
753.476	4453
753.586	4971
753.697	4579
753.808	4781
753.919	4052
754.029	4643
754.140	3663
754.251	4414
754.361	3797
754.472	5121
754.582	4263
754.693	3559
754.804	4379
754.914	3421
755.025	4146
755.135	4362
755.246	4180
755.356	3824
755.466	4098
755.577	4190
755.687	4144
755.798	3243
755.908	3533
756.018	4824
756.129	4226
756.239	4448
756.349	4171
756.460	4206
756.570	4746
756.680	3562
756.790	4668
756.900	4196
757.011	3433
757.121	3442
757.231	3194
757.341	3668
757.451	3197
757.561	2687
757.671	3555
757.781	3344
757.891	3894
758.001	2940
758.111	4452
758.221	4223
758.331	4291
758.441	4132
758.551	3829
758.661	4209
758.771	5213
758.880	3706
758.990	3358
759.100	3105
759.210	3862
759.320	3450
759.429	3417
759.539	4768
759.649	4122
759.758	5271
759.868	5703
759.978	4821
760.087	6317
760.197	5803
760.307	4779
760.416	4359
760.526	3856
760.635	5635
760.745	6627
760.854	4934
760.964	6690
761.073	5858
761.182	6579
761.292	4673
761.401	4337
761.511	4088
761.620	3766
761.729	3700
761.839	2732
761.948	3510
762.057	2596
762.166	3810
762.276	2843
762.385	4123
762.494	3690
762.603	3284
762.712	3886
762.822	4074
762.931	3907
763.040	3154
763.149	3734
763.258	2818
763.367	4281
763.476	3157
763.585	3481
763.694	2547
763.803	2689
763.912	3105
764.021	3899
764.130	2763
764.238	4338
764.347	3942
764.456	3946
764.565	3474
764.674	4297
764.783	2779
764.891	4338
765.000	5415
765.109	5279
765.217	5026
765.326	6899
765.435	6198
765.543	8212
765.652	9155
765.761	10505
765.869	14595
765.978	21831
766.086	37130
766.195	68326
766.303	145526
766.412	228022
766.520	184132
766.629	105529
766.737	48471
766.846	27723
766.954	18712
767.062	14849
767.171	10383
767.279	10026
767.387	7914
767.496	7456
767.604	5938
767.712	5738
767.820	5369
767.928	5750
768.037	4048
768.145	4451
768.253	5429
768.361	3724
768.469	4681
768.577	4065
768.685	5375
768.793	5856
768.901	4526
769.009	6533
769.117	6433
769.225	7443
769.333	10541
769.441	15696
769.549	26290
769.657	59468
769.765	147427
769.873	182577
769.981	106662
770.088	38612
770.196	20763
770.304	15048
770.412	10896
770.519	9472
770.627	7623
770.735	6314
770.842	5534
770.950	6474
771.058	5479
771.165	7297
771.273	8087
771.380	7728
771.488	10955
771.595	11067
771.703	9376
771.810	8635
771.918	8659
772.025	11165
772.133	12409
772.240	11047
772.348	14534
772.455	13505
772.562	11764
772.670	10950
772.777	12070
772.884	11457
772.991	10395
773.099	10792
773.206	10136
773.313	10869
773.420	10775
773.528	10707
773.635	9499
773.742	11235
773.849	9722
773.956	11108
774.063	8988
774.170	10302
774.277	9894
774.384	8993
774.491	9376
774.598	9454
774.705	9043
774.812	9158
774.919	8877
775.026	10176
775.133	8895
775.239	9445
775.346	8091
775.453	8718
775.560	7701
775.667	9454
775.773	8029
775.880	9253
775.987	8110
776.093	9094
776.200	10369
776.307	6557
776.413	8333
776.520	9838
776.627	7594
776.733	7515
776.840	5514
776.946	11732
777.053	8374
777.159	9052
777.266	6609
777.372	8689
777.478	8965
777.585	8868
777.691	6577
777.798	8255
777.904	7468
778.010	6367
778.117	7567
778.223	7844
778.329	6176
778.435	6089
778.542	7682
778.648	6613
778.754	5979
778.860	6765
778.966	6381
779.072	6710
779.178	6844
779.284	6554
779.391	5889
779.497	6000
779.603	8449
779.708	6009
779.815	6535
779.920	9975
780.026	10978
780.132	7656
780.238	5592
780.344	5822
780.450	7960
780.556	5470
780.661	4623
780.767	6306
780.873	3850
780.979	5827
781.085	6236
781.190	5517
781.296	6184
781.402	5789
781.507	5635
781.613	4965
781.719	5313
781.824	6736
781.930	6265
782.035	5438
782.141	6311
782.246	3940
782.352	5061
782.457	5219
782.563	5153
782.668	5894
782.773	5368
782.879	3988
782.984	5719
783.090	5658
783.195	5366
783.300	5916
783.405	4272
783.511	4057
783.616	4763
783.721	4943
783.826	4324
783.932	4463
784.037	5102
784.142	5115
784.247	3850
784.352	6197
784.457	3827
784.562	5371
784.667	5395
784.772	3718
784.877	3241
784.982	5133
785.087	3983
785.192	3963
785.297	3839
785.402	5280
785.507	3742
785.611	4683
785.716	2910
785.821	4549
785.926	4187
786.031	4087
786.135	4393
786.240	4050
786.345	2325
786.450	3861
786.554	4019
786.659	3673
786.763	2716
786.868	4387
786.973	4630
787.077	3689
787.182	3072
787.286	4224
787.391	5311
787.495	2808
787.600	3312
787.704	3679
787.809	3967
787.913	4220
788.017	3932
788.122	3933
788.226	3582
788.330	2551
788.435	3384
788.539	3787
788.643	2412
788.747	1346
788.852	3709
788.956	3470
789.060	3531
789.164	3432
789.268	2651
789.372	4123
789.476	4037
789.580	2282
789.684	2308
789.788	3990
789.892	2926
789.996	2594
790.100	3155
790.204	3650
790.308	4261
790.412	2320
790.516	2444
790.620	2605
790.724	3289
790.828	2567
790.931	1235
791.035	4140
791.139	2006
791.242	1806
791.346	2919
791.450	3069
791.554	1865
791.657	764
791.761	2903
791.864	3437
791.968	3569
792.072	3445
792.175	2434
792.279	2078
792.382	2211
792.486	2144
792.589	1783
792.693	2719
792.796	1470
792.899	3306
793.003	3521
793.106	1429
793.209	2454
793.313	3461
793.416	-259
793.519	2803
793.623	3613
793.726	2651
793.829	1809
793.932	1341
794.035	1102
794.138	4406
794.242	3559
794.345	1578
794.448	1507
794.551	1685
794.654	4586
794.757	6022
794.860	1763
794.963	2962
795.066	1568
795.169	3465
795.272	2136
795.375	2793
795.477	1698
795.580	1924
795.683	1120
795.786	2663
795.889	1168
795.991	2536
796.094	2552
796.197	810
796.300	3849
796.402	2669
796.505	1240
796.608	1174
796.710	1599
796.813	2900
796.915	2308
797.018	2373
797.120	2256
797.223	1320
797.326	3896
797.428	924
797.530	1514
797.633	1547
797.735	2701
797.838	1806
797.940	2757
798.042	1421
798.145	1714
798.247	1786
798.349	693
798.452	2418
798.554	1793
798.656	1931
798.758	3594
798.860	1409
798.962	1400
799.065	1044
799.167	-124
799.269	2642
799.371	2396
799.473	3236
799.575	1821
799.677	922
799.779	2342
799.881	-289
799.983	3139
800.085	1544
800.187	1686
800.289	-154
800.390	1304
800.492	1929
800.594	2354
800.696	1828
800.798	1721
800.899	812
801.001	2028
801.103	2556
801.205	1637
801.306	1932
801.408	833
801.509	2032
801.611	2184
801.713	2178
801.814	773
801.916	1138
802.017	1392
802.119	804
802.220	1455
802.322	-432
802.423	2521
802.525	503
802.626	1058
802.727	2049
802.829	1966
802.930	-798
803.031	1858
803.133	620
803.234	1760
803.335	2345
803.436	361
803.538	1464
803.639	207
803.740	1815
803.841	388
803.942	2025
804.043	2437
804.144	170
804.245	386
804.346	203
804.447	-435
804.548	1280
804.649	2465
804.750	1034
804.851	290
804.952	480
805.053	605
805.154	416
805.255	2039
805.355	1402
805.456	466
805.557	687
805.658	259
805.758	1776
805.859	1590
805.960	1734
806.061	542
806.161	538
806.262	-12
806.362	742
806.463	339
806.564	1526
806.664	1315
806.765	492
806.865	562
806.966	85
807.066	-270
807.166	2531
807.267	1769
807.367	724
807.468	1589
807.568	-197
807.668	1794
807.769	2830
807.869	1553
807.969	1186
808.069	727
808.170	1013
808.270	822
808.370	1242
808.470	1136
808.570	440
808.670	991
808.770	2086
808.870	807
808.970	1903
809.070	380
809.170	270
809.271	1800
809.370	721
809.470	1988
809.570	-14
809.670	-60
809.770	1054
809.870	1288
809.970	695
810.070	778
810.169	1574
810.269	-29
810.369	1982
810.469	1100
810.568	545
810.668	595
810.768	638
810.867	709
810.967	358
811.066	945
811.166	354
811.265	1852
811.365	407
811.464	265
811.564	1551
811.663	1880
811.763	-190
811.862	1713
811.962	2004
812.061	1214
812.160	-191
812.260	-58
812.359	1356
812.458	288
812.557	1918
812.657	1470
812.756	1162
812.855	827
812.954	1446
813.053	1256
813.153	1293
813.252	317
813.351	939
813.450	1224
813.549	920
813.648	909
813.747	1437
813.846	1599
813.945	519
814.044	996
814.143	894
814.242	1874
814.341	702
814.439	1554
814.538	1108
814.637	2009
814.736	1754
814.835	2284
814.933	862
815.032	2487
815.131	4224
815.229	7076
815.328	10496
815.427	6635
815.525	6507
815.624	6295
815.722	5705
815.821	6232
815.919	6901
816.018	5407
816.116	7836
816.215	5705
816.313	6581
816.412	8529
816.510	7960
816.609	9396
816.707	10072
816.805	8683
816.904	8098
817.002	8218
817.100	8251
817.198	9003
817.296	6922
817.395	8392
817.493	8827
817.591	6915
817.689	7287
817.787	7345
817.885	7714
817.983	6553
818.081	9444
818.179	9032
818.277	13434
818.375	10102
818.473	7998
818.571	7007
818.669	8105
818.767	8629
818.865	7091
818.963	5773
819.061	7162
819.158	6878
819.256	10738
819.354	9425
819.452	16554
819.549	10073
819.647	9062
819.745	6259
819.842	5641
819.940	6930
820.038	4839
820.135	5618
820.233	7599
820.330	6142
820.428	5109
820.525	7164
820.623	6248
820.720	4605
820.818	6061
820.915	6431
821.012	6326
821.110	4976
821.207	6825
821.304	4981
821.402	6127
821.499	7603
821.596	5272
821.693	5245
821.791	5733
821.888	5513
821.985	6638
822.082	4278
822.179	6932
822.276	6195
822.373	3991
822.470	4867
822.567	6025
822.664	4803
822.761	6322
822.858	4312
822.955	5553
823.052	4799
823.149	5309
823.246	5657
823.343	4426
823.440	4637
823.536	5409
823.633	4490
823.730	4119
823.827	4940
823.923	5104
824.020	4525
824.117	5273
824.213	4823
824.310	4917
824.407	2785
824.503	6353
824.600	3981
824.696	3824
824.793	6266
824.889	5557
824.986	4375
825.082	2028
825.179	3429
825.275	5999
825.371	5080
825.468	3869
825.564	1684
825.660	5930
825.757	6416
825.853	5664
825.949	2441
826.045	3240
826.142	3378
826.238	3717
826.334	4501
826.430	3618
826.526	2848
826.622	3050
826.718	5040
826.814	5463
826.910	4331
827.006	2232
827.102	1839
827.198	4944
827.294	4478
827.390	4748
827.486	3130
827.582	1934
827.678	2641
827.774	4990
827.869	2541
827.965	3758
828.061	2919
828.157	4828
828.252	4044
828.348	2610
828.444	3227
828.539	2656
828.635	3621
828.731	4201
828.826	1762
828.922	3325
829.017	4071
829.113	4022
829.208	1738
829.304	2139
829.399	4586
829.495	3615
829.590	3410
829.685	3566
829.781	3423
829.876	5010
829.971	721
830.066	1519
830.162	3175
830.257	4723
830.352	2854
830.447	2191
830.543	2517
830.638	2478
830.733	4675
830.828	2810
830.923	3378
831.018	2996
831.113	4222
831.208	2030
831.303	1803
831.398	2314
831.493	2432
831.588	5125
831.683	2065
831.778	1614
831.873	2294
831.967	4404
832.062	2709
832.157	2232
832.252	2693
832.346	2828
832.441	3807
832.536	2674
832.631	3434
832.725	2012
832.820	2254
832.914	2179
833.009	1776
833.104	2009
833.198	2022
833.293	2194
833.387	3229
833.482	3102
833.576	1752
833.670	2980
833.765	2611
833.859	2936
833.954	2949
834.048	2629
834.142	2487
834.237	490
834.331	1865
834.425	3241
834.519	1795
834.613	2253
834.708	1838
834.802	2513
834.896	2022
834.990	2185
835.084	2388
835.178	889
835.272	1573
835.366	2982
835.460	3794
835.554	1302
835.648	1210
835.742	227
835.836	1823
835.930	768
836.024	2311
836.117	2644
836.211	975
836.305	1345
836.399	1568
836.493	1076
836.586	3129
836.680	2064
836.774	1707
836.867	1598
836.961	11
837.055	1527
837.148	1255
837.242	1477
837.335	1354
837.429	1212
837.522	669
837.616	269
837.709	1744
837.803	1053
837.896	2471
837.989	1646
838.083	1470
838.176	775
838.269	69
838.363	2004
838.456	974
838.549	2203
838.642	762
838.735	1524
838.829	1893
838.922	1823
839.015	2225
839.108	380
839.201	1941
839.294	2246
839.387	1051
839.480	421
839.573	236
839.666	1335
839.759	574
839.852	140
839.945	1864
840.038	1126
840.131	329
840.223	688
840.316	1875
840.409	2016
840.502	1385
840.594	2686
840.687	-1154
840.780	1146
840.873	550
840.965	1023
841.058	1587
841.150	1791
841.243	-370
841.336	1261
841.428	701
841.521	752
841.613	1352
841.706	1432
841.798	1201
841.890	2094
841.983	697
842.075	1110
842.167	777
842.260	1806
842.352	1917
842.444	1571
842.537	565
842.629	653
842.721	1056
842.813	1049
842.905	-548
842.997	1315
843.090	1263
843.182	821
843.274	63
843.366	1002
843.458	848
843.550	1638
843.642	885
843.734	1397
843.826	729
843.918	972
844.009	1679
844.101	707
844.193	1017
844.285	949
844.377	1123
844.469	1324
844.560	-109
844.652	-58
844.744	1033
844.835	374
844.927	891
845.019	1063
845.110	692
845.202	1645
845.293	556
845.385	101
845.476	1295
845.568	1333
845.659	497
845.751	1341
845.842	413
845.934	-45
846.025	480
846.116	520
846.208	1407
846.299	324
846.390	762
846.482	1327
846.573	-18
846.664	1415
846.755	215
846.846	1747
846.937	-1071
847.029	-68
847.120	16
847.211	646
847.302	1425
847.393	551
847.484	964
847.575	47
847.666	-8
847.757	660
847.847	882
847.938	1884
848.029	391
848.120	151
848.211	-152
848.302	38
848.392	-208
848.483	1934
848.574	88
848.664	893
848.755	848
848.846	523
848.936	-220
849.027	985
849.118	661
849.208	503
849.299	1097
849.389	2851
849.480	4946
849.570	9720
849.661	19959
849.751	30586
849.841	9259
849.932	1926
850.022	905
850.112	783
850.203	708
850.293	369
850.383	79
850.474	272
850.564	140
850.654	199
850.744	674
850.834	839
850.924	663
851.014	1497
851.104	336
851.194	897
851.284	606
851.374	874
851.464	99
851.554	537
851.644	808
851.734	886
851.824	1303
851.914	-115
852.004	875
852.094	176
852.183	434
852.273	-14
852.363	376
852.452	342
852.542	897
852.632	8
852.721	-176
852.811	1147
852.901	1344
852.990	1029
853.080	1027
853.169	1502
853.259	593
853.348	1084
853.438	1028
853.527	1773
853.617	2744
853.706	4697
853.795	10438
853.885	22137
853.974	39391
854.063	72369
854.152	90939
854.242	33465
854.331	8648
854.420	4556
854.509	3595
854.598	2530
854.687	670
854.777	1660
854.866	598
854.955	1489
855.044	-104
855.133	710
855.222	130
855.311	193
855.400	884
855.488	938
855.577	236
855.666	191
855.755	727
855.844	1071
855.933	16
856.021	1537
856.110	44
856.199	-278
856.288	-627
856.376	85
856.465	442
856.554	-390
856.642	230
856.731	755
856.819	-832
856.908	413
856.996	168
857.085	-1032
857.173	-389
857.262	845
857.350	-456
857.438	-644
857.527	3
857.615	191
857.703	637
857.792	891
857.880	-55
857.968	-6
858.056	121
858.145	238
858.233	-40
858.321	15
858.409	350
858.497	363
858.585	-259
858.673	639
858.761	300
858.849	-85
858.937	-327
859.025	646
859.113	880
859.201	-577
859.289	758
859.377	535
859.465	858
859.552	13
859.640	-181
859.728	214
859.816	112
859.903	-53
859.991	138
860.079	563
860.166	-276
860.254	-418
860.342	482
860.429	-31
860.517	-260
860.604	95
860.692	-125
860.779	256
860.867	18
860.954	-538
861.042	927
861.129	1180
861.216	768
861.304	719
861.391	249
861.478	1609
861.565	688
861.653	120
861.740	-963
861.827	-256
861.914	654
862.001	349
862.089	49
862.176	604
862.263	355
862.350	-61
862.437	276
862.524	-161
862.611	338
862.698	570
862.785	1255
862.871	1483
862.958	401
863.045	230
863.132	754
863.219	98
863.306	-71
863.392	13
863.479	933
863.566	291
863.652	1312
863.739	-12
863.826	748
863.912	408
863.999	-17
864.086	1094
864.172	900
864.259	1264
864.345	264
864.432	1428
864.518	411
864.604	1992
864.691	846
864.777	2251
864.863	2943
864.950	3883
865.036	5793
865.122	10377
865.209	10497
865.295	8407
865.381	7865
865.467	7524
865.553	8179
865.639	9427
865.726	11123
865.812	17180
865.898	26429
865.984	37104
866.070	63772
866.156	58311
866.242	20914
866.328	11102
866.414	7991
866.499	7268
866.585	7312
866.671	6590
866.757	6757
866.843	7567
866.928	6688
867.014	7226
867.100	6952
867.186	6646
867.271	6194
867.357	6681
867.442	6316
867.528	5612
867.614	5799
867.699	6913
867.785	5790
867.870	6671
867.956	5776
868.041	6698
868.127	5768
868.212	5914
868.297	5858
868.383	6252
868.468	5776
868.553	6545
868.639	5165
868.724	5527
868.809	5344
868.894	4893
868.979	4809
869.065	5288
869.150	3832
869.235	4925
869.320	4892
869.405	4898
869.490	6070
869.575	4895
869.660	4534
869.745	6088
869.830	6025
869.915	4556
870.000	4377
870.085	5068
870.169	6092
870.254	5812
870.339	3544
870.424	3535
870.509	4969
870.593	5925
870.678	5295
870.763	4486
870.847	3964
870.932	5344
871.016	4905
871.101	3314
871.186	4694
871.270	6008
871.355	3339
871.439	3757
871.523	5096
871.608	3148
871.692	3226
871.777	5474
871.861	5025
871.945	4241
872.030	4170
872.114	3185
872.198	3776
872.282	3913
872.367	3375
872.451	4005
872.535	3878
872.619	4019
872.703	3535
872.787	4745
872.871	4377
872.955	3342
873.039	2290
873.123	3777
873.207	5147
873.291	2837
873.375	3124
873.459	5547
873.543	3909
873.627	3288
873.711	2641
873.794	3757
873.878	2882
873.962	2202
874.045	2963
874.129	3513
874.137	3500
874.213	3372
874.245	3065
874.296	2574
874.352	2762
874.380	2853
874.460	3005
874.464	3012
874.547	2483
874.568	2992
874.631	4484
874.676	3399
874.714	2494
874.784	4225
874.798	4577
874.881	3464
874.892	3405
874.965	2968
874.999	3140
875.048	3373
875.107	3265
875.131	3214
875.215	1889
875.215	1889
875.298	2288
875.323	2537
875.381	3147
875.430	3871
875.465	4378
875.538	2959
875.548	2756
875.631	2503
875.646	2289
875.714	1360
875.753	1471
875.798	1563
875.861	2359
875.881	2629
875.964	2673
875.968	2633
876.047	1760
876.076	2197
876.130	3120
876.183	3149
876.213	3164
876.291	3622
876.296	3642
876.379	2150
876.398	2291
876.462	2756
876.506	2588
876.545	2490
876.613	2086
876.628	2014
876.711	2186
876.721	2274
876.794	2839
876.828	2944
876.877	3056
876.935	2286
876.960	2003
877.043	1596
877.043	1602
877.125	2711
877.150	2756
877.208	2900
877.258	2413
877.291	2037
877.365	1317
877.374	1246
877.456	1513
877.472	1532
877.539	1584
877.579	2411
877.622	3320
877.687	2636
877.704	2417
877.787	2131
877.794	2135
877.869	2152
877.901	2337
877.952	2546
878.008	1394
878.034	894
878.115	833
878.117	837
878.199	1353
878.222	1652
878.282	2373
878.329	2591
878.364	2654
878.437	2264
878.447	2226
878.529	1330
878.544	1379
878.611	1386
878.651	1198
878.694	1328
878.758	2179
878.776	2312
878.858	2040
878.865	1993
878.941	1511
878.972	1440
879.023	1229
879.078	1406
879.105	1532
879.185	1973
879.187	1987
879.269	1967
879.292	2007
879.351	1697
879.399	1324
879.433	1218
879.506	1870
879.516	1954
879.598	2174
879.613	2001
879.680	1151
879.720	1563
879.762	1935
879.827	937
879.844	738
879.926	1762
879.933	1809
880.007	2130
880.040	1785
880.089	1243
880.147	2236
880.171	2667
880.253	3284
880.254	3289
880.335	3914
880.360	4303
880.417	5402
880.467	7090
880.499	8086
880.574	8680
880.580	8576
880.662	4007
880.680	3376
880.744	1946
880.787	1484
880.825	1235
880.893	1652
880.907	1693
880.989	1171
881.000	1196
881.070	1848
881.106	1856
881.152	1544
881.213	1498
881.233	1534
881.315	1123
881.319	1144
881.396	1700
881.426	1654
881.478	1413
881.532	1874
881.559	2048
881.639	678
881.641	648
881.722	912
881.745	989
881.803	1588
881.852	1499
881.885	1082
881.958	755
881.966	788
882.047	1270
882.064	1308
882.129	1138
882.171	935
882.210	909
882.277	900
882.291	874
882.372	1810
882.383	1818
882.454	1638
882.489	1289
882.535	1143
882.596	1534
882.616	1569
882.697	1454
882.702	1458
882.778	1512
882.808	1349
882.859	980
882.914	1070
882.940	1225
883.020	1146
883.021	1143
883.102	1302
883.127	1337
883.183	1637
883.233	1313
883.264	866
883.339	426
883.345	434
883.426	362
883.445	451
883.507	819
883.551	1144
883.587	1349
883.657	1379
883.668	1358
883.749	1226
883.763	1217
883.830	1370
883.869	1399
883.910	1115
883.975	875
883.991	981
884.072	1355
884.081	1396
884.152	1342
884.187	1321
884.233	1392
884.292	1393
884.314	1233
884.394	331
884.398	299
884.475	135
884.504	142
884.555	340
884.610	761
884.636	971
884.716	1096
884.716	1098
884.797	1724
884.821	1812
884.877	1689
884.927	1387
884.958	947
885.033	93
885.038	125
885.118	718
885.139	887
885.199	598
885.244	290
885.279	500
885.350	1533
885.359	1565
885.439	1160
885.456	1018
885.520	571
885.561	439
885.600	447
885.667	882
885.680	1060
885.760	1457
885.773	1547
885.840	829
885.878	541
885.920	565
885.984	623
886.000	675
886.080	795
886.089	794
886.160	1379
886.195	1761
886.240	1496
886.300	797
886.320	835
886.400	1627
886.406	1650
886.480	1454
886.511	1493
886.560	1361
886.616	880
886.640	659
886.720	110
886.722	99
886.800	934
886.827	1258
886.879	1295
886.932	1172
886.959	1291
887.038	1764
887.039	1757
887.119	813
887.143	574
887.198	1196
887.248	1608
887.278	1339
887.354	771
887.358	790
887.437	895
887.459	1045
887.517	1288
887.564	1220
887.596	1007
887.669	724
887.676	711
887.755	652
887.774	567
887.835	1040
887.880	1560
887.914	1417
887.985	772
887.994	804
888.073	1438
888.090	1536
888.153	1427
888.195	1291
888.232	1082
888.300	790
888.311	797
888.391	799
888.405	804
888.470	442
888.510	222
888.549	316
888.615	577
888.628	737
888.708	1531
888.720	1662
888.787	948
888.825	533
888.866	502
888.930	512
888.945	508
889.024	507
889.035	499
889.103	1492
889.140	2031
889.182	1659
889.245	1140
889.261	1138
889.340	1099
889.349	1099
889.419	745
889.454	551
889.498	506
889.559	482
889.577	493
889.656	542
889.664	552
889.735	1259
889.768	1594
889.814	1580
889.873	1559
889.978	539
890.083	474
890.187	760
890.292	841
890.397	1519
890.501	674
890.606	198
890.710	920
890.815	1495
890.919	348
891.024	1051
891.128	230
891.233	1081
891.337	1493
891.442	1183
891.546	772
891.650	1062
891.755	575
891.859	2123
891.963	838
892.068	1073
892.172	664
892.276	-309
892.380	898
892.484	1077
892.589	856
892.693	189
892.797	-54
892.901	1019
893.005	15
893.109	1575
893.213	1416
893.317	1599
893.421	1259
893.525	617
893.629	-12
893.733	851
893.837	1091
893.941	1043
894.045	1200
894.148	139
894.252	182
894.356	1510
894.460	1175
894.564	387
894.667	589
894.771	-133
894.875	453
894.978	751
895.082	681
895.186	1081
895.289	376
895.393	1121
895.496	1319
895.600	790
895.703	672
895.807	433
895.910	1109
896.014	290
896.117	488
896.221	853
896.324	1275
896.427	1024
896.531	239
896.634	384
896.737	1136
896.840	-3
896.944	329
897.047	1240
897.150	1060
897.253	1082
897.356	474
897.460	702
897.563	529
897.666	842
897.769	778
897.872	1028
897.975	147
898.078	522
898.181	1289
898.284	140
898.387	1247
898.490	438
898.593	1147
898.695	360
898.798	170
898.901	563
899.004	238
899.107	1264
899.209	437
899.312	1406
899.415	-21
899.518	893
899.620	-50
899.723	752
899.826	983
899.928	484
900.031	-80
900.133	1243
900.236	1541
900.338	-10
900.441	-251
900.543	383
900.646	-145
900.748	-7
900.851	743
900.953	503
901.055	-72
901.158	550
901.260	94
901.362	140
901.465	340
901.567	938
901.669	533
901.771	186
901.873	566
901.976	529
902.078	866
902.180	656
902.282	-102
902.384	778
902.486	1071
902.588	180
902.690	368
902.792	194
902.894	429
902.996	1016
903.098	-34
903.200	-352
903.302	-217
903.404	161
903.505	549
903.607	934
903.709	1006
903.811	272
903.913	-185
904.014	506
904.116	42
904.218	750
904.319	616
904.421	804
904.523	391
904.624	758
904.726	-55
904.827	562
904.929	862
905.030	649
905.132	1239
905.233	268
905.335	-4
905.436	477
905.537	39
905.639	435
905.740	283
905.841	1559
905.943	1155
906.044	653
906.145	573
906.247	622
906.348	-198
906.449	349
906.550	666
906.651	574
906.752	357
906.854	138
906.955	-505
907.056	495
907.157	-310
907.258	954
907.359	-57
907.460	132
907.561	-157
907.662	-252
907.762	559
907.863	181
907.964	286
908.065	608
908.166	152
908.267	-402
908.367	-230
908.468	293
908.569	229
908.670	242
908.770	320
908.871	490
908.971	84
909.072	626
909.173	-403
909.273	424
909.374	312
909.474	-715
909.575	594
909.675	164
909.776	121
909.876	-213
909.977	667
910.077	618
910.177	-14
910.278	715
910.378	-419
910.478	-100
910.579	156
910.679	359
910.779	-39
910.879	1012
910.980	7
911.080	747
911.180	-422
911.280	206
911.380	521
911.480	176
911.580	-88
911.680	130
911.780	-94
911.880	566
911.980	14
912.080	403
912.180	321
912.280	559
912.380	309
912.480	564
912.580	-141
912.679	346
912.779	553
912.879	102
912.979	-407
913.078	22
913.178	-350
913.278	530
913.377	-128
913.477	101
913.577	-272
913.676	1424
913.776	16
913.875	239
913.975	426
914.074	-282
914.174	-2
914.273	-109
914.373	375
914.472	719
914.572	-38
914.671	-559
914.770	-354
914.870	-411
914.969	-189
915.068	337
915.167	479
915.267	531
915.366	-528
915.465	449
915.564	116
915.663	379
915.763	1162
915.862	1064
915.961	331
916.060	-1063
916.159	-452
916.258	-248
916.357	29
916.456	431
916.555	323
916.654	665
916.752	3
916.851	454
916.950	57
917.049	145
917.148	-340
917.247	825
917.345	-376
917.444	568
917.543	47
917.642	778
917.740	-29
917.839	129
917.937	893
918.036	808
918.135	106
918.233	799
918.332	32
918.430	221
918.529	118
918.627	285
918.726	1049
918.824	22
918.923	-362
919.021	389
919.119	642
919.218	124
919.316	-48
919.414	654
919.512	563
919.611	374
919.709	358
919.807	1122
919.905	929
920.003	1058
920.102	139
920.200	115
920.298	-63
920.396	672
920.494	344
920.592	-213
920.690	-111
920.788	-145
920.886	454
920.984	350
921.082	71
921.180	802
921.277	848
921.375	1196
921.473	1435
921.571	1876
921.669	621
921.766	1232
921.864	888
921.962	2113
922.060	637
922.157	796
922.255	925
922.352	1094
922.450	1461
922.548	767
922.645	1847
922.743	2570
922.840	5069
922.938	4577
923.035	3845
923.133	3793
923.230	4140
923.327	6094
923.425	5152
923.522	4849
923.619	4171
923.717	4470
923.814	4231
923.911	3897
924.008	4846
924.106	4172
924.203	3247
924.300	4396
924.397	2710
924.494	3887
924.591	3765
924.688	2782
924.786	3913
924.883	4401
924.979	3450
925.077	4058
925.173	3381
925.270	3636
925.367	3019
925.464	3769
925.561	3903
925.658	4895
925.755	3661
925.852	3942
925.948	4238
926.045	4552
926.142	4210
926.239	4493
926.335	3078
926.432	5306
926.529	4048
926.625	5030
926.722	2621
926.818	3178
926.915	3648
927.011	3916
927.108	2852
927.204	3465
927.301	2974
927.397	4180
927.494	4163
927.590	2528
927.687	2507
927.783	4552
927.879	3024
927.976	2769
928.072	3055
928.168	3387
928.264	4438
928.361	2395
928.457	3990
928.553	3074
928.649	3091
928.745	2644
928.841	2263
928.937	4102
929.033	3230
929.129	3451
929.225	2526
929.321	2641
929.417	2038
929.513	3546
929.609	2306
929.705	2224
929.801	3247
929.897	1817
929.993	2702
930.089	3110
930.184	1959
930.280	2963
930.376	3001
930.471	2330
930.567	1935
930.663	3300
930.758	1224
930.854	1874
930.950	2721
931.045	2181
931.141	2266
931.236	2916
931.332	2538
931.427	2419
931.523	3005
931.618	2580
931.714	1873
931.809	1382
931.905	2433
932.000	1545
932.095	1438
932.191	3441
932.286	2832
932.381	2135
932.476	1031
932.572	2427
932.667	1684
932.762	1881
932.857	2408
932.952	2897
933.047	2301
933.142	1693
933.237	1634
933.332	2493
933.427	2771
933.522	2413
933.617	2093
933.712	1954
933.807	2442
933.902	2785
933.997	2583
934.092	2212
934.187	1848
934.282	2030
934.376	2533
934.471	3227
934.566	1618
934.661	1619
934.755	2733
934.850	2652
934.945	2303
935.039	2053
935.134	1088
935.228	1845
935.323	2985
935.417	1406
935.512	1732
935.606	759
935.701	1566
935.795	1969
935.890	2059
935.984	1844
936.079	1107
936.173	1868
936.267	437
936.362	1287
936.456	1959
936.550	2603
936.644	2320
936.738	1086
936.833	602
936.927	1086
937.021	1596
937.115	2206
937.209	372
937.303	1724
937.397	1022
937.491	1644
937.585	2097
937.679	1410
937.773	750
937.867	1183
937.961	1118
938.055	2908
938.149	2016
938.243	441
938.337	909
938.430	1574
938.524	2555
938.618	1854
938.712	71
938.805	1449
938.899	1813
938.993	1566
939.086	1152
939.180	1340
939.274	588
939.367	1806
939.461	1352
939.554	730
939.648	1331
939.741	868
939.835	1156
939.928	1854
940.022	2130
940.115	964
940.208	1081
940.302	1801
940.395	1651
940.488	380
940.582	1394
940.675	299
940.768	701
940.861	1408
940.954	893
941.048	449
941.141	275
941.234	1257
941.327	290
941.420	1958
941.513	1250
941.606	370
941.699	1039
941.792	2014
941.885	502
941.978	1817
942.071	668
942.164	474
942.257	437
942.349	763
942.442	1015
942.535	-281
942.628	1055
942.721	712
942.813	-791
942.906	1796
942.999	1060
943.091	474
943.184	501
943.277	76
943.369	613
943.462	209
943.554	1159
943.647	812
943.739	1721
943.832	1680
943.924	-1000
944.017	386
944.109	-444
944.201	340
944.294	810
944.386	1433
944.478	393
944.571	186
944.663	154
944.755	119
944.847	1424
944.940	1001
945.032	-1094
945.124	-161
945.216	1341
945.308	772
945.400	245
945.492	962
945.584	1409
945.676	1269
945.768	910
945.860	803
945.952	54
946.044	1239
946.136	106
946.228	736
946.320	348
946.412	1109
946.503	369
946.595	1910
946.687	337
946.779	192
946.870	414
946.962	451
947.054	509
947.145	971
947.237	654
947.329	782
947.420	448
947.512	1603
947.603	303
947.695	326
947.786	102
947.878	304
947.969	853
948.061	549
948.152	-137
948.243	-262
948.335	499
948.426	-115
948.517	103
948.609	854
948.700	46
948.791	-1
948.882	176
948.973	-424
949.065	193
949.156	685
949.247	449
949.338	829
949.429	-1003
949.520	971
949.611	-713
949.702	1706
949.793	-19
949.884	225
949.975	1053
950.066	-229
950.157	-399
950.247	-63
950.338	142
950.429	-88
950.520	461
950.611	457
950.701	651
950.792	810
950.883	1344
950.973	420
951.064	-310
951.155	961
951.245	503
951.336	804
951.427	-448
951.517	1144
951.608	616
951.698	-619
951.788	-54
951.879	36
951.969	-369
952.060	-208
952.150	628
952.240	748
952.331	-799
952.421	2101
952.511	12
952.602	-293
952.692	-85
952.782	331
952.872	-449
952.962	-187
953.052	-180
953.143	-671
953.233	161
953.323	118
953.413	435
953.503	867
953.593	-272
953.683	-345
953.773	-892
953.863	-632
953.953	46
954.042	10
954.132	-878
954.222	385
954.312	-621
954.402	-169
954.492	-920
954.581	524
954.671	-812
954.761	-107
954.850	1214
954.940	-610
955.030	-679
955.119	-114
955.209	-772
955.298	596
955.388	-664
955.477	824
955.567	-528
955.656	370
955.746	-169
955.835	-598
955.925	-355
956.014	356
956.103	106
956.193	387
956.282	735
956.371	-779
956.461	497
956.550	-1139
956.639	25
956.728	-1127
956.817	224
956.906	-148
956.995	364
957.085	72
957.174	-72
957.263	-141
957.352	284
957.441	190
957.530	-746
957.619	66
957.708	149
957.796	-474
957.885	-121
957.974	143
958.063	444
958.152	-972
958.241	87
958.329	431
958.418	-338
958.507	-656
958.596	400
958.684	-830
958.773	461
958.861	-521
958.950	-889
959.039	172
959.127	-494
959.216	361
959.304	-664
959.393	-174
959.481	-899
959.570	-198
959.658	-515
959.746	-678
959.835	267
959.923	-288
960.011	-1062
960.100	259
960.188	-552
960.276	-515
960.365	-356
960.453	-17
960.541	-1397
960.629	264
960.717	-1027
960.805	-977
960.893	-215
960.981	-397
961.069	303
961.158	20
961.245	-166
961.333	884
961.421	-912
961.509	-788
961.597	485
961.685	-17
961.773	-167
961.861	621
961.949	20
962.036	-1268
962.124	328
962.212	-61
962.299	-783
962.387	-369
962.475	-370
962.562	-666
962.650	-372
962.738	-892
962.825	-333
962.913	-162
963.000	-422
963.088	7
963.175	-75
963.263	287
963.350	-434
963.438	-212
963.525	-1679
963.612	185
963.700	-353
963.787	-360
963.874	-31
963.962	-31
964.049	-311
964.136	-125
964.223	-923
964.310	-797
964.398	-1075
964.485	-705
964.572	145
964.659	280
964.746	-485
964.833	136
964.920	-1332
965.007	206
965.094	-635
965.181	-465
965.268	-1009
965.355	-529
965.441	-6
965.528	-1555
965.615	157
965.702	-721
965.789	-1032
965.875	-290
965.962	-91
966.049	-226
966.136	584
966.222	-618
966.309	-190
966.395	-724
966.482	214
966.569	-577
966.655	-10
966.742	-267
966.828	-442
966.915	-247
967.001	1
967.087	-663
967.174	231
967.260	184
967.347	-91
967.433	-724
967.519	100
967.605	-983
967.692	-1009
967.778	287
967.864	-228
967.950	-1002
968.036	-1340
968.123	-843
968.209	-588
968.295	-1018
968.381	1018
968.467	481
968.553	-2212
968.639	1059
968.725	-619
968.811	257
968.897	32
968.983	-577
969.069	-1526
969.154	-73
969.240	-350
969.326	-879
969.412	-736
969.497	-1172
969.583	-1299
969.669	1177
969.755	185
969.840	-453
969.926	-273
970.012	-89
970.097	1188
970.183	594
970.268	-127
970.354	-551
970.439	-928
970.525	-53
970.610	-2194
970.696	1059
970.781	-285
970.866	-1608
970.952	131
971.037	-1395
971.122	-679
971.208	-1009
971.293	-815
971.378	-1836
971.463	158
971.549	-719
971.634	-1175
971.719	-454
971.804	-1200
971.889	438
971.974	-1149
972.059	325
972.144	-194
972.229	49
972.314	-1046
972.399	-368
972.484	-897
972.569	-221
972.654	-1670
972.739	170
972.824	-372
972.908	166
972.993	-871
973.078	-1024
973.163	-1168
973.247	-593
973.332	-2397
973.417	1052
973.501	-1133
973.586	-258
973.671	-265
973.755	-1255
973.840	-211
973.924	379
974.009	-768
974.093	-1030
974.178	329
974.262	-878
974.346	-678
974.431	-347
974.515	-358
974.600	-491
974.684	-241
974.768	-444
974.852	67
974.937	-1670
975.021	154
975.105	-560
975.189	-647
975.273	84
975.358	-1172
975.442	-529
975.526	-143
975.610	-996
975.694	-1161
975.778	200
975.862	-1467
975.946	-2159
976.030	744
976.114	-966
976.198	-676
976.281	48
976.365	348
976.449	-407
976.533	-252
976.617	-660
976.700	-1190
976.784	-997
976.868	-1346
976.951	-785
977.035	-1021
977.119	-432
977.202	-1400
977.286	-332
977.369	-761
977.453	974
977.536	100
977.620	-323
977.703	-213
977.787	-18
977.870	-688
977.953	437
978.037	-1703
978.120	728
978.203	-1238
978.287	-459
978.370	-1084
978.453	-492
978.536	-447
978.620	279
978.703	-944
978.786	-745
978.869	-532
978.952	-274
979.035	587
979.118	-127
979.201	-443
979.284	-282
979.367	-770
979.450	-834
979.533	-977
979.616	-728
979.699	-695
979.782	-590
979.865	-527
979.948	-958
980.030	-921
980.113	-1272
980.196	-1244
980.279	100
980.361	-1292
980.444	-579
980.526	-6
980.609	168
980.692	-107
980.774	514
980.857	-1068
980.939	273
981.022	145
981.104	447
981.187	-549
981.269	51
981.352	-169
981.434	-1038
981.516	-1159
981.599	519
981.681	-253
981.763	-481
981.846	-299
981.928	-785
982.010	-1250
982.092	-367
982.174	86
982.256	-897
982.339	-46
982.421	-206
982.503	-234
982.585	-728
982.667	-664
982.749	-800
982.831	-441
982.913	-641
982.995	536
983.077	-814
983.158	680
983.240	-1367
983.322	390
983.404	1130
983.486	7
983.568	234
983.649	-438
983.731	-154
983.813	-141
983.894	324
983.976	-679
984.058	-423
984.139	647
984.221	-980
984.302	899
984.384	-600
984.465	-706
984.547	338
984.628	-329
984.710	305
984.791	-82
984.872	-353
984.954	-1367
985.035	405
985.116	-634
985.198	-958
985.279	950
985.360	-756
985.441	-562
985.522	759
985.604	-387
985.685	-1848
985.766	-1175
985.847	1562
985.928	-877
986.009	-457
986.090	-196
986.171	1155
986.252	-590
986.333	253
986.414	151
986.495	-217
986.576	214
986.656	302
986.737	174
986.818	189
986.899	-357
986.980	11
987.060	-221
987.141	306
987.222	426
987.302	97
987.383	965
987.464	438
987.544	230
987.625	341
987.705	831
987.786	612
987.866	-68
987.947	732
988.027	151
988.108	783
988.188	504
988.268	197
988.349	-235
988.429	33
988.509	307
988.589	-325
988.670	-1425
988.750	1443
988.830	-546
988.910	311
988.990	483
989.070	254
989.151	-897
989.231	-1140
989.311	283
989.391	122
989.471	213
989.551	-406
989.631	-507
989.711	645
989.791	-545
989.870	-363
989.950	1100
990.030	-498
990.110	-1072
990.190	-729
990.269	-838
990.349	-10
990.429	228
990.509	326
990.588	-221
990.668	374
990.747	-126
990.827	86
990.907	578
990.986	-227
991.066	659
991.145	-969
991.225	-23
991.304	-661
991.383	-201
991.463	-968
991.542	77
991.622	-1184
991.701	-409
991.780	-913
991.859	143
991.939	-201
992.018	-126
992.097	294
992.176	-155
992.256	-686
992.335	-963
992.414	934
992.493	-1138
992.572	-545
992.651	1028
992.730	-349
992.809	-279
992.888	-893
992.967	-462
993.046	-608
993.125	-1690
993.203	-351
993.282	-316
993.361	-343
993.440	-325
993.519	-86
993.597	-323
993.676	-192
993.755	-567
993.834	85
993.912	-1226
993.991	288
994.069	-1575
994.148	-29
994.226	-666
994.305	-190
994.384	-986
994.462	657
994.540	-1054
994.619	-1143
994.697	-3
994.776	-449
994.854	95
994.932	-881
995.011	-536
995.089	-199
995.167	-498
995.245	-296
995.324	-1196
995.402	-415
995.480	-1127
995.558	-618
995.636	-1552
995.714	-1233
995.792	-110
995.870	-791
995.948	-1054
996.026	241
996.104	-2981
996.182	3
996.260	-1482
996.338	-619
996.416	-2234
996.494	-589
996.572	-456
996.649	-770
996.727	-1733
996.805	-520
996.883	-1331
996.960	-1238
997.038	-667
997.116	-589
997.193	-1753
997.271	-1296
997.348	-807
997.426	-490
997.504	-1312
997.581	-367
997.658	-1077
997.736	-1529
997.813	-1232
997.891	-133
997.968	-1423
998.046	-1216
998.123	-1415
998.200	-369
998.277	-1593
998.355	-340
998.432	-2010
998.509	-784
998.586	-201
998.663	-1027
998.741	-731
998.818	-1012
998.895	-1475
998.972	-375
999.049	-492
999.126	-1781
999.203	-746
999.280	-1034
999.357	-1271
999.434	-693
999.511	-847
999.587	-512
999.664	-1866
999.741	-280
999.818	-826
999.895	-1126
999.971	-959
1000.048	-1251
1000.125	-875
1000.202	-1115
1000.278	-1505
1000.355	-921
1000.431	-1117
1000.508	-1433
1000.584	-1024
1000.661	-1496
1000.738	-2042
1000.814	-1370
1000.890	-835
1000.967	-856
1001.043	-1102
1001.120	-2293
1001.196	-1417
1001.272	-1313
1001.349	-409
1001.425	-1871
1001.501	-1096
1001.577	-1450
1001.654	-1007
1001.730	-1203
1001.806	-1019
1001.882	-2068
1001.958	-1024
1002.034	-712
1002.110	-1360
1002.186	-1760
1002.262	-2221
1002.338	-1059
1002.414	-549
1002.490	-616
1002.566	-2187
1002.642	-998
1002.718	-576
1002.794	-1752
1002.870	-1399
1002.945	-1617
1003.021	-924
1003.097	-1606
1003.173	-659
1003.248	-785
1003.324	-998
1003.400	-1349
1003.475	-2401
1003.551	-1061
1003.626	-1611
1003.702	-2117
1003.777	-966
1003.853	-2192
1003.928	-2103
1004.004	-1963
1004.079	-617
1004.155	-785
1004.230	-2854
1004.305	273
1004.381	-1764
1004.456	-1419
1004.531	-765
1004.607	-795
1004.682	-1760
1004.757	-1649
1004.832	-1002
1004.907	-2311
1004.982	-2732
1005.057	-676
1005.133	-796
1005.208	-1713
1005.283	-798
1005.358	-500
1005.433	-2227
1005.508	-727
1005.583	-2002
1005.657	-1573
1005.732	-521
1005.807	-1166
1005.882	-1325
1005.957	-1646
1006.032	-1023
1006.106	-2175
1006.181	-1696
1006.256	-931
1006.331	-2033
1006.405	-1300
1006.480	-1259
1006.554	-1595
1006.629	-1467
1006.704	-1040
1006.778	-1365
1006.853	-1345
1006.927	-1550
1007.002	-1400
1007.076	-1542
1007.150	-2141
1007.225	-2152
1007.299	-292
1007.373	-2068
1007.448	-1626
1007.522	-244
1007.596	-991
1007.671	-2069
1007.745	-1564
1007.819	-2016
1007.893	-1180
1007.967	-898
1008.041	-2696
1008.115	-1006
1008.190	-1812
1008.264	-1999
1008.338	-2379
1008.412	-1994
1008.486	-994
1008.560	-1702
1008.633	-2141
1008.707	-1315
1008.781	-1519
1008.855	-1212
1008.929	-1202
1009.003	-2217
1009.076	-2210
1009.150	-1744
1009.224	-1581
1009.298	-1985
1009.371	-2700
1009.445	-699
1009.519	-1707
1009.592	-2364
1009.666	-1758
1009.739	-1176
1009.813	-1756
1009.886	-1013
1009.960	-2563
1010.033	-992
1010.107	-657
1010.180	-2463
1010.253	-1971
1010.327	-2245
1010.400	-1863
1010.473	-2071
1010.547	-623
1010.620	-1982
1010.693	-1470
1010.766	-1914
1010.840	-876
1010.913	-1911
1010.986	-1958
1011.059	-1854
1011.132	-914
1011.205	-1256
1011.278	-1915
1011.351	-2075
1011.424	-1652
1011.497	-2581
1011.570	-1483
1011.643	-1706
1011.716	-1578
1011.789	-2130
1011.862	-1181
1011.934	136
1012.007	-2234
1012.080	-1338
1012.153	-1672
1012.225	-841
1012.298	-1899
1012.371	-1803
1012.443	-730
1012.516	-3261
1012.588	-1546
1012.661	-2062
1012.733	-2295
1012.806	-1416
1012.879	-1435
1012.951	-1855
1013.023	-2122
1013.096	-2094
1013.168	-1446
1013.241	-2148
1013.313	-1077
1013.385	-1961
1013.458	-2255
1013.530	-1402
1013.602	-2626
1013.674	-1337
1013.746	-1920
1013.819	-1615
1013.891	-993
1013.963	-1545
1014.035	-1531
1014.107	-1224
1014.179	-1553
1014.251	-2366
1014.323	-1650
1014.395	-2210
1014.467	-2099
1014.539	-1968
1014.611	-2590
1014.683	-1651
1014.754	-857
1014.826	-2372
1014.898	-839
1014.970	-2643
1015.042	-947
1015.113	-1895
1015.185	-1669
1015.257	-2836
1015.328	-1766
1015.400	-2129
1015.471	-1642
1015.543	-2243
1015.615	-1242
1015.686	-1669
1015.757	-2110
1015.829	-1903
1015.901	-1572
1015.972	-1837
1016.043	-1611
1016.115	-2152
1016.186	-1490
1016.257	-2466
1016.328	-1499
1016.400	-1282
1016.471	-1614
1016.542	-1760
1016.613	-1637
1016.685	-1676
1016.756	-2078
1016.827	-2067
1016.898	-1499
1016.969	-854
1017.040	-1952
1017.111	-1937
1017.182	-2395
1017.253	-1751
1017.324	-1297
1017.395	-2071
1017.466	-1049
1017.537	-1817
1017.608	-2190
1017.678	-2186
1017.749	-2091
1017.820	-2323
1017.891	-1821
1017.961	-2194
1018.032	-1420
1018.103	-1957
1018.173	-1129
1018.244	-2576
1018.315	-1844
1018.385	-2006
1018.456	-1571
1018.526	-1882
1018.597	-2163
1018.667	-1628
1018.738	-1849
1018.808	-2071
1018.878	-2006
1018.949	-1494
1019.019	-2446
1019.089	-2778
1019.160	-1433
1019.230	-2411
1019.300	-2248
1019.371	-1843
1019.441	-1731
1019.511	-1973
1019.581	-1919
1019.651	-2152
1019.721	-1219
1019.791	-1642
1019.861	-2687
1019.931	-2243
1020.001	-1419
1020.071	-2212
1020.141	-2159
1020.211	-2275
1020.281	-1481
1020.351	-2276
1020.421	-1764
1020.491	-1817
1020.560	-1505
1020.630	-2842
1020.700	-2003
1020.770	-1835
1020.839	-1762
1020.909	-2530
1020.979	-1520
1021.048	-2545
1021.118	-2026
1021.187	-1773
1021.257	-1658
1021.326	-1811
1021.396	-2091
1021.465	-1534
1021.535	-1757
1021.604	-2025
1021.674	-1958
1021.743	-2612
1021.812	-1907
1021.882	-2429
1021.951	-1775
1022.020	-1848
1022.089	-1629
1022.159	-2494
1022.228	-1658
1022.297	-1016
1022.366	-1676
1022.435	-2319
1022.504	-2151
1022.573	-2617
1022.642	-1530
1022.711	-2657
1022.781	-1805
1022.849	-1805
1022.918	-2240
1022.987	-1888
1023.056	-2120
1023.125	-2506
1023.194	-1208
1023.263	-2107
1023.331	-1670
1023.400	-1235
1023.469	-2731
1023.538	-2031
1023.606	-2116
1023.675	-2259
1023.744	-2468
1023.812	-2805
1023.881	-2442
1023.949	-1889
1024.018	-1757
1024.086	-1499
1024.155	-1737
1024.223	-2790
1024.292	-1810
1024.360	-1033
1024.429	-2133
1024.497	-2645
1024.565	-2039
1024.634	-2242
1024.702	-1578
1024.770	-1531
1024.838	-2394
1024.907	-2597
1024.975	-1670
1025.043	-2437
1025.111	-1819
1025.179	-1374
1025.247	-2211
1025.315	-1483
1025.383	-2077
1025.451	-2135
1025.519	-2104
1025.587	-2025
1025.655	-1596
1025.723	-2459
1025.791	-1913
1025.859	-1738
1025.927	-1337
1025.995	-2941
1026.062	-1482
1026.130	-2875
1026.198	-2265
1026.266	-2310
1026.333	-1984
1026.401	-1773
1026.469	-2085
1026.536	-2591
1026.604	-2782
1026.671	-2512
1026.739	-2734
1026.806	-1504
1026.874	-1653
1026.941	-2102
1027.009	-2157
1027.076	-2106
1027.144	-1201
1027.211	-2883
1027.278	-2568
1027.345	-1766
1027.413	-1288
1027.480	-2522
1027.547	-2316
1027.614	-2006
1027.682	-1626
1027.749	-1842
1027.816	-2219
1027.883	-2196
1027.950	-1069
1028.017	-2097
1028.084	-1385
1028.151	-3175
1028.218	-1495
1028.285	-2164
1028.352	-1723
1028.419	-3036
1028.486	-2277
1028.553	-1599
1028.619	-2627
1028.686	-2194
1028.753	-2134
1028.820	-1589
1028.886	-1727
1028.953	-1994
1029.020	-1868
1029.086	-2446
1029.153	-2308
1029.220	-2718
1029.286	-2091
1029.353	-1690
1029.419	-2137
1029.486	-2402
1029.552	-1695
1029.619	-2800
1029.685	-1768
1029.751	-2119
1029.818	-1516
1029.884	-2037
1029.951	-789
1030.017	-2092
1030.083	-1799
1030.149	-1831
1030.216	-2365
1030.282	-2072
1030.348	-2411
1030.414	-2150
1030.480	-1605
1030.546	-2913
1030.612	-2092
1030.678	-2590
1030.744	-2319
1030.810	-2080
1030.876	-2279
1030.942	-2087
1031.008	-1687
1031.074	-2073
1031.140	-2072
1031.206	-1536
1031.272	-3182
1031.337	-2937
1031.403	-2000
1031.469	-2506
1031.534	-1336
1031.600	-1816
1031.666	-2189
1031.731	-1969
1031.797	-1640
1031.863	-1951
1031.928	-2619
1031.994	-2672
1032.059	-2222
1032.125	-2623
1032.190	-2740
1032.256	-2510
1032.321	-2135
1032.386	-2576
1032.452	-1815
1032.517	-1478
1032.582	-2259
1032.647	-2325
1032.713	-2077
1032.778	-2205
1032.843	-2564
1032.908	-2452
1032.974	-2003
1033.039	-2764
1033.104	-1853
1033.169	-2417
1033.234	-2348
1033.299	-1744
1033.364	-1562
1033.429	-2468
1033.494	-1793
1033.559	-1764
1033.624	-1786
1033.688	-2232
1033.753	-2110
1033.818	-2364
1033.883	-1851
1033.948	-2571
1034.013	-1721
1034.077	-1644
1034.142	-1825
1034.207	-1360
1034.271	-217
1034.336	31
1034.400	-1606
1034.465	-1712
1034.530	-1901
1034.594	-1820
1034.658	-1644
1034.723	-2651
1034.787	-1753
1034.852	-1952
1034.916	-2827
1034.981	-2802
1035.045	-1354
1035.109	-2101
1035.173	-1482
1035.238	-2604
1035.302	-2015
1035.366	-2633
1035.430	-2593
1035.495	-1873
1035.559	-2428
1035.623	-2215
1035.687	-3285
1035.751	-2068
1035.815	-2178
1035.879	-2645
1035.943	-2260
1036.007	-2778
1036.071	-1820
1036.135	-3202
1036.198	-2225
1036.262	-2368
1036.326	-1692
1036.390	-2047
1036.454	-2934
1036.517	-2080
1036.581	-1708
1036.645	-2260
1036.709	-1762
1036.772	-3417
1036.836	-2429
1036.900	-1818
1036.963	-2767
1037.026	-2196
1037.090	-2456
1037.154	-1740
1037.217	-2525
1037.280	-2178
1037.344	-2244
1037.407	-2082
1037.471	-2153
1037.534	-2812
1037.597	-2455
1037.661	-1932
1037.724	-2032
1037.787	-2738
1037.850	-2170
1037.913	-2466
1037.977	-1081
1038.040	-2336
1038.103	-2360
1038.166	-2459
1038.229	-1487
1038.292	-2552
1038.355	-2720
1038.418	-1869
1038.481	-1146
1038.544	-3417
1038.607	-2245
1038.670	-2454
1038.732	-2168
1038.795	-2373
1038.858	-1739
1038.921	-2126
1038.984	-2213
1039.046	-2877
1039.109	-1938
1039.172	-2263
1039.234	-2878
1039.297	-2558
1039.360	-2271
1039.422	-2282
1039.485	-2162
1039.547	-3402
1039.610	-2023
1039.672	-2020
1039.734	-2379
1039.797	-2754
1039.859	-1946
1039.922	-2383
1039.984	-2374
1040.046	-2836
1040.109	-1771
1040.171	-2376
1040.233	-1229
1040.295	-2636
1040.358	-2364
1040.420	-2564
1040.482	-2698
1040.544	-2320
1040.606	-2279
1040.668	-2316
1040.730	-1606
1040.792	-3036
1040.854	-1814
1040.916	-2273
1040.978	-2125
1041.040	-2096
1041.102	-1583
1041.164	-2241
1041.225	-3166
1041.287	-2710
1041.349	-2226
1041.411	-2764
1041.472	-2326
1041.534	-2750
1041.596	-2091
1041.657	-2667
1041.719	-1818
1041.781	-2485
1041.842	-2412
1041.904	-2782
1041.965	-2405
1042.027	-2586
1042.088	-1938
1042.150	-2273
1042.211	-2342
1042.272	-1273
1042.334	-2371
1042.395	-2394
1042.456	-2474
1042.518	-2424
1042.579	-1378
1042.640	-2345
1042.701	-2365
1042.763	-2380
1042.824	-1778
1042.885	-2414
1042.946	-2411
1043.007	-2077
1043.068	-1914
1043.129	-2920
1043.190	-2099
1043.251	-2076
1043.312	-1688
1043.373	-2210
1043.434	-2122
1043.495	-2560
1043.556	-1848
1043.616	-1731
1043.677	-2676
1043.738	-2782
1043.799	-2615
1043.859	-1895
1043.920	-1602
1043.981	-2209
1044.041	-1909
1044.102	-2176
1044.162	-1593
1044.223	-1841
1044.284	-2307
1044.344	-1663
1044.405	-2320
1044.465	-1989
1044.525	-2172
1044.586	-2964
1044.646	-2408
1044.707	-2107
1044.767	-1786
1044.827	-1896
1044.887	-2160
1044.948	-2299
1045.008	-1176
1045.068	-3032
1045.128	-2078
1045.188	-1795
1045.249	-2132
1045.309	-1808
1045.369	-2182
1045.429	-2292
1045.489	-1720
1045.549	-2606
1045.609	-2479
1045.669	-2670
1045.729	-1555
1045.789	-2328
1045.848	-2129
1045.908	-1618
1045.968	-2003
1046.028	-2343
1046.088	-1110
1046.147	-1706
1046.207	-2077
1046.267	-1169
1046.326	-1454
1046.386	-2120
1046.446	-1327
1046.505	-1497
1046.565	-1346
1046.624	-1714
1046.684	-987
1046.743	-476
1046.803	-1012
1046.862	-784
1046.922	0
