'Start Wavelength	183.907
'End Wavelength	1046.922
'Gate Delay	5.000
'Gate Width (ms)	1.050
'Laser Output Level	0.000
'X Position	0.000
'Y Position	0.000
'Z Position	0.000
'Grid Point Number	1.000
'Shot Number	100.000
183.907	135.000
183.977	-813.000
184.047	-749
184.116	808
184.186	-541
184.256	-408
184.325	-85
184.395	-931
184.465	308
184.534	-263
184.604	-1360
184.674	-299
184.743	-253
184.813	-533
184.883	358
184.952	171
185.022	-64
185.092	-106
185.161	-190
185.231	-974
185.301	-645
185.370	199
185.440	134
185.509	-50
185.579	-821
185.649	-395
185.718	-103
185.788	109
185.857	-628
185.927	-100
185.996	-513
186.066	-476
186.136	128
186.205	145
186.275	-461
186.344	-145
186.414	218
186.483	-460
186.553	874
186.622	750
186.692	164
186.761	18
186.831	-386
186.900	-393
186.970	-269
187.039	137
187.109	53
187.178	-205
187.248	254
187.317	-188
187.387	-800
187.456	-929
187.526	-757
187.595	-94
187.664	-979
187.734	490
187.803	-316
187.873	-441
187.942	-420
188.012	-77
188.081	348
188.150	-996
188.220	181
188.289	-138
188.358	609
188.428	623
188.497	-60
188.567	133
188.636	477
188.705	548
188.775	-254
188.844	-347
188.913	566
188.983	-189
189.052	-198
189.121	-72
189.191	-21
189.260	695
189.329	-345
189.399	-378
189.468	-433
189.537	-331
189.606	-322
189.676	162
189.745	-495
189.814	464
189.883	-564
189.953	126
190.022	-279
190.091	-56
190.161	253
190.230	164
190.299	-328
190.368	2
190.437	365
190.507	-685
190.576	-180
190.645	-342
190.714	-393
190.783	-321
190.853	-42
190.922	111
190.991	-485
191.060	110
191.129	-405
191.198	-319
191.268	-263
191.337	92
191.406	-13
191.475	-539
191.544	250
191.613	-68
191.682	-108
191.752	157
191.821	-199
191.890	269
191.959	358
192.028	-17
192.097	181
192.166	163
192.235	-771
192.304	253
192.373	-575
192.442	20
192.511	-113
192.580	-496
192.650	-85
192.719	-178
192.788	-836
192.857	-225
192.926	-655
192.995	88
193.064	-101
193.133	-769
193.202	-208
193.271	593
193.340	256
193.409	669
193.478	318
193.547	176
193.615	-115
193.684	319
193.753	-435
193.822	790
193.891	-251
193.960	-41
194.029	-493
194.098	-213
194.167	-226
194.236	-447
194.305	-265
194.374	-926
194.443	-646
194.512	-404
194.580	155
194.649	180
194.718	-87
194.787	564
194.856	-744
194.925	-5
194.994	-768
195.062	-684
195.131	291
195.200	-321
195.269	866
195.338	-559
195.407	-183
195.475	-252
195.544	296
195.613	-834
195.682	-240
195.751	-42
195.819	-5
195.888	-682
195.957	-90
196.026	-379
196.094	406
196.163	92
196.232	-334
196.301	-105
196.369	13
196.438	478
196.507	123
196.576	-136
196.644	-49
196.713	41
196.782	-369
196.850	242
196.919	-211
196.988	78
197.056	-766
197.125	-613
197.194	531
197.262	14
197.331	-58
197.400	-152
197.468	-569
197.537	30
197.606	145
197.674	106
197.743	-96
197.812	-217
197.880	190
197.949	-308
198.017	11
198.086	-451
198.155	208
198.223	342
198.292	-500
198.360	181
198.429	-721
198.497	-27
198.566	563
198.635	826
198.703	672
198.772	-16
198.840	-180
198.909	-309
198.977	-344
199.046	-50
199.114	-332
199.183	-579
199.251	35
199.320	-566
199.388	563
199.457	-138
199.525	-261
199.594	-599
199.662	-511
199.731	-27
199.799	8
199.867	-375
199.936	-946
200.004	361
200.073	469
200.141	-249
200.210	-888
200.278	-355
200.346	711
200.415	527
200.483	-519
200.552	-2
200.620	-608
200.688	-481
200.757	322
200.825	-936
200.893	-195
200.962	95
201.030	-372
201.098	-176
201.167	20
201.235	-164
201.303	-18
201.372	818
201.440	-174
201.508	157
201.577	-59
201.645	-47
201.713	-102
201.781	312
201.850	-79
201.918	-63
201.986	-107
202.055	117
202.123	-256
202.191	-288
202.259	185
202.327	-226
202.396	-121
202.464	807
202.532	373
202.600	485
202.669	-144
202.737	-114
202.805	-33
202.873	466
202.941	-63
203.009	23
203.078	-666
203.146	57
203.214	-564
203.282	-1247
203.350	419
203.418	-263
203.487	-568
203.555	34
203.623	352
203.691	-441
203.759	-495
203.827	-630
203.895	-248
203.963	-192
204.031	-186
204.099	-592
204.168	-132
204.236	241
204.304	49
204.372	556
204.440	-582
204.508	-508
204.576	-301
204.644	664
204.712	-664
204.780	-145
204.848	-331
204.916	-157
204.984	52
205.052	-129
205.120	-630
205.188	-765
205.256	-992
205.324	-48
205.392	-920
205.460	-219
205.528	-221
205.596	132
205.664	95
205.732	-625
205.799	216
205.867	1104
205.935	-878
206.003	285
206.071	-614
206.139	-352
206.207	971
206.275	202
206.343	-1220
206.411	107
206.478	-412
206.546	-140
206.614	140
206.682	-343
206.750	-132
206.818	54
206.885	218
206.953	-1243
207.021	690
207.089	732
207.157	-975
207.225	194
207.292	-1001
207.360	-261
207.428	-636
207.496	417
207.563	-589
207.631	-158
207.699	-253
207.767	6
207.834	-309
207.902	-418
207.970	-87
208.038	-730
208.105	306
208.173	-261
208.241	-661
208.309	-226
208.376	-96
208.444	-231
208.512	57
208.579	-1284
208.647	77
208.715	-90
208.782	-384
208.850	714
208.918	-1077
208.985	-442
209.053	-253
209.120	-284
209.188	-777
209.256	273
209.323	-790
209.391	-147
209.459	730
209.526	105
209.594	-815
209.661	-514
209.729	-278
209.796	18
209.864	-236
209.932	-1710
209.999	688
210.067	202
210.134	29
210.202	-315
210.269	-243
210.337	597
210.404	-930
210.472	-144
210.539	-446
210.607	-677
210.674	-320
210.742	-266
210.809	55
210.877	102
210.944	416
211.012	-843
211.079	689
211.146	76
211.214	-404
211.281	-71
211.349	277
211.416	60
211.484	261
211.551	306
211.618	60
211.686	-95
211.753	-1108
211.821	200
211.888	284
211.955	245
212.023	-570
212.090	291
212.157	-489
212.225	206
212.292	-73
212.359	284
212.427	1551
212.494	650
212.561	-108
212.629	170
212.696	-72
212.763	682
212.831	-824
212.898	704
212.965	-819
213.032	419
213.100	-515
213.167	-444
213.234	-107
213.301	744
213.369	-318
213.436	-33
213.503	-211
213.570	47
213.638	-643
213.705	-706
213.772	-1365
213.839	-1425
213.906	346
213.973	49
214.041	-543
214.108	285
214.175	119
214.242	-244
214.309	255
214.376	278
214.444	-276
214.511	727
214.578	-118
214.645	199
214.712	-55
214.779	717
214.846	249
214.913	588
214.980	436
215.048	525
215.115	1453
215.182	333
215.249	-539
215.316	-570
215.383	665
215.450	-552
215.517	-587
215.584	-437
215.651	443
215.718	55
215.785	-219
215.852	-787
215.919	5
215.986	-94
216.053	63
216.120	119
216.187	27
216.254	413
216.321	135
216.388	419
216.455	-368
216.522	92
216.589	-196
216.656	455
216.722	-5
216.789	-49
216.856	-79
216.923	-549
216.990	184
217.057	-728
217.124	-538
217.191	-1188
217.258	581
217.324	-120
217.391	449
217.458	175
217.525	275
217.592	408
217.659	-1126
217.725	440
217.792	-761
217.859	780
217.926	-80
217.993	707
218.059	562
218.126	-145
218.193	-502
218.260	-897
218.327	639
218.393	-594
218.460	-518
218.527	-889
218.594	-578
218.660	-606
218.727	566
218.794	-682
218.860	100
218.927	-500
218.994	270
219.061	-463
219.127	-282
219.194	-291
219.261	148
219.327	-866
219.394	373
219.461	-664
219.527	-581
219.594	141
219.661	-534
219.727	-599
219.794	893
219.860	-248
219.927	40
219.994	804
220.060	607
220.127	2126
220.193	312
220.260	-802
220.326	903
220.393	28
220.460	351
220.526	1219
220.593	-295
220.659	2303
220.726	226
220.792	420
220.859	1065
220.925	1298
220.992	1008
221.058	1354
221.125	1411
221.191	1206
221.258	-875
221.324	652
221.391	-488
221.457	-167
221.524	316
221.590	364
221.657	1363
221.723	203
221.789	200
221.856	784
221.922	-350
221.989	416
222.055	-638
222.121	-1192
222.188	1726
222.254	21
222.321	-695
222.387	-510
222.453	-279
222.520	-871
222.586	-698
222.652	740
222.719	-752
222.785	203
222.851	-101
222.918	18
222.984	-333
223.050	-746
223.116	-1727
223.183	855
223.249	-875
223.315	-305
223.382	-310
223.448	484
223.514	-1319
223.580	-738
223.647	-335
223.713	-509
223.779	-590
223.845	-130
223.911	261
223.978	-1070
224.044	83
224.110	-349
224.176	-88
224.242	257
224.309	-1036
224.375	90
224.441	-353
224.507	203
224.573	-1340
224.639	526
224.705	-756
224.772	-116
224.838	-668
224.904	-227
224.970	-673
225.036	-982
225.102	-996
225.168	-74
225.234	103
225.300	-877
225.366	-35
225.432	-418
225.499	-198
225.565	-822
225.631	-1161
225.697	-582
225.763	640
225.829	-330
225.895	231
225.961	-583
226.027	-509
226.093	-1341
226.159	1416
226.225	1454
226.291	2521
226.357	3791
226.423	1454
226.489	710
226.554	610
226.620	437
226.686	270
226.752	555
226.818	1790
226.884	4651
226.950	4942
227.016	921
227.082	252
227.148	24
227.214	731
227.279	-219
227.345	44
227.411	801
227.477	412
227.543	2696
227.609	2394
227.674	1459
227.740	-287
227.806	3
227.872	-139
227.938	345
228.003	42
228.069	-529
228.135	-837
228.201	285
228.267	-542
228.332	725
228.398	-1134
228.464	-101
228.530	-782
228.595	200
228.661	-1539
228.727	-313
228.792	1219
228.858	-978
228.924	-1840
228.990	1968
229.055	-1732
229.121	-255
229.187	-648
229.252	-1049
229.318	-765
229.384	260
229.449	-316
229.515	-1778
229.581	-1897
229.646	511
229.712	-254
229.777	-874
229.843	-838
229.909	61
229.974	238
230.040	286
230.105	99
230.171	-711
230.236	-268
230.302	315
230.368	-132
230.433	-959
230.499	39
230.564	479
230.630	-1121
230.695	-287
230.761	-291
230.826	-1588
230.892	930
230.957	-889
231.023	-196
231.088	-479
231.154	39
231.219	415
231.284	-68
231.350	619
231.415	-707
231.481	976
231.546	-357
231.612	539
231.677	-845
231.742	-978
231.808	956
231.873	-1677
231.939	-2161
232.004	-163
232.069	797
232.135	-1562
232.200	-277
232.265	253
232.331	-132
232.396	86
232.461	-1041
232.527	-939
232.592	-771
232.657	-209
232.723	-648
232.788	-558
232.853	39
232.918	10
232.984	-841
233.049	-394
233.114	-106
233.179	-33
233.245	142
233.310	-332
233.375	-1316
233.440	-267
233.506	-591
233.571	115
233.636	223
233.701	-632
233.766	-37
233.832	-537
233.897	-379
233.962	-1593
234.027	958
234.092	728
234.157	-84
234.222	39
234.288	347
234.353	-398
234.418	566
234.483	445
234.548	-521
234.613	-284
234.678	355
234.743	-782
234.808	562
234.873	-1345
234.938	1750
235.004	-295
235.069	-297
235.134	-1317
235.199	157
235.264	310
235.329	-1474
235.394	-156
235.459	-116
235.524	-983
235.589	430
235.654	-437
235.719	-1232
235.784	186
235.849	218
235.913	0
235.978	-198
236.043	-914
236.108	-411
236.173	-695
236.238	303
236.303	-638
236.368	-683
236.433	847
236.498	-701
236.563	163
236.627	507
236.692	6871
236.757	5464
236.822	1479
236.887	277
236.952	1213
237.017	-1195
237.081	1257
237.146	-874
237.211	2844
237.276	5032
237.341	9180
237.405	3549
237.470	1588
237.535	302
237.600	609
237.664	450
237.729	-807
237.794	-1657
237.859	1734
237.923	388
237.988	344
238.053	721
238.118	-762
238.182	-646
238.247	926
238.312	-1437
238.376	237
238.441	-1785
238.506	430
238.570	-1020
238.635	1041
238.700	-400
238.764	-92
238.829	264
238.893	-454
238.958	105
239.023	-354
239.087	-393
239.152	-397
239.216	-921
239.281	630
239.346	-468
239.410	-523
239.475	-608
239.539	650
239.604	-1623
239.668	167
239.733	168
239.797	1773
239.862	4838
239.926	3151
239.991	1174
240.055	720
240.120	-231
240.184	-100
240.249	-536
240.313	-38
240.378	-66
240.442	-224
240.507	-194
240.571	-626
240.635	-536
240.700	-965
240.764	-822
240.829	-436
240.893	-1335
240.957	200
241.022	217
241.086	1159
241.151	-1399
241.215	-1218
241.279	-36
241.344	-421
241.408	488
241.472	-810
241.537	1077
241.601	768
241.665	-1011
241.730	-195
241.794	997
241.858	396
241.922	-275
241.987	-472
242.051	-213
242.115	-1269
242.179	161
242.244	-122
242.308	461
242.372	-362
242.436	-530
242.501	118
242.565	-932
242.629	-57
242.693	738
242.757	-1014
242.822	337
242.886	344
242.950	315
243.014	-1372
243.078	76
243.142	-218
243.206	-716
243.271	57
243.335	-519
243.399	729
243.463	1698
243.527	7244
243.591	1954
243.655	935
243.719	-285
243.783	675
243.847	393
243.911	941
243.975	-1197
244.040	-1029
244.104	773
244.168	-362
244.232	-1029
244.296	478
244.360	596
244.424	-1155
244.488	445
244.552	315
244.615	-1273
244.679	217
244.743	-932
244.807	-1057
244.871	-132
244.935	247
244.999	-1574
245.063	-1043
245.127	100
245.191	515
245.255	-1093
245.319	-16
245.383	-2119
245.446	1132
245.510	-761
245.574	-13
245.638	529
245.702	-1531
245.766	465
245.829	664
245.893	-918
245.957	-979
246.021	1221
246.085	-290
246.149	-226
246.212	804
246.276	-556
246.340	-501
246.404	84
246.467	753
246.531	-1520
246.595	105
246.659	481
246.722	-784
246.786	305
246.850	-983
246.913	-716
246.977	-1480
247.041	192
247.104	-168
247.168	-1137
247.232	-243
247.295	960
247.359	1066
247.423	-212
247.486	-450
247.550	828
247.614	-749
247.677	-693
247.741	101
247.804	-575
247.868	-259
247.932	-678
247.995	1521
248.059	-1091
248.122	-764
248.186	899
248.249	144
248.313	1015
248.376	2065
248.440	-212
248.503	-1416
248.567	766
248.630	-775
248.694	201
248.757	843
248.821	1850
248.884	2292
248.948	-259
249.011	1921
249.075	1808
249.138	2779
249.202	-89
249.265	-146
249.328	764
249.392	-444
249.455	671
249.519	-192
249.582	33
249.645	371
249.709	-166
249.772	-198
249.835	367
249.899	217
249.962	438
250.025	-457
250.089	420
250.152	1797
250.215	-28
250.279	-523
250.342	783
250.405	63
250.468	301
250.532	1056
250.595	1245
250.658	4730
250.721	12000
250.785	3167
250.848	2142
250.911	68
250.974	1230
251.038	354
251.101	2117
251.164	-139
251.227	697
251.290	439
251.354	1711
251.417	8294
251.480	10010
251.543	6439
251.606	16868
251.669	14441
251.732	4493
251.795	2755
251.859	4071
251.922	10343
251.985	7237
252.048	2793
252.111	619
252.174	298
252.237	1121
252.300	2998
252.363	3722
252.426	13748
252.489	4912
252.552	1817
252.615	-374
252.678	1502
252.741	2187
252.804	4097
252.867	14142
252.930	7754
252.993	1907
253.056	1397
253.119	-69
253.182	-151
253.245	487
253.308	916
253.371	-443
253.434	94
253.497	1063
253.559	1941
253.622	-119
253.685	-749
253.748	187
253.811	-109
253.874	581
253.937	-473
254.000	-195
254.062	-660
254.125	531
254.188	1651
254.251	119
254.314	-707
254.376	-685
254.439	173
254.502	-70
254.565	26
254.628	2057
254.690	-681
254.753	-443
254.816	-1341
254.878	-696
254.941	-18
255.004	542
255.067	220
255.129	-435
255.192	124
255.255	-781
255.317	-284
255.380	121
255.443	445
255.505	-631
255.568	-550
255.631	-1142
255.693	-730
255.756	-785
255.819	354
255.881	-692
255.944	29
256.006	-337
256.069	183
256.132	-1064
256.194	-504
256.257	90
256.319	-95
256.382	-806
256.444	1418
256.507	854
256.569	-208
256.632	76
256.694	-33
256.757	2978
256.819	10288
256.882	3308
256.944	229
257.007	900
257.069	51
257.132	-4
257.194	840
257.257	-523
257.319	-328
257.381	-466
257.444	2123
257.506	10678
257.569	14043
257.631	3402
257.693	1647
257.756	329
257.818	-252
257.880	64
257.943	790
258.005	-819
258.067	-33
258.130	-93
258.192	-554
258.254	-464
258.317	-427
258.379	149
258.441	-737
258.503	544
258.566	-408
258.628	199
258.690	-826
258.753	321
258.815	542
258.877	-541
258.939	203
259.001	-108
259.064	235
259.126	-615
259.188	-94
259.250	152
259.312	-47
259.375	-224
259.437	-727
259.499	-314
259.561	-193
259.623	-514
259.685	-144
259.747	284
259.809	179
259.872	120
259.934	729
259.996	1277
260.058	310
260.120	-1400
260.182	-175
260.244	-664
260.306	-868
260.368	-397
260.430	-616
260.492	-227
260.554	684
260.616	-988
260.678	-610
260.740	297
260.802	-537
260.864	862
260.926	-1061
260.988	590
261.050	-696
261.112	-606
261.174	1879
261.236	-303
261.298	-185
261.359	73
261.421	412
261.483	-440
261.545	650
261.607	-1285
261.669	700
261.731	-431
261.793	8
261.854	-992
261.916	-413
261.978	-385
262.040	-427
262.102	-562
262.164	-997
262.225	-401
262.287	4
262.349	-866
262.411	-630
262.472	-4
262.534	-1621
262.596	-1020
262.658	-21
262.719	-1223
262.781	-177
262.843	-956
262.904	145
262.966	118
263.028	48
263.090	1390
263.151	6049
263.213	1887
263.275	32
263.336	-440
263.398	-165
263.459	-1360
263.521	106
263.583	-51
263.644	-436
263.706	-926
263.767	-1313
263.829	-121
263.891	-397
263.952	-697
264.014	-671
264.075	-47
264.137	759
264.198	-560
264.260	-1026
264.321	-138
264.383	-344
264.444	1552
264.506	-233
264.567	-154
264.629	640
264.690	-150
264.752	220
264.813	-969
264.875	-82
264.936	511
264.998	-354
265.059	15
265.120	-134
265.182	-304
265.243	4421
265.305	6167
265.366	446
265.427	239
265.489	682
265.550	-1336
265.611	-369
265.673	-196
265.734	130
265.795	19
265.857	-761
265.918	-901
265.979	1180
266.040	8010
266.102	7824
266.163	1066
266.224	186
266.286	-154
266.347	-625
266.408	-1022
266.469	93
266.530	-215
266.592	-826
266.653	708
266.714	-558
266.775	-873
266.836	-259
266.898	-1231
266.959	-892
267.020	819
267.081	934
267.142	169
267.203	63
267.264	-1118
267.326	779
267.387	-822
267.448	-449
267.509	-81
267.570	-300
267.631	-1169
267.692	-819
267.753	511
267.814	-495
267.875	-517
267.936	212
267.997	-718
268.058	-421
268.119	-790
268.180	-651
268.241	-1218
268.302	-405
268.363	-525
268.424	-703
268.485	-734
268.546	-882
268.607	85
268.668	178
268.729	-872
268.790	-987
268.851	-503
268.912	-1106
268.972	-895
269.033	-1066
269.094	-1630
269.155	-252
269.216	-1157
269.277	-499
269.338	350
269.398	-288
269.459	-1541
269.520	135
269.581	-344
269.642	-959
269.702	-513
269.763	-843
269.824	-424
269.885	-779
269.945	-87
270.006	-724
270.067	-809
270.128	-476
270.188	-846
270.249	-620
270.310	-329
270.370	-485
270.431	-679
270.492	-345
270.553	-2
270.613	-1017
270.674	35
270.734	-915
270.795	-1203
270.856	-155
270.916	-871
270.977	-848
271.038	3
271.098	-761
271.159	-1626
271.219	-1290
271.280	331
271.340	-570
271.401	-1459
271.462	-933
271.522	-1239
271.583	-99
271.643	-172
271.704	-545
271.764	-1154
271.825	-794
271.885	1460
271.946	3016
272.006	-105
272.066	1107
272.127	2297
272.187	1998
272.248	13
272.308	-243
272.369	1063
272.429	-4
272.489	-821
272.550	-467
272.610	9
272.671	-152
272.731	-280
272.791	-1016
272.852	-850
272.912	-604
272.972	118
273.033	4
273.093	-626
273.153	494
273.214	-552
273.274	-442
273.334	392
273.394	2853
273.455	266
273.515	507
273.575	533
273.635	1482
273.696	762
273.756	1993
273.816	881
273.876	308
273.936	-26
273.997	649
274.057	-730
274.117	-389
274.177	-263
274.237	1128
274.297	1593
274.358	144
274.418	1293
274.478	464
274.538	73
274.598	-806
274.658	-1039
274.718	279
274.778	29
274.838	-591
274.898	-975
274.958	-292
275.018	2000
275.078	1148
275.138	-504
275.198	-1502
275.258	-662
275.318	-226
275.378	-559
275.438	-965
275.498	-811
275.558	-378
275.618	319
275.678	1123
275.738	38
275.798	-657
275.858	-770
275.918	-1239
275.978	-728
276.038	-250
276.098	-232
276.157	-796
276.217	95
276.277	43
276.337	-1354
276.397	-1611
276.457	-747
276.517	-380
276.576	-461
276.636	-1226
276.696	-746
276.756	381
276.815	-1044
276.875	-201
276.935	-493
276.995	-1204
277.055	-165
277.114	526
277.174	-464
277.234	31
277.293	-442
277.353	22
277.413	-8
277.472	-818
277.532	-244
277.592	441
277.651	2255
277.711	10096
277.771	2639
277.830	8124
277.890	9647
277.950	4249
278.009	17303
278.069	7396
278.128	5427
278.188	10677
278.248	3531
278.307	9318
278.367	6881
278.426	1223
278.486	5
278.545	-8
278.605	-147
278.664	-312
278.724	-648
278.783	400
278.843	3425
278.902	611
278.962	438
279.021	368
279.081	995
279.140	1019
279.199	640
279.259	728
279.318	1662
279.378	2257
279.437	3411
279.496	10858
279.556	48224
279.615	42337
279.675	10043
279.734	5126
279.793	3964
279.853	5797
279.912	2655
279.971	2547
280.031	1661
280.090	2597
280.149	4406
280.208	5331
280.268	32697
280.327	38347
280.386	8067
280.445	2527
280.505	1279
280.564	1339
280.623	650
280.682	605
280.742	878
280.801	152
280.860	-72
280.919	176
280.978	132
281.037	360
281.097	-388
281.156	118
281.215	152
281.274	-849
281.333	1301
281.392	858
281.451	-200
281.510	298
281.569	-1053
281.628	-393
281.688	189
281.747	42
281.806	-799
281.865	-180
281.924	-504
281.983	-1412
282.042	-1046
282.101	-528
282.160	-1108
282.219	-750
282.278	-801
282.337	-840
282.396	-819
282.454	-956
282.513	-229
282.572	-483
282.631	-286
282.690	-790
282.749	-848
282.808	-561
282.867	246
282.926	-153
282.985	78
283.043	-19
283.102	-291
283.161	-45
283.220	-11
283.279	629
283.338	39
283.396	-152
283.455	-107
283.514	420
283.573	532
283.631	802
283.690	-112
283.749	-171
283.808	464
283.866	784
283.925	169
283.984	831
284.043	788
284.101	311
284.160	653
284.219	1347
284.277	1700
284.336	727
284.395	2885
284.453	2987
284.512	1921
284.570	2464
284.629	3709
284.688	3799
284.746	5209
284.805	7101
284.863	8261
284.922	12399
284.981	14611
285.039	20643
285.098	30475
285.156	43948
285.215	41497
285.273	34517
285.332	46171
285.390	39656
285.449	26279
285.507	19271
285.566	13932
285.624	10886
285.683	7549
285.741	6317
285.799	5151
285.858	4927
285.916	3025
285.975	2852
286.033	2822
286.091	1580
286.150	1121
286.208	1582
286.267	1987
286.325	600
286.383	587
286.442	1505
286.500	467
286.558	904
286.616	70
286.675	293
286.733	389
286.791	342
286.850	611
286.908	549
286.966	361
287.024	87
287.083	110
287.141	-136
287.199	495
287.257	-75
287.315	-620
287.374	487
287.432	472
287.490	260
287.548	-330
287.606	243
287.664	596
287.723	964
287.781	528
287.839	-697
287.897	12
287.955	1036
288.013	1750
288.071	3464
288.129	12413
288.187	44150
288.245	22618
288.303	6326
288.361	3026
288.419	1985
288.477	63
288.535	759
288.593	957
288.651	232
288.709	-726
288.767	-132
288.825	-1146
288.883	155
288.941	-259
288.999	-644
289.057	-140
289.115	-503
289.173	-1045
289.231	-290
289.289	-394
289.346	62
289.404	-720
289.462	-748
289.520	-485
289.578	41
289.636	9
289.694	-925
289.751	-774
289.809	-285
289.867	-291
289.925	-385
289.983	-60
290.040	-165
290.098	-593
290.156	-745
290.214	-1278
290.271	-342
290.329	18
290.387	-574
290.444	-506
290.502	-746
290.560	-382
290.617	-335
290.675	249
290.733	-790
290.790	48
290.848	-67
290.906	-236
290.963	-492
291.021	-780
291.078	-110
291.136	-445
291.194	-493
291.251	618
291.309	-452
291.366	-797
291.424	-1337
291.481	-564
291.539	-1377
291.596	764
291.654	-470
291.711	-915
291.769	-524
291.826	-579
291.884	-323
291.941	-1230
291.999	-756
292.056	-558
292.114	-846
292.171	-1701
292.228	-710
292.286	-660
292.343	-378
292.401	-274
292.458	-275
292.515	-1345
292.573	193
292.630	-1495
292.687	-961
292.745	-363
292.802	-296
292.859	144
292.917	438
292.974	-361
293.031	192
293.089	-596
293.146	-928
293.203	-1093
293.260	-757
293.318	-1150
293.375	-426
293.432	-120
293.489	-142
293.546	-509
293.604	-279
293.661	611
293.718	3415
293.775	1448
293.832	1039
293.889	1153
293.947	1558
294.004	137
294.061	-1131
294.118	-714
294.175	1413
294.232	3906
294.289	1208
294.346	-51
294.403	479
294.460	-760
294.517	-543
294.574	-847
294.631	-251
294.688	-554
294.745	-570
294.802	1960
294.859	4017
294.916	1330
294.973	-814
295.030	-1012
295.087	-538
295.144	-725
295.201	-10
295.258	-1063
295.315	-28
295.372	-561
295.429	1262
295.486	92
295.542	428
295.599	1223
295.656	3487
295.713	1237
295.770	1620
295.827	133
295.883	-373
295.940	-338
295.997	-1151
296.054	-968
296.111	-313
296.167	-953
296.224	-842
296.281	-1114
296.338	-160
296.394	-610
296.451	-1212
296.508	-90
296.564	389
296.621	486
296.678	1483
296.734	4447
296.791	1041
296.848	-464
296.904	-997
296.961	48
297.018	1107
297.074	1607
297.131	-384
297.187	119
297.244	178
297.301	1154
297.357	4641
297.414	1913
297.470	-506
297.527	-388
297.583	-451
297.640	-441
297.696	-1142
297.753	-557
297.809	-777
297.866	-1089
297.922	-149
297.979	-1067
298.035	-583
298.092	-734
298.148	-502
298.204	374
298.261	-93
298.317	-193
298.374	2430
298.430	1985
298.486	-39
298.543	-1297
298.599	-530
298.656	-848
298.712	-590
298.768	2752
298.824	2902
298.881	520
298.937	274
298.993	67
299.050	-1108
299.106	-400
299.162	-572
299.218	99
299.275	-62
299.331	-296
299.387	-73
299.443	2936
299.500	7951
299.556	6064
299.612	1810
299.668	1001
299.724	4910
299.780	8808
299.837	2407
299.893	850
299.949	3731
300.005	7247
300.061	5998
300.117	10925
300.173	4658
300.229	790
300.285	428
300.341	491
300.397	-227
300.453	280
300.510	-132
300.566	-111
300.622	1802
300.678	8801
300.734	13967
300.790	6560
300.845	5072
300.901	4029
300.957	9936
301.013	4781
301.069	934
301.125	171
301.181	-439
301.237	515
301.293	256
301.349	-199
301.405	-633
301.461	-573
301.516	-321
301.572	-632
301.628	-1349
301.684	-759
301.740	-111
301.796	-45
301.851	-270
301.907	-336
301.963	310
302.019	661
302.074	6101
302.130	7751
302.186	3052
302.242	882
302.297	-213
302.353	-40
302.409	466
302.464	280
302.520	269
302.576	1385
302.631	2334
302.687	132
302.743	-784
302.798	-522
302.854	134
302.910	-211
302.965	-1143
303.021	-47
303.076	437
303.132	-80
303.187	-393
303.243	-372
303.299	-183
303.354	-1042
303.410	155
303.465	-534
303.521	-1014
303.576	-229
303.632	-246
303.687	-442
303.743	1811
303.798	2150
303.853	236
303.909	-526
303.964	-1121
304.020	139
304.075	328
304.130	-544
304.186	513
304.241	754
304.297	594
304.352	-930
304.358	-842
304.407	-126
304.449	317
304.463	469
304.518	-965
304.539	-937
304.573	-904
304.629	-861
304.630	-849
304.684	-344
304.720	402
304.739	780
304.794	2719
304.811	2455
304.850	1809
304.902	-71
304.905	-196
304.960	-797
304.992	-616
305.015	-465
305.071	-143
305.083	-26
305.126	328
305.173	-527
305.181	-650
305.236	-1029
305.264	-809
305.292	-675
305.347	-1032
305.354	-926
305.402	-148
305.445	-659
305.457	-821
305.512	154
305.535	-13
305.567	-169
305.622	-88
305.626	-52
305.678	392
305.716	1248
305.733	1630
305.788	1562
305.807	1381
305.843	1053
305.897	1664
305.898	1672
305.953	1965
305.988	1337
306.008	967
306.063	369
306.078	269
306.118	99
306.168	-78
306.173	-100
306.228	-318
306.259	-378
306.283	-397
306.338	-152
306.349	-1
306.393	537
306.440	146
306.448	90
306.503	467
306.530	279
306.558	78
306.613	638
306.620	598
306.668	390
306.711	808
306.723	872
306.778	543
306.801	596
306.833	782
306.888	-59
306.892	-40
306.943	162
306.982	-235
306.997	-353
307.052	2
307.072	-86
307.107	-271
307.162	63
307.163	66
307.217	629
307.253	593
307.272	431
307.327	458
307.343	299
307.381	330
307.434	152
307.436	146
307.491	1414
307.524	1680
307.546	1670
307.600	886
307.614	778
307.655	480
307.704	272
307.710	291
307.765	682
307.795	670
307.819	554
307.874	1038
307.885	1042
307.929	1137
307.975	1530
307.984	1686
308.038	2702
308.065	3670
308.093	6116
308.148	12835
308.156	14954
308.202	26153
308.246	34133
308.257	34326
308.312	18915
308.336	12810
308.366	8216
308.421	3956
308.426	3755
308.475	2886
308.517	2565
308.530	2283
308.585	1486
308.607	1333
308.639	1660
308.694	1843
308.697	1875
308.748	2075
308.787	2562
308.803	2725
308.857	2339
308.877	2353
308.912	2362
308.967	2501
308.967	2517
309.021	4389
309.058	5710
309.076	6560
309.130	10384
309.148	12043
309.185	20680
309.238	36486
309.239	36594
309.293	45908
309.328	43870
309.348	39479
309.402	20749
309.418	16482
309.457	11710
309.508	7846
309.511	7681
309.566	7202
309.598	7791
309.620	9183
309.674	13992
309.688	15535
309.729	16090
309.778	13133
309.783	12799
309.837	8273
309.868	6254
309.892	5157
309.946	3436
309.959	3133
310.001	2810
310.049	2894
310.055	2879
310.109	2584
310.139	2284
310.163	1531
310.218	413
310.229	225
310.272	827
310.319	1275
310.326	1200
310.381	641
310.409	587
310.435	776
310.489	644
310.499	702
310.543	838
310.589	705
310.598	704
310.652	922
310.679	907
310.706	883
310.760	970
310.769	966
310.814	724
310.859	608
310.868	649
310.923	773
310.948	818
310.977	768
311.031	729
311.038	715
311.085	557
311.128	376
311.139	444
311.193	832
311.218	977
311.247	1063
311.301	1343
311.308	1359
311.356	1248
311.398	1174
311.410	1153
311.464	987
311.488	916
311.518	906
311.572	874
311.578	869
311.626	973
311.668	1020
311.680	1015
311.734	973
311.758	955
311.788	739
311.842	355
311.847	314
311.896	803
311.937	1217
311.950	1074
312.004	445
312.027	174
312.058	394
312.112	790
312.117	829
312.165	971
312.207	1092
312.297	80
312.386	830
312.476	811
312.566	1364
312.656	1413
312.745	1270
312.835	1020
312.925	473
313.015	819
313.104	486
313.194	792
313.284	1339
313.374	714
313.463	434
313.553	402
313.643	216
313.732	489
313.822	896
313.912	1286
314.001	1436
314.091	617
314.180	889
314.270	1591
314.360	648
314.449	1191
314.539	881
314.628	441
314.718	1038
314.808	576
314.897	1573
314.987	1849
315.076	1399
315.166	1211
315.255	659
315.345	1158
315.434	563
315.524	1261
315.613	667
315.703	1063
315.792	2319
315.881	8782
315.971	1922
316.060	2079
316.150	926
316.239	1237
316.328	710
316.418	1404
316.507	555
316.597	931
316.686	774
316.775	791
316.865	1439
316.954	385
317.043	648
317.133	1080
317.222	733
317.311	1073
317.400	-459
317.490	1784
317.579	418
317.668	982
317.757	1921
317.847	4803
317.936	13732
318.025	4300
318.114	2777
318.203	2035
318.293	994
318.382	1564
318.471	2133
318.560	1765
318.649	4139
318.738	828
318.828	1177
318.917	843
319.006	828
319.095	1551
319.184	3697
319.273	2009
319.362	958
319.451	419
319.540	216
319.629	1271
319.718	1628
319.807	675
319.896	1291
319.985	4151
320.074	1611
320.163	759
320.252	511
320.341	1341
320.430	921
320.519	577
320.608	700
320.697	1225
320.786	963
320.875	1768
320.964	793
321.053	1844
321.142	1261
321.230	2313
321.319	2314
321.408	2620
321.497	2704
321.586	2187
321.675	912
321.764	2261
321.852	1363
321.941	1463
322.030	1499
322.119	1268
322.207	2435
322.296	2710
322.385	2043
322.474	3676
322.562	2924
322.651	3008
322.740	2067
322.829	2318
322.917	1421
323.006	1425
323.095	1502
323.183	1278
323.272	473
323.361	1547
323.449	3368
323.538	1103
323.626	1811
323.715	837
323.804	339
323.892	1249
323.981	589
324.069	1785
324.158	953
324.246	1273
324.335	1008
324.424	973
324.512	1159
324.601	567
324.689	942
324.778	1090
324.866	512
324.954	932
325.043	459
325.131	-199
325.220	1583
325.308	1061
325.397	465
325.485	1168
325.574	-43
325.662	21
325.750	747
325.839	816
325.927	63
326.015	1046
326.104	781
326.192	582
326.280	240
326.369	54
326.457	47
326.545	273
326.634	74
326.722	609
326.810	172
326.898	1212
326.987	168
327.075	-329
327.163	822
327.251	-146
327.340	771
327.428	1175
327.516	373
327.604	1214
327.692	154
327.781	813
327.869	369
327.957	195
328.045	28
328.133	941
328.221	291
328.309	1529
328.397	150
328.485	111
328.574	849
328.662	1818
328.750	1036
328.838	554
328.926	742
329.014	1299
329.102	389
329.190	1406
329.278	-7
329.366	457
329.454	-196
329.542	485
329.630	-742
329.718	1096
329.806	12
329.893	885
329.981	-716
330.069	388
330.157	1289
330.245	1921
330.333	814
330.421	364
330.509	799
330.597	1114
330.684	164
330.772	313
330.860	-133
330.948	819
331.036	778
331.123	398
331.211	575
331.299	-4
331.387	723
331.475	496
331.562	212
331.650	578
331.738	136
331.825	277
331.913	451
332.001	876
332.089	249
332.176	647
332.264	217
332.352	319
332.439	867
332.527	542
332.614	-271
332.702	848
332.790	-26
332.877	77
332.965	1942
333.052	1057
333.140	1557
333.228	3332
333.315	794
333.403	287
333.490	1151
333.578	877
333.665	5475
333.753	2361
333.840	-6
333.928	1154
334.015	1039
334.103	2226
334.190	5516
334.278	3712
334.365	3737
334.452	3669
334.540	1019
334.627	1981
334.715	2679
334.802	3754
334.889	7797
334.977	11113
335.064	5933
335.151	2042
335.239	1790
335.326	1704
335.413	2700
335.501	4503
335.588	1217
335.675	1588
335.762	1622
335.850	2141
335.937	4381
336.024	7788
336.111	15035
336.199	13429
336.286	4568
336.373	3053
336.460	1604
336.547	1594
336.635	1567
336.722	1399
336.809	1395
336.896	504
336.983	1428
337.070	3965
337.157	5122
337.245	2961
337.332	1653
337.419	1189
337.506	-40
337.593	176
337.680	1240
337.767	3648
337.854	630
337.941	824
338.028	473
338.115	-816
338.202	647
338.289	938
338.376	1190
338.463	1486
338.550	1899
338.637	1731
338.724	788
338.811	861
338.898	498
338.984	350
339.071	903
339.158	1005
339.245	439
339.332	877
339.419	338
339.506	817
339.593	-92
339.679	836
339.766	-393
339.853	230
339.940	448
340.027	1278
340.113	778
340.200	603
340.287	-33
340.374	311
340.460	630
340.547	-249
340.634	691
340.720	1498
340.807	340
340.894	988
340.980	421
341.067	65
341.154	946
341.240	204
341.327	1042
341.414	480
341.500	-802
341.587	1600
341.674	1101
341.760	1078
341.847	125
341.933	189
342.020	-639
342.106	613
342.193	456
342.279	913
342.366	-230
342.452	540
342.539	203
342.625	724
342.712	406
342.798	581
342.885	206
342.971	325
343.058	147
343.144	213
343.230	344
343.317	228
343.403	-279
343.490	160
343.576	172
343.662	134
343.749	-874
343.835	668
343.921	1152
344.008	2654
344.094	6014
344.180	2220
344.267	16
344.353	296
344.439	887
344.525	252
344.612	2237
344.698	522
344.784	111
344.870	1019
344.957	-581
345.043	1301
345.129	-582
345.215	849
345.301	-369
345.387	178
345.474	-591
345.560	-467
345.646	-287
345.732	768
345.818	-281
345.904	236
345.990	125
346.076	306
346.162	89
346.249	1148
346.335	-904
346.421	470
346.507	114
346.593	1651
346.679	-374
346.765	468
346.851	268
346.937	-214
347.023	630
347.108	452
347.194	259
347.280	906
347.366	215
347.452	2232
347.538	2856
347.624	3389
347.710	1165
347.796	63
347.882	112
347.967	327
348.053	58
348.139	139
348.225	-185
348.311	125
348.397	621
348.482	1049
348.568	899
348.654	-376
348.740	3038
348.825	1992
348.911	2145
348.997	994
349.083	2764
349.168	322
349.254	126
349.340	3
349.425	449
349.511	352
349.597	-66
349.682	-223
349.768	832
349.854	390
349.939	1288
350.025	679
350.110	215
350.196	-37
350.282	-713
350.367	644
350.453	409
350.538	-207
350.624	-440
350.709	699
350.795	-98
350.880	78
350.966	849
351.051	571
351.137	29
351.222	1003
351.308	208
351.393	868
351.479	-814
351.564	-472
351.649	953
351.735	734
351.820	-62
351.906	265
351.991	-326
352.076	179
352.162	47
352.247	777
352.332	809
352.418	-692
352.503	103
352.588	1088
352.673	718
352.759	236
352.844	-71
352.929	669
353.014	-418
353.100	650
353.185	784
353.270	-327
353.355	954
353.441	1362
353.526	218
353.611	690
353.696	-149
353.781	1278
353.866	-355
353.952	539
354.037	-721
354.122	1353
354.207	101
354.292	-553
354.377	651
354.462	-31
354.547	-641
354.632	901
354.717	802
354.802	-243
354.887	-407
354.972	133
355.057	-222
355.142	-623
355.227	-67
355.312	116
355.397	-262
355.482	192
355.567	-502
355.652	342
355.737	-284
355.822	1818
355.907	206
355.991	846
356.076	-355
356.161	762
356.246	-305
356.331	-28
356.416	-1037
356.501	3148
356.585	1188
356.670	-658
356.755	1961
356.840	711
356.924	1264
357.009	4804
357.094	1653
357.179	366
357.263	522
357.348	1031
357.433	495
357.517	74
357.602	-331
357.687	-496
357.771	475
357.856	634
357.941	1150
358.025	2118
358.110	7760
358.195	3269
358.279	52
358.364	-219
358.448	621
358.533	2067
358.617	336
358.702	1769
358.787	473
358.871	57
358.956	475
359.040	-362
359.125	-363
359.209	818
359.294	82
359.378	1204
359.462	1011
359.547	-397
359.631	-536
359.716	-865
359.800	-109
359.885	603
359.969	-947
360.053	509
360.138	-243
360.222	311
360.306	-535
360.391	175
360.475	186
360.559	712
360.644	575
360.728	277
360.812	1593
360.896	3605
360.981	629
361.065	-123
361.149	1123
361.233	-97
361.318	-970
361.402	385
361.486	595
361.570	162
361.654	507
361.739	-293
361.823	709
361.907	4120
361.991	127
362.075	1074
362.159	329
362.243	3704
362.327	8046
362.411	15427
362.495	4171
362.580	2213
362.664	2354
362.748	632
362.832	2463
362.916	5416
363.000	23879
363.084	39840
363.168	14164
363.252	3758
363.336	1617
363.420	2056
363.503	3181
363.587	4354
363.671	908
363.755	161
363.839	2063
363.923	95
364.007	1456
364.091	2187
364.175	3177
364.258	15644
364.342	26502
364.426	58431
364.510	27276
364.594	7789
364.677	3807
364.761	3294
364.845	2472
364.929	625
365.013	615
365.096	1043
365.180	-218
365.264	1702
365.347	6832
365.431	2973
365.515	-545
365.598	-92
365.682	1268
365.766	-181
365.849	-224
365.933	-378
366.017	1587
366.100	-670
366.184	-722
366.267	982
366.351	209
366.435	-445
366.518	-79
366.602	506
366.685	550
366.769	12
366.852	454
366.936	1081
367.019	-150
367.103	-607
367.186	938
367.270	381
367.353	-182
367.436	844
367.520	-110
367.603	488
367.687	-1453
367.770	-514
367.853	893
367.937	1618
368.020	1537
368.104	-895
368.187	444
368.270	-103
368.353	-534
368.437	149
368.520	1160
368.603	299
368.687	-405
368.770	1175
368.853	-573
368.936	1075
369.020	622
369.103	7
369.186	140
369.269	-242
369.352	818
369.436	-58
369.519	-150
369.602	-954
369.685	1514
369.768	-707
369.851	430
369.934	-296
370.018	107
370.101	-802
370.184	2098
370.267	357
370.350	342
370.433	415
370.516	2565
370.599	5047
370.682	-133
370.765	1232
370.848	1774
370.931	834
371.014	1876
371.097	-1078
371.180	956
371.263	1312
371.346	-485
371.429	844
371.511	-69
371.594	-323
371.677	1375
371.760	1638
371.843	365
371.926	3296
372.009	6455
372.091	5240
372.174	775
372.257	3079
372.340	843
372.423	1175
372.505	1607
372.588	21
372.671	1866
372.754	651
372.836	873
372.919	1890
373.002	3719
373.085	244
373.167	1066
373.250	788
373.332	2234
373.415	4840
373.498	7014
373.580	4131
373.663	8497
373.746	9419
373.828	1332
373.911	1847
373.993	-248
374.076	3102
374.159	2214
374.241	844
374.324	1453
374.406	1580
374.489	1908
374.571	5978
374.654	1755
374.736	1062
374.819	3141
374.901	6699
374.983	5573
375.066	1787
375.148	347
375.231	3094
375.313	5289
375.395	961
375.478	608
375.560	1177
375.643	344
375.725	1336
375.807	2528
375.890	4272
375.972	434
376.054	1046
376.136	912
376.219	450
376.301	1773
376.383	2003
376.465	1102
376.548	-254
376.630	664
376.712	2688
376.794	406
376.877	32
376.959	-647
377.041	675
377.123	693
377.205	1012
377.287	-751
377.369	914
377.452	-650
377.534	580
377.616	-254
377.698	388
377.780	-421
377.862	280
377.944	951
378.026	-404
378.108	862
378.190	95
378.272	539
378.354	-229
378.436	-88
378.518	-540
378.600	145
378.682	566
378.764	832
378.846	863
378.928	-536
379.010	-861
379.091	275
379.173	-81
379.255	-1219
379.337	-313
379.419	-211
379.501	1188
379.583	-260
379.664	108
379.746	-1108
379.828	2305
379.910	-81
379.991	2056
380.073	-1022
380.155	1089
380.237	74
380.318	-211
380.400	43
380.482	582
380.564	-405
380.645	-272
380.727	-45
380.809	493
380.890	-257
380.972	-473
381.053	61
381.135	984
381.217	-653
381.298	2003
381.380	-232
381.461	719
381.543	2261
381.624	2769
381.706	272
381.787	652
381.869	902
381.951	958
382.032	4243
382.113	5725
382.195	-403
382.276	2912
382.358	881
382.439	2395
382.521	4374
382.602	6722
382.684	3870
382.765	6870
382.846	17211
382.928	43929
383.009	23645
383.090	16280
383.172	57267
383.253	82290
383.334	22719
383.416	7869
383.497	5360
383.578	7005
383.659	12578
383.741	46372
383.822	112224
383.903	55715
383.984	10482
384.066	8431
384.147	3401
384.228	2896
384.309	2109
384.390	2151
384.471	1630
384.553	1904
384.634	594
384.715	1619
384.796	1138
384.877	569
384.958	1469
385.039	437
385.120	-70
385.201	2204
385.282	753
385.363	2120
385.444	452
385.525	2236
385.606	2798
385.687	1627
385.768	897
385.849	221
385.930	3539
386.011	6824
386.092	139
386.173	760
386.254	691
386.335	1959
386.416	290
386.496	951
386.577	793
386.658	1239
386.739	-329
386.820	1333
386.901	-990
386.981	1727
387.062	469
387.143	800
387.224	989
387.304	2905
387.385	2695
387.466	497
387.547	2300
387.627	1409
387.708	2285
387.789	3525
387.869	1767
387.950	2233
388.031	500
388.111	-1260
388.192	1277
388.273	2244
388.353	67
388.434	1001
388.514	325
388.595	2280
388.676	2312
388.756	1856
388.837	1363
388.917	812
388.998	-1833
389.078	1140
389.159	870
389.239	-1710
389.320	2336
389.400	-1296
389.480	1191
389.561	303
389.641	1161
389.722	174
389.802	-1072
389.883	645
389.963	1947
390.043	658
390.124	-1192
390.204	430
390.284	1050
390.365	459
390.445	2482
390.525	4887
390.605	4760
390.686	-170
390.766	1072
390.846	1385
390.927	-387
391.007	-51
391.087	821
391.167	454
391.247	-1080
391.328	177
391.408	546
391.488	493
391.568	-1064
391.648	454
391.728	948
391.808	1062
391.888	-162
391.969	825
392.049	935
392.129	1831
392.209	155
392.289	2803
392.369	1352
392.449	1710
392.529	790
392.609	2599
392.689	3304
392.769	3667
392.849	3429
392.929	5797
393.009	7614
393.089	9368
393.169	20547
393.248	59913
393.328	181510
393.408	183788
393.488	60958
393.568	19900
393.648	9879
393.728	5925
393.807	3348
393.887	4533
393.967	2231
394.047	2306
394.127	1640
394.206	3445
394.286	9564
394.366	46289
394.446	48803
394.525	8913
394.605	2219
394.685	2043
394.764	3002
394.844	4427
394.924	3901
395.003	1847
395.083	669
395.163	273
395.242	76
395.322	1204
395.402	-814
395.481	2129
395.561	1143
395.640	7652
395.720	13227
395.799	7462
395.879	2978
395.958	3016
396.038	13577
396.117	58363
396.197	61609
396.276	16075
396.356	4879
396.435	3722
396.515	4510
396.594	7012
396.673	16593
396.753	61619
396.832	163331
396.912	111390
396.991	25612
397.070	9875
397.150	3504
397.229	4769
397.308	8980
397.388	18070
397.467	8103
397.546	2457
397.625	-715
397.705	2719
397.784	974
397.863	135
397.942	228
398.022	14
398.101	13
398.180	2817
398.259	704
398.338	1489
398.417	-426
398.497	-515
398.576	322
398.655	-757
398.734	708
398.813	28
398.892	483
398.971	3467
399.050	542
399.129	-532
399.208	-347
399.287	481
399.366	-526
399.445	-636
399.524	292
399.603	-1096
399.682	62
399.761	-170
399.840	3055
399.919	3373
399.998	-127
400.077	-230
400.156	-1062
400.235	2473
400.313	-1022
400.392	-1265
400.471	128
400.550	1236
400.629	-959
400.708	197
400.786	-899
400.865	-303
400.944	-965
401.023	1555
401.102	-1101
401.180	393
401.259	-456
401.338	-1154
401.416	233
401.495	-1226
401.574	660
401.652	-595
401.731	144
401.810	-1387
401.888	-614
401.967	-712
402.046	-521
402.124	-617
402.203	-622
402.281	-144
402.360	-1257
402.438	437
402.517	-2010
402.596	-634
402.674	-999
402.753	-1332
402.831	-389
402.910	-190
402.988	-1418
403.066	-921
403.145	651
403.223	858
403.302	-185
403.380	330
403.459	-611
403.537	-1079
403.615	-344
403.694	-1082
403.772	263
403.850	-451
403.929	-603
404.007	-595
404.085	909
404.164	-841
404.242	-655
404.320	2709
404.398	8117
404.477	5398
404.555	3360
404.633	3795
404.711	5455
404.789	3770
404.868	-632
404.946	-474
405.024	-247
405.102	-71
405.180	-1220
405.258	-1756
405.336	71
405.415	-1337
405.493	-527
405.571	5
405.649	-1168
405.727	-2028
405.805	-55
405.883	-142
405.961	77
406.039	-528
406.117	-1591
406.195	-229
406.273	-1836
406.351	1376
406.429	1134
406.507	-576
406.585	-592
406.663	-543
406.740	-702
406.818	-1371
406.896	-1135
406.974	-433
407.052	-2417
407.130	397
407.208	1346
407.285	862
407.363	-1248
407.441	-273
407.519	-735
407.596	-378
407.674	-76
407.752	2487
407.830	1556
407.907	-14
407.985	-1373
408.063	-515
408.141	-594
408.218	572
408.296	-1941
408.373	-945
408.451	-363
408.529	-1145
408.606	-1003
408.684	-489
408.762	-1327
408.839	440
408.917	-1112
408.994	-245
409.072	-910
409.149	851
409.227	1340
409.304	2172
409.382	2206
409.459	2516
409.537	4169
409.614	3518
409.692	1509
409.769	1429
409.846	3429
409.924	6237
410.001	1251
410.079	893
410.156	1824
410.233	206
410.311	-215
410.388	-158
410.465	207
410.543	-1349
410.620	810
410.697	814
410.775	-625
410.852	-1067
410.929	8
411.006	916
411.083	-350
411.161	-488
411.238	-354
411.315	-156
411.392	-1050
411.469	204
411.547	-466
411.624	-1696
411.701	-953
411.778	130
411.855	-976
411.932	-1607
412.009	-193
412.086	70
412.163	-488
412.240	-916
412.317	-151
412.394	-981
412.471	-71
412.548	-1587
412.625	-963
412.702	-999
412.779	-284
412.856	-100
412.933	-1171
413.010	-778
413.087	-613
413.164	-962
413.241	-83
413.318	-1324
413.395	-508
413.471	-1136
413.548	-715
413.625	510
413.702	-1854
413.779	-618
413.855	-1308
413.932	-1441
414.009	-2016
414.086	-629
414.162	-1186
414.239	-672
414.316	-863
414.393	738
414.469	-1360
414.546	-413
414.623	-669
414.699	-564
414.776	-1444
414.853	-231
414.929	-274
415.006	-1257
415.082	-1099
415.159	-503
415.236	-416
415.312	-478
415.389	-435
415.465	-1273
415.542	-1397
415.618	-1247
415.695	-577
415.771	-1663
415.848	-1776
415.924	-672
416.000	-1427
416.077	-278
416.153	-2183
416.230	-1264
416.306	-554
416.383	-1312
416.459	-418
416.535	-1128
416.612	-1185
416.688	-137
416.764	-1701
416.841	-1585
416.917	-1260
416.993	-831
417.069	-505
417.146	-1503
417.222	-1588
417.298	-776
417.374	-1439
417.451	440
417.527	-1512
417.603	-781
417.679	-1093
417.755	-940
417.831	-1338
417.908	-1267
417.984	-1437
418.060	-2187
418.136	-765
418.212	-450
418.288	-1176
418.364	-639
418.440	-1482
418.516	-610
418.592	-1400
418.668	-1086
418.744	-1229
418.820	-351
418.896	-1198
418.972	-1343
419.048	-579
419.124	390
419.200	-2381
419.276	-642
419.352	-1296
419.428	-484
419.504	-1568
419.579	-700
419.655	-1172
419.731	-677
419.807	-767
419.883	-1203
419.959	-698
420.034	-162
420.110	-1173
420.186	-622
420.262	262
420.337	180
420.413	-276
420.489	-641
420.565	533
420.640	-330
420.716	207
420.792	-1150
420.867	-189
420.943	-1127
421.019	-231
421.094	-611
421.170	47
421.245	236
421.321	543
421.397	-37
421.472	1122
421.548	1681
421.623	1932
421.699	1313
421.774	1425
421.850	1574
421.925	2103
422.001	3927
422.076	3945
422.152	4899
422.227	7588
422.302	11626
422.378	18145
422.453	31513
422.529	60420
422.604	97796
422.679	103320
422.755	97940
422.830	65089
422.905	35043
422.981	20047
423.056	14114
423.131	10081
423.207	6736
423.282	4460
423.357	4445
423.432	2861
423.508	2740
423.583	889
423.658	1696
423.733	1624
423.808	732
423.883	720
423.959	1483
424.034	1855
424.109	1829
424.184	91
424.259	39
424.334	-168
424.409	-644
424.484	-278
424.559	-349
424.634	-944
424.709	-579
424.784	-785
424.859	-77
424.934	-425
425.009	-208
425.084	338
425.159	-522
425.234	-297
425.309	-1455
425.384	-491
425.459	-1077
425.534	-335
425.609	-605
425.683	-780
425.758	-731
425.833	-1153
425.908	-288
425.983	-1140
426.058	577
426.132	-1796
426.207	-853
426.282	591
426.357	-1915
426.431	-1099
426.506	-475
426.581	-1141
426.655	-651
426.730	-1350
426.805	-835
426.879	-1214
426.954	-1285
427.029	-1168
427.103	-702
427.178	-167
427.253	-388
427.327	-1284
427.402	-1092
427.476	-843
427.551	-1378
427.625	-678
427.700	-944
427.774	-1613
427.849	-211
427.923	-2315
427.998	-1199
428.072	-777
428.147	-84
428.221	8403
428.296	31610
428.370	16252
428.444	738
428.519	-580
428.593	-879
428.667	-788
428.742	-4
428.816	2571
428.890	17934
428.965	28841
429.039	6463
429.113	636
429.188	-988
429.262	-1371
429.336	-707
429.410	-1176
429.485	-707
429.559	-468
429.633	0
429.707	-537
429.781	1303
429.855	15669
429.930	25777
430.004	5287
430.078	3859
430.152	9773
430.226	40633
430.300	41799
430.374	6282
430.448	1337
430.522	550
430.596	1338
430.670	5008
430.744	22783
430.818	26113
430.892	3095
430.966	-491
431.040	-697
431.114	-1296
431.188	-1054
431.262	-1124
431.336	-1339
431.410	-329
431.484	-1434
431.557	-868
431.631	-877
431.705	482
431.779	5235
431.853	30522
431.927	19401
432.000	1847
432.074	-661
432.148	-865
432.222	-1897
432.295	-1117
432.369	-1510
432.443	-925
432.516	-598
432.590	338
432.664	-1035
432.737	-1443
432.811	-1570
432.885	-779
432.958	-906
433.032	-1123
433.106	-1865
433.179	-1395
433.253	-1393
433.326	-978
433.400	-1908
433.473	-1099
433.547	-2260
433.620	-1182
433.694	-782
433.767	-862
433.841	-1495
433.914	-990
433.988	-1022
434.061	-634
434.134	-1520
434.208	-1242
434.281	-1369
434.355	-1449
434.428	-787
434.501	-1344
434.575	-1084
434.648	-1567
434.721	-1401
434.795	-1145
434.868	-1457
434.941	-1411
435.014	-940
435.088	-1532
435.161	-491
435.234	-976
435.307	-1030
435.381	-750
435.454	-500
435.527	892
435.600	1409
435.673	1387
435.746	-201
435.819	-152
435.892	-704
435.966	-1175
436.039	-794
436.112	-609
436.185	-794
436.258	-1240
436.331	-1834
436.404	-1401
436.477	-1463
436.550	-1416
436.623	-1188
436.696	-1801
436.769	-1647
436.842	-1098
436.915	-1509
436.987	-1739
437.060	-1155
437.133	-1226
437.206	-1668
437.279	-955
437.352	-1488
437.425	-1397
437.498	-1376
437.570	-1312
437.643	-1815
437.716	-1523
437.789	-1996
437.861	-1084
437.934	-1882
438.007	-1537
438.080	-1464
438.152	-1446
438.225	-808
438.298	-238
438.370	1032
438.443	-358
438.516	-655
438.588	-1210
438.661	-2392
438.734	-695
438.806	-1690
438.879	-1324
438.951	-1821
439.024	-1567
439.096	-1466
439.169	-1680
439.241	-1577
439.314	-1307
439.386	-1645
439.459	-1281
439.531	-836
439.604	-1703
439.676	-837
439.749	-1480
439.821	-1386
439.893	-384
439.966	-957
440.038	-2186
440.110	-1516
440.183	-1968
440.255	-1945
440.327	-512
440.400	-1297
440.472	4
440.544	-643
440.617	-1077
440.689	-507
440.761	-767
440.833	-1331
440.905	-561
440.978	-1690
441.050	-930
441.122	-586
441.194	-1298
441.266	-1507
441.338	-892
441.411	-1038
441.483	-1119
441.555	-622
441.627	-1364
441.699	-1071
441.771	-993
441.843	-1294
441.915	-1382
441.987	-698
442.059	-809
442.131	-664
442.203	-300
442.275	-904
442.347	494
442.419	3025
442.491	21062
442.563	51834
442.635	20143
442.706	2620
442.778	618
442.850	-560
442.922	-518
442.994	-287
443.066	-854
443.137	201
443.209	440
443.281	1689
443.353	4907
443.425	23443
443.496	80057
443.568	82974
443.640	34331
443.711	5903
443.783	930
443.855	180
443.926	-522
443.998	-10
444.070	298
444.141	-819
444.213	-928
444.285	-579
444.356	-680
444.428	-1488
444.499	-908
444.571	-1126
444.642	-774
444.714	-1382
444.785	-871
444.857	-586
444.928	-818
445.000	-184
445.071	192
445.143	722
445.214	1918
445.285	3185
445.357	11788
445.428	50294
445.500	102315
445.571	75211
445.642	48236
445.714	14736
445.785	4324
445.856	264
445.928	99
445.999	141
446.070	181
446.141	-777
446.213	-466
446.284	-1403
446.355	-1069
446.426	-931
446.497	-616
446.569	-914
446.640	-1152
446.711	-953
446.782	-1080
446.853	-1472
446.924	-1332
446.995	-1251
447.066	-250
447.138	-1032
447.209	-894
447.280	-2416
447.351	-1011
447.422	-1211
447.493	-995
447.564	-1562
447.635	-2039
447.706	-1263
447.777	-1925
447.847	-1127
447.918	-1212
447.989	-1304
448.060	-569
448.131	-1588
448.202	-1227
448.273	-1628
448.344	-1004
448.414	-1503
448.485	-1449
448.556	-1046
448.627	-1604
448.698	-733
448.768	-1583
448.839	-1631
448.910	-671
448.981	-1170
449.051	-1639
449.122	-1704
449.193	-1756
449.263	-2221
449.334	-1399
449.405	-757
449.475	-1109
449.546	-1238
449.616	-930
449.687	-411
449.758	-1355
449.828	-1508
449.899	-1794
449.969	-1455
450.040	-1435
450.110	-1577
450.181	-747
450.251	-915
450.322	-851
450.392	-1710
450.463	-946
450.533	-1508
450.604	-1800
450.674	-1580
450.744	-1288
450.815	-1799
450.885	-1077
450.955	-400
451.026	-738
451.096	-1500
451.166	-1585
451.237	-1775
451.307	-73
451.377	-289
451.447	-1607
451.518	-1141
451.588	-339
451.658	-906
451.728	-1350
451.799	-1479
451.869	-940
451.939	-1644
452.009	-1559
452.079	-1958
452.149	-984
452.219	-1067
452.289	-1056
452.360	-570
452.430	-489
452.500	-701
452.570	-637
452.640	1536
452.710	4769
452.780	6438
452.850	2867
452.920	-295
452.990	476
453.060	-665
453.129	-950
453.199	-1142
453.269	97
453.339	746
453.409	1396
453.479	1355
453.549	2312
453.619	2351
453.688	-472
453.758	-1051
453.828	-1950
453.898	-905
453.968	-1368
454.037	-1144
454.087	-1270
454.107	-1333
454.168	-1789
454.177	-1873
454.247	-1086
454.249	-1107
454.316	-2066
454.330	-1779
454.386	-661
454.411	-930
454.456	-1526
454.492	-1311
454.525	-1108
454.574	-674
454.595	-507
454.655	-1403
454.665	-1559
454.734	-683
454.736	-674
454.804	-1126
454.817	-997
454.873	-671
454.898	-552
454.943	-361
454.979	-836
455.013	-1269
455.060	-1247
455.082	-1216
455.141	-1352
455.152	-1362
455.221	646
455.222	688
455.291	1582
455.303	2231
455.360	4066
455.384	6172
455.430	8125
455.465	5823
455.499	4147
455.546	1298
455.569	99
455.627	-21
455.638	-34
455.707	-912
455.708	-894
455.777	-596
455.789	-582
455.846	-394
455.869	-452
455.916	-741
455.950	-712
455.985	-662
456.031	-406
456.054	-283
456.112	-1044
456.124	-1175
456.193	-457
456.193	-471
456.262	-285
456.274	-308
456.332	-302
456.355	-433
456.401	-848
456.436	-930
456.470	-936
456.516	-688
456.540	-672
456.597	-984
456.609	-985
456.678	-171
456.678	-186
456.747	-1046
456.759	-1089
456.817	-927
456.840	-765
456.886	-821
456.920	-778
456.955	-374
457.001	113
457.024	132
457.082	-108
457.093	-118
457.162	331
457.163	345
457.232	-52
457.243	-25
457.301	669
457.324	459
457.370	-368
457.405	34
457.439	657
457.485	888
457.508	878
457.566	1085
457.577	1252
457.646	2404
457.647	2428
457.715	6854
457.727	8010
457.784	15149
457.808	19413
457.853	22928
457.889	25718
457.922	23814
457.969	15553
457.991	16916
458.050	22855
458.060	24143
458.129	40241
458.130	40791
458.198	33982
458.211	30146
458.267	16520
458.292	10509
458.336	7253
458.372	6961
458.405	10994
458.453	18183
458.474	23983
458.533	44483
458.543	45567
458.611	62519
458.614	62931
458.680	33887
458.694	25453
458.749	12075
458.775	7850
458.818	3992
458.855	3430
458.887	3149
458.936	2063
458.955	1690
459.016	1251
459.024	1285
459.093	1640
459.097	1650
459.162	887
459.177	818
459.230	997
459.257	1089
459.299	992
459.338	1099
459.368	1268
459.418	1147
459.437	1068
459.499	903
459.505	880
459.574	948
459.579	940
459.643	762
459.659	754
459.711	634
459.740	763
459.780	1227
459.820	1458
459.849	1302
459.900	870
459.917	856
459.981	897
459.986	887
460.054	1157
460.061	1208
460.123	1379
460.141	1285
460.191	1297
460.222	1170
460.260	721
460.302	701
460.328	884
460.382	1138
460.397	1201
460.462	1570
460.465	1660
460.534	3876
460.543	4144
460.602	10491
460.623	12871
460.671	20098
460.703	26054
460.739	21413
460.783	14328
460.808	11706
460.864	3058
460.876	2570
460.944	1576
460.945	1555
461.013	1427
461.024	1269
461.081	1034
461.104	1163
461.150	1403
461.184	1789
461.218	1981
461.264	1655
461.286	1536
461.345	1337
461.355	1329
461.423	1809
461.425	1809
461.491	1528
461.505	1559
461.559	2105
461.585	2197
461.628	2869
461.665	3748
461.696	3880
461.745	3713
461.764	3255
461.825	2000
461.832	1979
461.901	1602
461.905	1612
461.969	1387
461.985	1125
462.037	1506
462.065	2169
462.105	2244
462.145	2021
462.173	2176
462.225	2054
462.241	2096
462.305	3190
462.310	3210
462.378	2649
462.385	2602
462.446	1981
462.465	1889
462.514	2001
462.545	2055
462.582	2052
462.625	1663
462.650	1562
462.705	1802
462.718	1841
462.785	2105
462.786	2111
462.854	2082
462.865	2070
462.922	1744
462.945	1711
462.990	1716
463.025	1596
463.058	1799
463.104	2203
463.126	2108
463.184	1769
463.194	1831
463.262	1999
463.264	2022
463.330	2016
463.344	1914
463.398	2168
463.424	2354
463.466	2098
463.504	1763
463.533	1700
463.583	1853
463.601	1956
463.663	1924
463.669	1883
463.737	1629
463.743	1593
463.805	2338
463.823	2586
463.873	4005
463.903	4903
463.940	4556
463.982	3970
464.008	3431
464.062	2223
464.076	2238
464.142	2487
464.144	2488
464.211	2484
464.221	2440
464.279	1799
464.301	1579
464.347	1904
464.381	2256
464.414	2532
464.461	2692
464.482	2746
464.540	2923
464.550	2803
464.617	2030
464.620	1997
464.685	3323
464.699	3598
464.753	3422
464.779	3309
464.820	3910
464.859	4581
464.888	3984
464.938	2769
464.956	3254
465.018	5186
465.023	5142
465.091	4186
465.098	4089
465.158	3578
465.177	3426
465.226	3553
465.257	3638
465.293	3415
465.336	3152
465.361	3403
465.416	3784
465.428	3818
465.495	4086
465.496	4099
465.563	4653
465.575	4785
465.631	6464
465.654	7118
465.698	5117
465.734	3441
465.765	3620
465.813	3805
465.833	3790
465.893	3765
465.900	3770
465.968	3796
465.972	3785
466.035	3281
466.052	3140
466.102	3357
466.131	3459
466.170	3033
466.210	2569
466.237	2915
466.290	3597
466.304	3610
466.369	3593
466.372	3607
466.439	3816
466.449	3826
466.506	3842
466.528	3840
466.573	5040
466.607	5902
466.641	6107
466.687	6439
466.708	6855
466.766	7865
466.775	7454
466.842	4272
466.845	4111
466.909	4062
466.925	4030
466.977	3904
467.004	3845
467.044	4108
467.083	4375
467.111	4719
467.163	5288
467.178	5482
467.242	6252
467.245	6224
467.312	5376
467.321	5253
467.379	5390
467.400	5422
467.446	5538
467.480	5605
467.559	5619
467.638	5448
467.717	4710
467.796	4941
467.875	5913
467.955	4514
468.034	7770
468.113	10654
468.192	13429
468.271	8433
468.350	11982
468.429	15470
468.508	15500
468.588	10107
468.667	7110
468.746	5374
468.825	5723
468.904	4985
468.983	4369
469.062	6003
469.141	5798
469.220	5378
469.299	4998
469.378	4045
469.456	8592
469.535	6163
469.614	5586
469.693	4663
469.772	5650
469.851	6472
469.930	6296
470.009	5960
470.088	5767
470.166	7790
470.245	10816
470.324	11726
470.403	9811
470.482	6329
470.560	5779
470.639	4816
470.718	5592
470.797	4771
470.875	4948
470.954	4364
471.033	6184
471.111	4600
471.190	4511
471.269	4870
471.347	5222
471.426	4374
471.505	4648
471.583	6179
471.662	4790
471.740	4803
471.819	4772
471.898	4157
471.976	5507
472.055	4502
472.133	5102
472.212	5304
472.290	5010
472.369	3902
472.447	4772
472.526	3337
472.604	5253
472.683	4519
472.761	4848
472.839	3971
472.918	4480
472.996	3885
473.075	5535
473.153	4490
473.231	4865
473.310	4654
473.388	4457
473.466	4566
473.545	4520
473.623	4994
473.701	5287
473.780	5503
473.858	3410
473.936	5226
474.014	4523
474.093	5185
474.171	6053
474.249	5600
474.327	4838
474.405	4460
474.484	4872
474.562	4257
474.640	4042
474.718	3766
474.796	4287
474.874	4837
474.952	4887
475.030	3432
475.108	4196
475.187	3832
475.265	4145
475.343	4664
475.421	5390
475.499	4340
475.577	4993
475.655	4644
475.733	6265
475.811	7314
475.889	6462
475.966	5600
476.044	4640
476.122	4768
476.200	4867
476.278	4288
476.356	4129
476.434	4283
476.512	4681
476.590	4384
476.667	4674
476.745	3122
476.823	4272
476.901	4418
476.979	4222
477.056	3777
477.134	3547
477.212	4682
477.290	4830
477.367	3609
477.445	4612
477.523	3206
477.601	3693
477.678	3256
477.756	4389
477.834	4659
477.911	4010
477.989	4111
478.066	3280
478.144	3901
478.222	3954
478.299	3570
478.377	4432
478.454	3560
478.532	3613
478.609	3081
478.687	4395
478.764	3244
478.842	4250
478.919	3315
478.997	3708
479.074	3155
479.152	3869
479.229	4161
479.307	2911
479.384	3181
479.461	3504
479.539	3337
479.616	3911
479.694	2819
479.771	4440
479.848	3174
479.926	3000
480.003	4867
480.080	4408
480.157	3873
480.235	2924
480.312	3772
480.389	3476
480.467	4292
480.544	3984
480.621	4505
480.698	4365
480.775	3788
480.853	4001
480.930	3514
481.007	4485
481.084	4149
481.161	5720
481.238	4663
481.315	3427
481.392	3862
481.470	3910
481.547	2816
481.624	3250
481.701	4060
481.778	4375
481.855	3516
481.932	5120
482.009	5123
482.086	5626
482.163	4703
482.240	6485
482.317	5072
482.393	5402
482.470	4789
482.547	5243
482.624	4582
482.701	4996
482.778	3583
482.855	3765
482.932	3881
483.009	3863
483.085	5279
483.162	6086
483.239	5980
483.316	4675
483.393	5761
483.469	5110
483.546	4581
483.623	3831
483.699	3379
483.776	4303
483.853	3500
483.930	4745
484.006	5931
484.083	10788
484.160	10777
484.236	16754
484.313	13153
484.389	10206
484.466	10877
484.543	9620
484.619	11440
484.696	13581
484.772	9955
484.849	9632
484.925	7898
485.002	8877
485.078	7638
485.155	8531
485.231	6941
485.308	7089
485.384	6938
485.461	8737
485.537	8660
485.614	10455
485.690	7085
485.766	7145
485.843	5999
485.919	6886
485.995	7108
486.072	7186
486.148	6522
486.224	6566
486.301	7045
486.377	7025
486.453	6336
486.530	8483
486.606	10608
486.682	9929
486.758	9749
486.835	10948
486.911	8067
486.987	11610
487.063	9988
487.139	9851
487.215	10120
487.292	11456
487.368	11105
487.444	12806
487.520	17215
487.596	22630
487.672	53922
487.748	162432
487.824	232089
487.900	68311
487.976	20638
488.052	12378
488.128	11517
488.204	8583
488.280	8964
488.356	7972
488.432	10411
488.508	11749
488.584	6327
488.660	6828
488.736	6077
488.812	6267
488.888	6819
488.964	6833
489.039	6289
489.115	8537
489.191	6978
489.267	7166
489.343	5697
489.418	6182
489.494	5748
489.570	4838
489.646	6487
489.722	6242
489.797	5225
489.873	7974
489.949	8399
490.024	7838
490.100	5261
490.176	5706
490.251	5494
490.327	6590
490.403	5869
490.478	5827
490.554	4862
490.629	5877
490.705	4383
490.781	6281
490.856	4870
490.932	6318
491.007	5487
491.083	4829
491.158	4655
491.234	5682
491.309	7390
491.385	7303
491.460	4302
491.536	5808
491.611	3514
491.686	4956
491.762	4918
491.837	5616
491.913	5441
491.988	7324
492.063	5814
492.139	5956
492.214	5859
492.289	5327
492.365	3229
492.440	3726
492.515	3692
492.590	4630
492.666	3819
492.741	5396
492.816	4974
492.891	4658
492.967	5198
493.042	5007
493.117	4641
493.192	6897
493.267	12694
493.342	42899
493.418	51817
493.493	7975
493.568	4502
493.643	4561
493.718	4637
493.793	4982
493.868	3880
493.943	3914
494.018	4036
494.093	3742
494.168	4326
494.243	3768
494.318	4148
494.393	3921
494.468	3103
494.543	4038
494.618	3457
494.693	4560
494.768	4662
494.842	3912
494.917	3882
494.992	3599
495.067	4201
495.142	3740
495.217	3636
495.292	4455
495.366	3899
495.441	4075
495.516	4038
495.591	3982
495.665	5803
495.740	8319
495.815	5237
495.890	4223
495.964	2459
496.039	6700
496.114	4602
496.188	5401
496.263	4949
496.338	3898
496.412	3935
496.487	6288
496.561	4351
496.636	4602
496.710	5080
496.785	4285
496.860	5172
496.934	4771
497.009	4754
497.083	4992
497.158	4522
497.232	5134
497.307	4909
497.381	5262
497.455	5044
497.530	5827
497.604	4655
497.679	3980
497.753	5864
497.827	4839
497.902	3466
497.976	7105
498.050	13043
498.125	47374
498.199	36744
498.273	6296
498.348	4433
498.422	4973
498.496	5081
498.570	6176
498.645	4412
498.719	3705
498.793	5152
498.867	6345
498.941	7088
499.016	20139
499.090	46913
499.164	14333
499.238	4936
499.312	4647
499.386	4154
499.460	5099
499.534	5559
499.609	6786
499.683	6093
499.757	4733
499.831	9456
499.905	30298
499.979	22892
500.053	4886
500.127	5548
500.201	3594
500.275	5158
500.349	4933
500.422	5275
500.496	6228
500.570	7218
500.644	19614
500.718	30063
500.792	6260
500.866	3770
500.940	3499
501.013	2948
501.087	3968
501.161	3873
501.235	4131
501.309	11147
501.382	25339
501.456	19257
501.530	5880
501.603	7114
501.677	4637
501.751	1783
501.825	3929
501.898	5409
501.972	11226
502.046	6252
502.119	2921
502.193	6670
502.266	10562
502.340	5032
502.413	5507
502.487	9449
502.561	4525
502.634	2119
502.708	2931
502.781	1643
502.855	4292
502.928	2006
503.002	2055
503.075	2433
503.149	2554
503.222	3286
503.295	2819
503.369	3796
503.442	4310
503.516	8919
503.589	18318
503.662	11766
503.736	8583
503.809	13349
503.882	12265
503.956	21670
504.029	33810
504.102	82724
504.175	115694
504.249	38457
504.322	15321
504.395	7813
504.468	6710
504.542	3972
504.615	2731
504.688	4002
504.761	2005
504.834	4016
504.907	3491
504.980	2569
505.053	3083
505.127	-33
505.200	6009
505.273	2061
505.346	2667
505.419	916
505.492	2782
505.565	1892
505.638	2848
505.711	1232
505.784	1325
505.857	1596
505.930	4430
506.003	938
506.076	5096
506.149	1322
506.221	1013
506.294	4341
506.367	3854
506.440	12842
506.513	6178
506.586	2539
506.659	1608
506.731	2053
506.804	1691
506.877	1191
506.950	2209
507.022	3210
507.095	1840
507.168	1900
507.241	2889
507.313	1085
507.386	274
507.459	2447
507.531	2243
507.604	966
507.677	3161
507.749	149
507.822	3194
507.894	3444
507.967	5627
508.040	3042
508.112	4120
508.185	3220
508.257	1309
508.330	4510
508.402	3471
508.475	3010
508.547	3409
508.620	2650
508.692	3786
508.765	2724
508.837	2656
508.909	3004
508.982	2199
509.054	3249
509.127	2381
509.199	2217
509.271	1387
509.344	1535
509.416	2567
509.488	2276
509.560	3765
509.633	2339
509.705	2231
509.777	2988
509.849	3958
509.922	1385
509.994	3234
510.066	3718
510.138	2528
510.210	6834
510.283	4915
510.355	4342
510.427	5399
510.499	3923
510.571	3384
510.643	2154
510.715	4478
510.787	1597
510.859	4855
510.931	3125
511.003	4253
511.076	4076
511.148	3269
511.219	2441
511.291	5334
511.363	4754
511.435	3374
511.507	2351
511.579	3927
511.651	3329
511.723	3808
511.795	2429
511.867	3052
511.939	2763
512.010	3392
512.082	4843
512.154	2329
512.226	2974
512.298	6042
512.369	4902
512.441	5584
512.513	4004
512.585	2509
512.656	4042
512.728	3005
512.800	2389
512.871	5219
512.943	3152
513.015	2174
513.086	3904
513.158	3698
513.230	2414
513.301	2508
513.373	3513
513.444	3344
513.516	2712
513.588	3314
513.659	3518
513.731	2511
513.802	1533
513.874	4648
513.945	2820
514.016	2209
514.088	3381
514.159	1988
514.231	4133
514.302	4116
514.374	3887
514.445	2404
514.516	6812
514.588	3974
514.659	2762
514.730	4057
514.802	4699
514.873	931
514.944	5718
515.016	3469
515.087	2803
515.158	2958
515.229	5425
515.301	1836
515.372	3932
515.443	2397
515.514	2826
515.585	2223
515.656	4136
515.728	4201
515.799	2487
515.870	3906
515.941	4498
516.012	2622
516.083	5459
516.154	4942
516.225	4981
516.296	6336
516.367	5066
516.438	7244
516.509	8714
516.580	15335
516.651	55799
516.722	167195
516.793	48749
516.864	12480
516.935	11569
517.006	15323
517.077	18901
517.148	47548
517.219	231060
517.289	281324
517.360	40931
517.431	13109
517.502	7068
517.573	7164
517.643	7216
517.714	7305
517.785	8262
517.856	8182
517.926	11451
517.997	13710
518.068	15499
518.138	24192
518.209	37578
518.280	152032
518.350	471389
518.421	139248
518.492	24223
518.562	17191
518.633	18866
518.703	25144
518.774	60292
518.845	150540
518.915	123332
518.986	32608
519.056	14795
519.127	10950
519.197	9686
519.268	16976
519.338	10617
519.408	5361
519.479	4017
519.549	3339
519.620	4726
519.690	3936
519.760	3461
519.831	3012
519.901	3166
519.971	3759
520.042	2944
520.112	2085
520.182	4035
520.253	3926
520.323	2412
520.393	2435
520.463	5377
520.534	857
520.604	5534
520.674	3373
520.744	1613
520.814	3744
520.885	3936
520.955	6312
521.025	15290
521.095	5909
521.165	3196
521.235	2398
521.305	2261
521.375	3117
521.445	3023
521.515	2359
521.585	3075
521.655	314
521.725	3395
521.795	3145
521.865	750
521.935	5321
522.005	2256
522.075	1946
522.145	3552
522.215	2255
522.285	3719
522.355	3267
522.424	4620
522.494	3258
522.564	2357
522.634	2644
522.704	4717
522.774	1561
522.843	2685
522.913	2968
522.983	2392
523.053	2223
523.122	2229
523.192	2504
523.262	1671
523.331	2873
523.401	3487
523.471	3023
523.540	2698
523.610	2469
523.680	2920
523.749	3312
523.819	3500
523.888	2776
523.958	2144
524.027	2748
524.097	2549
524.166	2461
524.236	260
524.305	4135
524.375	2316
524.444	2244
524.514	4510
524.583	2273
524.653	1582
524.722	3579
524.791	1777
524.861	4405
524.930	1284
524.999	2333
525.069	3394
525.138	2631
525.207	2370
525.277	3111
525.346	3108
525.415	4131
525.484	3589
525.554	4021
525.623	6034
525.692	8048
525.761	8473
525.830	12007
525.900	14942
525.969	25373
526.038	45226
526.107	108098
526.176	287785
526.245	191924
526.314	57281
526.383	150838
526.452	178280
526.522	297003
526.591	216340
526.660	32724
526.729	21214
526.797	25714
526.867	38076
526.935	122456
527.004	446475
527.073	218026
527.142	24706
527.211	11802
527.280	8837
527.349	6088
527.418	4209
527.487	5375
527.555	2704
527.624	2407
527.693	2107
527.762	3871
527.831	1448
527.899	2426
527.968	2411
528.037	789
528.106	3117
528.174	2279
528.243	2962
528.312	3447
528.380	2617
528.449	1665
528.518	3610
528.586	1231
528.655	2811
528.723	2260
528.792	2118
528.861	1421
528.929	658
528.998	3951
529.066	2055
529.135	3387
529.203	1833
529.272	3064
529.340	4184
529.409	5874
529.477	3199
529.545	3020
529.614	5984
529.682	3681
529.751	4548
529.819	7839
529.887	5961
529.956	5146
530.024	6108
530.092	4987
530.161	5303
530.229	4277
530.297	4640
530.365	5917
530.434	6047
530.502	4392
530.570	5365
530.638	3874
530.707	5587
530.775	5404
530.843	4628
530.911	4738
530.979	5206
531.047	5203
531.115	6147
531.183	5047
531.252	5563
531.320	4724
531.388	3499
531.456	6363
531.524	3636
531.592	5881
531.660	8448
531.728	4580
531.796	5024
531.864	5747
531.932	5403
532.000	5875
532.067	5019
532.135	6566
532.203	7654
532.271	7086
532.339	8657
532.407	7600
532.475	7159
532.542	7208
532.610	7506
532.678	5822
532.746	8973
532.814	11170
532.881	6651
532.949	6753
533.017	6165
533.084	6005
533.152	4844
533.220	4961
533.287	4968
533.355	6394
533.423	6512
533.490	6254
533.558	6747
533.625	6198
533.693	5738
533.761	7034
533.828	6532
533.896	5705
533.963	9066
534.031	9220
534.098	9875
534.166	9076
534.233	7210
534.300	10191
534.368	9648
534.435	8347
534.503	8984
534.570	10391
534.637	10246
534.705	11979
534.772	14462
534.840	29131
534.907	133512
534.974	127875
535.041	15012
535.109	9393
535.176	6501
535.243	7196
535.310	6907
535.378	6182
535.445	6903
535.512	6279
535.579	6997
535.646	5581
535.714	5343
535.781	7103
535.848	7677
535.915	8668
535.982	8244
536.049	8216
536.116	7730
536.183	6080
536.250	5744
536.317	5498
536.384	5826
536.451	6802
536.518	6070
536.585	4598
536.652	6599
536.719	6777
536.786	3865
536.853	4632
536.920	6138
536.987	5547
537.053	4686
537.120	7943
537.187	7761
537.254	5217
537.321	5995
537.388	6758
537.454	4968
537.521	5628
537.588	5437
537.654	6369
537.721	6895
537.788	7389
537.855	5015
537.921	6681
537.988	5415
538.055	5895
538.121	4030
538.188	5340
538.254	4244
538.321	5614
538.388	5288
538.454	6033
538.521	6169
538.587	5794
538.654	4517
538.720	6034
538.787	5435
538.853	6276
538.920	5164
538.986	4484
539.053	4250
539.119	5602
539.185	5056
539.252	6407
539.318	5889
539.385	8135
539.451	4387
539.517	6237
539.583	6346
539.650	5384
539.716	6114
539.782	5325
539.849	4263
539.915	5688
539.981	4884
540.047	3763
540.114	4691
540.180	6868
540.246	4408
540.312	6404
540.378	5297
540.444	7030
540.510	6477
540.576	5563
540.643	5269
540.709	4428
540.775	5470
540.841	4970
540.907	5529
540.973	6561
541.039	5028
541.105	6322
541.171	5268
541.237	6236
541.303	6482
541.369	7701
541.435	5776
541.500	5451
541.566	3666
541.632	4889
541.698	5008
541.764	7174
541.830	5050
541.896	3947
541.961	5420
542.027	4885
542.093	5474
542.159	6034
542.224	3486
542.290	6016
542.356	5192
542.421	6066
542.487	5591
542.553	4838
542.618	5420
542.684	5451
542.750	4897
542.815	6032
542.881	4659
542.947	6194
543.012	6084
543.078	4598
543.143	4440
543.209	5551
543.274	4762
543.340	5630
543.405	5315
543.471	5542
543.536	5060
543.602	5103
543.667	4092
543.732	7307
543.798	4761
543.863	5533
543.928	4908
543.994	4777
544.059	5927
544.124	6111
544.190	4802
544.255	7199
544.320	5679
544.386	4588
544.451	6697
544.516	5906
544.581	5557
544.646	7302
544.712	8213
544.777	6527
544.842	5529
544.907	6797
544.972	6061
545.037	6225
545.102	6781
545.168	6136
545.233	7379
545.298	7606
545.363	6362
545.428	7799
545.493	8009
545.558	6914
545.623	7094
545.688	7563
545.753	8299
545.818	7935
545.883	8653
545.947	8596
546.012	9430
546.077	8668
546.142	9996
546.207	9035
546.272	11332
546.337	9047
546.401	11359
546.466	11483
546.531	11481
546.596	12702
546.661	12797
546.725	15176
546.790	13731
546.855	16701
546.919	16362
546.984	19863
547.049	20582
547.113	24345
547.178	25504
547.243	30112
547.307	35755
547.372	38928
547.436	38186
547.501	41844
547.565	43243
547.630	38864
547.695	37879
547.759	38290
547.823	39187
547.888	38674
547.952	40709
548.017	43202
548.081	42647
548.146	42780
548.210	44424
548.274	48375
548.339	45997
548.403	42389
548.468	39272
548.532	38132
548.596	40368
548.660	42057
548.725	45493
548.789	48883
548.853	47343
548.917	45048
548.982	42156
549.046	38885
549.110	34892
549.174	37318
549.238	43022
549.303	46262
549.367	48364
549.431	44548
549.495	41554
549.559	43422
549.623	49961
549.687	54123
549.751	54092
549.815	64628
549.879	64918
549.943	62144
550.007	65602
550.071	64492
550.135	57042
550.199	54392
550.263	54401
550.327	51918
550.391	52062
550.455	58823
550.519	61783
550.582	65531
550.646	74974
550.710	75183
550.774	73097
550.838	74909
550.901	77125
550.965	81343
551.029	84068
551.093	92790
551.156	102717
551.220	114112
551.284	121192
551.347	94055
551.411	83795
551.475	79409
551.538	82221
551.602	75069
551.666	70412
551.729	66745
551.793	65981
551.856	64047
551.920	63998
551.983	63212
552.047	62392
552.110	62875
552.174	62469
552.237	64706
552.301	60123
552.364	57801
552.428	56048
552.491	59084
552.554	58623
552.618	58977
552.681	61077
552.745	58581
552.808	65708
552.871	72124
552.934	63847
552.998	60389
553.061	58522
553.124	56983
553.187	56259
553.251	57442
553.314	58114
553.377	60902
553.440	68214
553.503	96646
553.567	105092
553.630	66301
553.693	63269
553.756	61871
553.819	61631
553.882	58502
553.945	59485
554.008	58534
554.071	60330
554.134	61561
554.197	56640
554.260	56072
554.323	56063
554.386	56802
554.449	60119
554.512	60739
554.575	55659
554.638	55215
554.701	54088
554.764	55236
554.827	53731
554.889	50591
554.952	47819
555.015	47892
555.078	48106
555.141	50090
555.203	47779
555.266	47826
555.329	47177
555.391	45210
555.454	44121
555.517	41881
555.580	40251
555.642	39155
555.705	37927
555.768	40305
555.830	37744
555.893	37199
555.955	35058
556.018	35071
556.080	34722
556.143	35598
556.206	34769
556.268	34384
556.330	33024
556.393	32336
556.455	31546
556.518	31354
556.580	29784
556.643	28913
556.705	27458
556.767	27312
556.830	26958
556.892	26423
556.955	26400
557.017	25187
557.079	25323
557.142	23903
557.204	24014
557.266	24589
557.328	21994
557.391	21292
557.453	21316
557.515	21165
557.577	21405
557.639	22465
557.701	21213
557.764	21518
557.826	21917
557.888	24003
557.950	23683
558.012	27414
558.074	36243
558.136	86283
558.198	171428
558.260	51072
558.322	24267
558.384	25852
558.446	26735
558.508	29448
558.570	33678
558.632	39407
558.694	50636
558.756	92625
558.818	266454
558.880	488216
558.942	170712
559.003	182474
559.065	74029
559.127	33384
559.189	31723
559.251	39361
559.312	57398
559.374	143808
559.436	379377
559.498	150689
559.559	37037
559.621	32566
559.683	40513
559.744	69253
559.806	215234
559.868	254464
559.929	49049
559.991	37287
560.052	64847
560.114	171274
560.176	89732
560.237	104267
560.299	137666
560.360	26067
560.422	12526
560.483	10713
560.545	10866
560.606	9971
560.667	9349
560.729	9734
560.790	8099
560.852	8344
560.913	7546
560.974	7692
561.036	7051
561.097	7993
561.158	8247
561.220	8204
561.281	6469
561.342	7860
561.403	6932
561.465	7178
561.526	7116
561.587	7151
561.648	6229
561.709	6492
561.771	6240
561.832	6132
561.893	5940
561.954	7066
562.015	4543
562.076	6027
562.137	5357
562.198	5346
562.259	5807
562.320	5466
562.381	5702
562.442	5696
562.503	5408
562.564	5512
562.625	5429
562.686	5836
562.747	4385
562.808	5426
562.869	4895
562.930	5048
562.991	5308
563.051	4825
563.112	4428
563.173	4316
563.234	4257
563.294	5377
563.355	3546
563.416	5074
563.477	4104
563.537	4546
563.598	4423
563.659	5166
563.720	4385
563.780	5116
563.841	4443
563.901	4091
563.962	4634
564.023	5133
564.083	5452
564.144	4462
564.204	3652
564.265	4952
564.325	3891
564.386	5719
564.446	4615
564.507	4121
564.567	4463
564.628	3724
564.688	3969
564.749	4738
564.809	3160
564.869	4561
564.930	3436
564.990	4417
565.050	4656
565.111	4298
565.171	3970
565.231	3925
565.292	4571
565.352	3587
565.412	3558
565.472	3851
565.532	2820
565.593	4391
565.653	3730
565.713	4044
565.773	4070
565.833	4361
565.893	4319
565.953	3420
566.013	3033
566.074	3556
566.134	4469
566.194	4789
566.254	4235
566.314	3896
566.374	3490
566.434	3921
566.494	3974
566.554	2920
566.614	3902
566.673	4462
566.733	4472
566.793	3345
566.853	3404
566.913	4632
566.973	3750
567.033	3729
567.092	4554
567.152	3954
567.212	3602
567.272	4329
567.331	3937
567.391	4400
567.451	5244
567.511	5125
567.570	4016
567.630	4470
567.690	3442
567.749	4581
567.809	3779
567.868	4839
567.928	4732
567.988	4261
568.047	3635
568.107	4354
568.166	5435
568.226	4579
568.285	5338
568.345	4850
568.404	4409
568.464	4635
568.523	4944
568.582	4300
568.642	4446
568.701	4717
568.761	4204
568.820	4865
568.879	5689
568.939	5331
568.998	4338
569.057	4550
569.116	4256
569.176	3704
569.235	3234
569.294	3643
569.353	4359
569.413	4009
569.472	3021
569.531	3641
569.590	3143
569.649	4004
569.708	3013
569.767	4816
569.827	4161
569.886	3846
569.945	3140
570.004	3644
570.063	3759
570.122	3832
570.181	2987
570.240	4336
570.299	4192
570.358	4494
570.417	4064
570.475	3719
570.534	4633
570.593	4220
570.652	3586
570.711	3900
570.770	4141
570.829	3209
570.887	4033
570.946	4876
571.005	3567
571.064	4696
571.122	4772
571.181	3668
571.240	3471
571.299	3960
571.357	3676
571.416	3809
571.475	3348
571.533	3744
571.592	3821
571.650	4942
571.709	3777
571.768	4710
571.826	5008
571.885	4707
571.943	3420
572.002	3550
572.060	3744
572.119	3702
572.177	3404
572.236	3668
572.294	4143
572.352	4692
572.411	3199
572.469	4306
572.528	3174
572.586	3757
572.644	3047
572.703	4617
572.761	2727
572.819	3501
572.877	2185
572.936	3521
572.994	3522
573.052	3902
573.110	3501
573.169	3095
573.227	3073
573.285	3825
573.343	3474
573.401	3861
573.459	4259
573.517	3465
573.576	3038
573.634	3691
573.692	3320
573.750	3448
573.808	3757
573.866	3215
573.924	3804
573.982	3860
574.040	3411
574.098	2989
574.155	2481
574.213	3075
574.271	3004
574.329	3536
574.387	3043
574.445	2042
574.503	3054
574.560	2809
574.618	2812
574.676	3519
574.734	2569
574.792	2958
574.849	2446
574.907	2771
574.965	2314
575.022	1863
575.080	2045
575.138	2522
575.195	2287
575.253	1806
575.311	3019
575.368	2368
575.426	2110
575.483	3471
575.541	2616
575.598	1754
575.656	2809
575.713	2625
575.771	2603
575.828	2351
575.886	2083
575.943	3186
576.001	1687
576.058	2083
576.115	1964
576.173	2625
576.230	1873
576.287	2882
576.345	2155
576.402	2513
576.459	2023
576.517	2170
576.574	2516
576.631	1922
576.688	1669
576.746	2451
576.803	1889
576.860	1857
576.917	2691
576.974	2364
577.031	2516
577.089	2597
577.146	1789
577.203	1870
577.260	2361
577.317	1807
577.374	2013
577.431	2791
577.488	1661
577.545	2047
577.602	2123
577.659	2361
577.716	2634
577.773	3546
577.830	1844
577.886	2556
577.943	1896
578.000	3116
578.057	2434
578.114	3925
578.171	4345
578.227	5170
578.284	3544
578.341	4299
578.398	2944
578.454	3891
578.511	2783
578.568	3629
578.625	962
578.681	2183
578.738	2525
578.794	2001
578.851	1911
578.908	2227
578.964	1990
579.021	2364
579.077	2266
579.134	2547
579.190	2197
579.247	2091
579.303	1515
579.360	1796
579.416	1450
579.473	2483
579.529	1412
579.586	2809
579.642	2953
579.698	2420
579.755	2607
579.811	2292
579.867	2646
579.924	3181
579.980	2851
580.036	4244
580.093	4435
580.149	9513
580.205	9134
580.261	5806
580.317	4040
580.374	4042
580.430	3354
580.486	3686
580.542	2057
580.598	3644
580.619	3092
580.654	2133
580.692	1900
580.710	1789
580.765	2842
580.767	2878
580.823	3096
580.838	3021
580.879	2835
580.911	3051
580.935	3214
580.984	3078
580.991	3064
581.047	3872
581.057	3752
581.103	3239
581.130	3532
581.159	3836
581.203	3556
581.215	3491
581.270	4334
581.276	4188
581.326	2776
581.349	2896
581.382	3087
581.422	2523
581.438	2310
581.494	3015
581.494	3007
581.550	2242
581.567	2478
581.606	3000
581.640	2807
581.661	2692
581.713	2956
581.717	2974
581.773	2992
581.786	2955
581.829	2887
581.859	2596
581.885	2348
581.932	2914
581.940	3027
581.996	2299
582.004	2356
582.052	2601
582.077	2375
582.107	2135
582.150	3052
582.163	3323
582.219	2657
582.223	2668
582.274	2914
582.296	2723
582.330	2386
582.368	3151
582.386	3534
582.441	2694
582.441	2693
582.497	3358
582.514	3289
582.552	3399
582.587	3899
582.608	4048
582.659	2861
582.663	2786
582.719	3152
582.732	3225
582.774	3469
582.805	3258
582.830	3088
582.877	3508
582.885	3569
582.941	4067
582.950	4124
582.996	4316
583.023	4408
583.052	4714
583.095	5070
583.107	5135
583.162	5998
583.168	6045
583.218	6103
583.240	5479
583.273	4722
583.313	4197
583.328	4026
583.384	3913
583.385	3880
583.439	2681
583.458	2961
583.494	3638
583.531	3361
583.549	3261
583.603	3414
583.605	3404
583.660	3318
583.676	3181
583.715	3071
583.748	2763
583.770	2593
583.820	3219
583.825	3257
583.881	3229
583.893	3106
583.936	2875
583.965	2832
583.991	2706
584.038	2973
584.046	3027
584.101	2803
584.110	2829
584.156	2985
584.183	2828
584.211	2710
584.255	2982
584.266	3070
584.321	3410
584.328	3407
584.376	3005
584.400	3055
584.431	3449
584.472	3636
584.486	3509
584.541	3547
584.545	3548
584.596	3932
584.617	3667
584.651	3496
584.689	4055
584.706	4117
584.761	3706
584.762	3714
584.816	4606
584.834	4618
584.871	4790
584.906	4516
584.926	4296
584.978	4712
584.980	4745
585.035	5318
585.051	5611
585.090	6050
585.123	6502
585.145	6869
585.195	7150
585.200	7222
585.254	9350
585.267	9679
585.309	10424
585.340	11774
585.364	12835
585.412	13630
585.419	13804
585.473	17963
585.484	18942
585.528	23721
585.556	30186
585.583	40592
585.628	67102
585.637	75307
585.692	155506
585.700	167873
585.747	212392
585.772	169309
585.801	98367
585.845	35042
585.856	26058
585.910	13668
585.917	12637
585.965	9694
585.989	8659
586.019	7765
586.061	6582
586.074	6286
586.128	6121
586.133	6103
586.183	5744
586.205	5407
586.237	5284
586.277	5466
586.292	5440
586.346	5145
586.349	5156
586.401	5270
586.421	5212
586.455	5232
586.493	5653
586.509	5886
586.564	5403
586.565	5425
586.618	6413
586.637	6489
586.672	6544
586.709	6984
586.727	7195
586.781	8474
586.781	8471
586.835	6011
586.853	5814
586.889	5589
586.925	4996
586.944	4780
586.996	5163
586.998	5171
587.052	5211
587.068	5235
587.106	5339
587.140	5191
587.161	5080
587.212	4720
587.215	4710
587.269	5127
587.284	5162
587.323	5259
587.356	5210
587.377	5136
587.427	5675
587.431	5731
587.485	5901
587.499	6025
587.539	6311
587.571	6437
587.593	6381
587.643	6811
587.648	6867
587.702	6379
587.715	6500
587.755	6851
587.786	6729
587.810	6579
587.858	6403
587.864	6427
587.917	7076
587.930	7135
587.971	6994
588.001	6963
588.025	7076
588.073	7394
588.079	7422
588.133	7638
588.145	7809
588.187	8588
588.217	8921
588.241	8974
588.288	8757
588.295	8808
588.348	9691
588.360	9973
588.402	10718
588.431	11054
588.456	11655
588.503	13062
588.510	13255
588.564	15215
588.575	15677
588.617	16997
588.646	18186
588.671	19767
588.718	23345
588.725	24220
588.778	33545
588.789	36270
588.832	57536
588.861	75471
588.886	106136
588.932	178048
588.939	184174
588.993	215644
589.004	210844
589.047	117118
589.075	64667
589.100	45909
589.147	25809
589.154	24794
589.207	19419
589.218	18608
589.261	19045
589.290	19921
589.314	21046
589.361	24209
589.368	25350
589.421	37146
589.433	40555
589.475	72236
589.504	99455
589.528	128599
589.576	187254
589.582	182399
589.635	93096
589.647	76081
589.689	38047
589.718	19136
589.742	16543
589.790	12364
589.795	12093
589.849	10092
589.861	9803
589.902	9531
589.932	9057
589.955	8648
590.004	8026
590.009	7993
590.062	7886
590.075	7836
590.115	7552
590.146	7360
590.168	7276
590.218	7137
590.222	7131
590.275	7061
590.289	7099
590.328	7580
590.360	7696
590.381	7604
590.431	7896
590.435	7893
590.488	7513
590.503	7454
590.541	7217
590.574	6887
590.594	6929
590.645	7519
590.647	7546
590.700	8078
590.716	8225
590.753	7863
590.787	7645
590.806	7661
590.859	7854
590.859	7846
590.912	7546
590.930	7589
590.965	8433
591.001	9174
591.018	9045
591.071	8545
591.072	8544
591.124	8811
591.143	8937
591.177	8677
591.214	8467
591.230	8498
591.283	8605
591.285	8609
591.336	8342
591.356	8291
591.389	8757
591.427	9250
591.442	8954
591.495	7988
591.498	7908
591.547	8634
591.569	9087
591.600	8947
591.640	8574
591.653	8543
591.706	8552
591.711	8541
591.759	8746
591.782	8955
591.811	9106
591.853	9249
591.864	9388
591.917	10121
591.924	10223
591.969	9548
591.995	9178
592.022	9196
592.066	9244
592.075	9411
592.127	10508
592.137	10714
592.180	10198
592.208	9836
592.233	9976
592.279	10307
592.285	10333
592.338	10616
592.350	10679
592.390	10537
592.421	10463
592.443	10619
592.491	10981
592.495	11022
592.548	11684
592.562	11872
592.600	11573
592.633	11339
592.653	11161
592.704	10673
592.705	10756
592.775	11925
592.846	10867
592.916	11535
592.987	11574
593.058	11849
593.128	11809
593.199	12843
593.270	12001
593.341	12446
593.411	12277
593.482	13177
593.553	13718
593.623	13174
593.694	13615
593.764	14119
593.835	13747
593.906	13624
593.976	14702
594.047	14398
594.117	15337
594.188	15802
594.258	15799
594.329	16119
594.399	16129
594.470	16820
594.540	17564
594.611	17684
594.681	17083
594.751	17623
594.822	18259
594.892	18979
594.963	19651
595.033	19560
595.103	20183
595.174	21721
595.244	22095
595.314	21871
595.384	21528
595.455	23185
595.525	23750
595.595	24933
595.665	25012
595.736	24978
595.806	24560
595.876	25098
595.946	24306
596.016	26993
596.087	27032
596.157	26419
596.227	26528
596.297	29083
596.367	30974
596.437	33196
596.507	32505
596.577	32399
596.647	33329
596.717	35398
596.787	36828
596.857	35994
596.927	36928
596.997	36386
597.067	37176
597.137	38255
597.207	38890
597.277	38142
597.347	36358
597.417	34994
597.487	36383
597.557	36205
597.626	37023
597.696	38421
597.766	37424
597.836	35379
597.906	32922
597.975	32498
598.045	33867
598.115	35095
598.185	37348
598.254	43833
598.324	45566
598.394	45861
598.464	45307
598.533	43856
598.603	41175
598.672	41191
598.742	42235
598.812	41092
598.881	42174
598.951	42180
599.020	44122
599.090	45793
599.159	45916
599.229	43756
599.299	42212
599.368	45108
599.437	44310
599.507	40226
599.576	39867
599.646	40039
599.715	39699
599.785	38792
599.854	36748
599.924	37045
599.993	37645
600.062	37554
600.132	38469
600.201	41154
600.270	47490
600.340	49513
600.409	48752
600.478	49815
600.547	49945
600.617	44779
600.686	36665
600.755	34432
600.824	32482
600.894	32426
600.963	32679
601.032	32524
601.101	31120
601.170	30045
601.239	29748
601.308	30853
601.378	30428
601.447	31100
601.516	31180
601.585	31250
601.654	32595
601.723	32623
601.792	32999
601.861	35298
601.930	36901
601.999	36601
602.068	36287
602.137	36861
602.206	37705
602.275	38039
602.343	38354
602.412	38041
602.481	39736
602.550	39336
602.619	40365
602.688	40884
602.756	40325
602.825	42027
602.894	42228
602.963	42054
603.032	43332
603.100	42758
603.169	43012
603.238	44083
603.307	43138
603.375	43371
603.444	46467
603.513	44044
603.581	46440
603.650	46916
603.719	44059
603.787	43986
603.856	44198
603.924	45890
603.993	48028
604.061	49938
604.130	50717
604.198	52790
604.267	53418
604.335	53780
604.404	55237
604.472	56191
604.541	56690
604.609	57758
604.678	59297
604.746	58975
604.815	61713
604.883	60709
604.951	60777
605.020	62628
605.088	62190
605.156	61899
605.225	62626
605.293	62028
605.361	63063
605.429	61697
605.498	64853
605.566	64734
605.634	70082
605.702	71346
605.771	73393
605.839	73725
605.907	71350
605.975	69411
606.043	68021
606.111	68621
606.180	68313
606.248	67561
606.316	66932
606.384	65042
606.452	65195
606.520	64117
606.588	67586
606.656	67280
606.724	65667
606.792	61630
606.860	55563
606.928	50711
606.996	48930
607.064	48365
607.132	49338
607.200	52437
607.267	53920
607.335	55491
607.403	57059
607.471	54614
607.539	52791
607.607	51803
607.674	46115
607.742	45556
607.810	46442
607.878	47721
607.946	47119
608.013	50119
608.081	50389
608.149	50681
608.216	52669
608.284	54976
608.352	54798
608.419	51734
608.487	53005
608.555	51844
608.622	53294
608.690	57109
608.757	61258
608.825	64125
608.893	62423
608.960	57592
609.028	55323
609.095	56256
609.163	55436
609.230	48795
609.298	45572
609.365	47874
609.432	52084
609.500	56503
609.567	65137
609.635	74850
609.702	77425
609.769	71547
609.837	56154
609.904	48917
609.971	49976
610.039	56602
610.106	76039
610.173	136624
610.241	280431
610.308	149145
610.375	64309
610.442	52726
610.509	51225
610.577	51631
610.644	51827
610.711	53768
610.778	55547
610.845	58056
610.912	60622
610.980	64169
611.047	65652
611.114	63814
611.181	60115
611.248	59770
611.315	65217
611.382	65322
611.449	68248
611.516	69044
611.583	67889
611.650	68322
611.717	69048
611.784	71152
611.851	73478
611.918	77971
611.984	89979
612.051	124176
612.118	231954
612.185	482873
612.252	291051
612.319	107009
612.386	90217
612.452	82422
612.519	78823
612.586	77218
612.653	77943
612.719	82202
612.786	77194
612.853	71643
612.919	71235
612.986	72287
613.053	67496
613.120	62496
613.186	60045
613.253	63757
613.319	60999
613.386	62221
613.453	62994
613.519	62636
613.586	61186
613.652	63460
613.719	61944
613.785	63133
613.852	63729
613.918	63461
613.985	66423
614.051	69087
614.118	73962
614.184	69253
614.250	63693
614.317	64552
614.383	62524
614.449	64759
614.516	64984
614.582	66043
614.648	63205
614.715	63341
614.781	60838
614.847	61362
614.914	61204
614.980	59765
615.046	60506
615.112	62650
615.179	61479
615.245	61935
615.311	62092
615.377	63239
615.443	62833
615.509	65030
615.575	67272
615.642	64930
615.708	67813
615.774	70706
615.840	76160
615.906	78150
615.972	93531
616.038	136131
616.104	268185
616.170	547847
616.236	418056
616.302	143027
616.368	112004
616.434	83655
616.500	80037
616.565	86786
616.631	104069
616.697	87645
616.763	92665
616.829	133158
616.895	225315
616.961	199264
617.026	93002
617.092	67717
617.158	65874
617.224	63224
617.289	58919
617.355	56613
617.421	55414
617.487	56193
617.552	52440
617.618	51898
617.684	51508
617.749	55214
617.815	51378
617.880	48663
617.946	49521
618.012	50526
618.077	51137
618.143	49944
618.208	49134
618.274	53813
618.339	53937
618.405	43033
618.470	45067
618.536	43588
618.601	43991
618.667	40734
618.732	38245
618.798	38629
618.863	38319
618.928	36816
618.994	38588
619.059	37254
619.124	38626
619.190	38512
619.255	37523
619.320	37289
619.386	38634
619.451	36962
619.516	36327
619.581	37919
619.647	38437
619.712	37398
619.777	36302
619.842	37263
619.907	36973
619.972	37859
620.038	37199
620.103	36103
620.168	35842
620.233	37778
620.298	36656
620.363	38165
620.428	38364
620.493	40135
620.558	40523
620.623	40668
620.688	40034
620.753	40637
620.818	42025
620.883	41429
620.948	40399
621.013	41101
621.078	39676
621.143	39917
621.207	43086
621.272	40284
621.337	38412
621.402	39161
621.467	38445
621.532	38116
621.596	38284
621.661	38259
621.726	36238
621.791	37453
621.855	37835
621.920	37275
621.985	37769
622.049	39180
622.114	37596
622.179	38926
622.243	40176
622.308	41299
622.373	44221
622.437	41758
622.502	39128
622.566	38658
622.631	37914
622.695	41070
622.760	38540
622.824	39307
622.889	39538
622.953	38718
623.018	41998
623.082	41716
623.147	41077
623.211	40909
623.276	41675
623.340	38877
623.404	38379
623.469	38303
623.533	38240
623.597	37595
623.662	36673
623.726	34125
623.790	32254
623.854	31586
623.919	32420
623.983	33171
624.047	32711
624.111	33550
624.176	34035
624.240	32537
624.304	35627
624.368	33162
624.432	34164
624.496	35980
624.560	36746
624.625	34819
624.689	37658
624.753	37636
624.817	36271
624.881	34886
624.945	31804
625.009	31266
625.073	30497
625.137	31251
625.201	33648
625.265	33889
625.329	33228
625.393	32655
625.456	32772
625.520	34160
625.584	34479
625.648	35270
625.712	37384
625.776	36885
625.839	35664
625.903	28573
625.967	25819
626.031	31879
626.095	35363
626.158	31012
626.222	23965
626.286	24156
626.349	21929
626.413	20669
626.477	21216
626.540	20393
626.604	19785
626.668	21468
626.731	19762
626.795	19545
626.858	19624
626.922	19368
626.986	19885
627.049	17450
627.113	21891
627.176	19896
627.240	19013
627.303	18899
627.366	19247
627.430	20211
627.493	19407
627.557	17489
627.620	20495
627.684	19695
627.747	19406
627.810	16540
627.874	16445
627.937	15492
628.000	17009
628.064	15128
628.127	12800
628.190	14986
628.253	13157
628.317	12516
628.380	13055
628.443	11458
628.506	11450
628.569	12077
628.632	10136
628.696	10556
628.759	10952
628.822	9928
628.885	9901
628.948	9536
629.011	10003
629.074	9934
629.137	8488
629.200	7691
629.263	9771
629.326	7490
629.389	8414
629.452	8375
629.515	8287
629.578	7865
629.641	9702
629.704	8708
629.767	7966
629.830	8765
629.892	7419
629.955	7236
630.018	10125
630.081	7592
630.144	8542
630.207	5582
630.269	9344
630.332	7074
630.395	7564
630.458	7849
630.520	5757
630.583	8564
630.646	8282
630.708	7870
630.771	7750
630.834	8882
630.896	7692
630.959	7889
631.021	6930
631.084	7303
631.146	8514
631.209	8243
631.272	7424
631.334	8040
631.397	7677
631.459	6733
631.522	8401
631.584	8581
631.646	9989
631.709	9016
631.771	8945
631.834	8569
631.896	9116
631.958	7162
632.021	8096
632.083	7371
632.145	7409
632.208	7172
632.270	7995
632.332	6535
632.395	6439
632.457	8277
632.519	6522
632.581	8473
632.643	5756
632.706	6942
632.768	6065
632.830	7501
632.892	7092
632.954	6320
633.016	7743
633.078	7095
633.141	7123
633.203	7236
633.265	7015
633.327	7609
633.389	6204
633.451	7467
633.513	6926
633.575	7688
633.637	6567
633.698	6624
633.760	8830
633.822	8832
633.884	7490
633.946	8002
634.008	6996
634.070	9068
634.132	10091
634.193	9489
634.255	11189
634.317	10129
634.379	11463
634.441	8431
634.502	8324
634.564	7461
634.626	7639
634.687	7134
634.749	7571
634.811	7524
634.873	6412
634.934	6716
634.996	7825
635.057	6490
635.119	6367
635.181	6353
635.242	7531
635.304	5742
635.365	8305
635.427	6198
635.488	6192
635.550	6173
635.611	7448
635.673	4810
635.734	8445
635.796	7072
635.857	9946
635.918	8002
635.980	11039
636.041	9240
636.102	12155
636.164	10937
636.225	12229
636.286	7851
636.348	8564
636.409	7036
636.470	6066
636.531	6372
636.593	6358
636.654	6405
636.715	5895
636.776	5861
636.838	5213
636.899	5994
636.960	5701
637.021	6004
637.082	5427
637.143	6658
637.204	4579
637.265	5083
637.326	6270
637.387	6402
637.448	4266
637.509	6100
637.570	5230
637.631	6964
637.692	4204
637.753	3667
637.814	5250
637.875	5114
637.936	6527
637.997	4367
638.058	6070
638.119	5455
638.179	4865
638.240	4599
638.301	4419
638.362	4091
638.423	4120
638.483	6135
638.544	3660
638.605	5146
638.666	3717
638.726	4795
638.787	5202
638.848	4376
638.908	4101
638.969	4516
639.030	3749
639.090	3219
639.151	3251
639.211	4914
639.272	5795
639.332	4411
639.393	5281
639.453	3602
639.514	5309
639.574	5069
639.635	3633
639.695	4954
639.756	3096
639.816	4842
639.877	3672
639.937	4210
639.997	3767
640.058	3275
640.118	2847
640.178	5073
640.239	3859
640.299	3992
640.359	3898
640.420	4268
640.480	4472
640.540	5467
640.600	4481
640.661	5782
640.721	3526
640.781	5613
640.841	2371
640.901	4256
640.961	4546
641.021	4395
641.082	3064
641.142	3217
641.202	4027
641.262	2568
641.322	4084
641.382	2569
641.442	3984
641.502	3770
641.562	4319
641.622	3051
641.682	3794
641.742	4621
641.802	3827
641.861	4475
641.921	3590
641.981	4190
642.041	4042
642.101	2998
642.161	1762
642.221	1852
642.280	3648
642.340	3854
642.400	2449
642.460	4413
642.519	3763
642.579	4082
642.639	4812
642.698	1304
642.758	6263
642.818	4144
642.877	2967
642.937	3359
642.997	3711
643.056	3110
643.116	2095
643.175	5233
643.235	4154
643.294	3141
643.354	4022
643.414	5590
643.473	6351
643.532	6616
643.592	10469
643.651	17824
643.711	33090
643.770	66299
643.830	159826
643.889	287591
643.948	65780
644.008	14081
644.067	8662
644.126	5044
644.186	4752
644.245	5664
644.304	2076
644.363	5687
644.423	2853
644.482	4458
644.541	4297
644.600	1996
644.659	5980
644.719	6958
644.778	12319
644.837	21874
644.896	48122
644.955	102311
645.014	28263
645.073	8210
645.132	4013
645.191	4165
645.250	3748
645.309	5855
645.368	5554
645.427	8558
645.486	13678
645.545	23264
645.604	5589
645.663	4319
645.722	4312
645.781	4388
645.840	5005
645.898	6617
645.957	10707
646.016	14957
646.075	30738
646.134	62832
646.192	169141
646.251	208690
646.310	30434
646.369	9864
646.427	8687
646.486	5632
646.545	4533
646.603	4560
646.662	4020
646.721	4174
646.779	2790
646.838	2964
646.896	5812
646.955	6711
647.014	13455
647.072	26489
647.131	71477
647.189	27823
647.248	3470
647.306	3818
647.365	2596
647.423	1395
647.481	3197
647.540	1404
647.598	2439
647.657	2319
647.715	2670
647.773	1762
647.832	2714
647.890	993
647.948	1933
648.007	3135
648.065	1395
648.123	1200
648.181	2815
648.240	2515
648.298	1308
648.356	1409
648.414	2155
648.472	1820
648.531	1718
648.589	839
648.647	1794
648.705	1555
648.763	1806
648.821	2206
648.879	1405
648.937	2240
648.995	3147
649.053	3475
649.111	7768
649.169	12799
649.227	25752
649.285	57679
649.343	152663
649.401	59691
649.459	8491
649.516	5564
649.574	3643
649.632	7518
649.690	8459
649.748	6392
649.806	9592
649.863	21026
649.921	51967
649.979	27727
650.037	4416
650.094	394
650.152	2159
650.210	748
650.268	1454
650.325	1294
650.383	1287
650.440	-506
650.498	1328
650.556	773
650.613	915
650.671	1261
650.728	83
650.786	481
650.843	2529
650.901	517
650.958	736
651.016	401
651.073	803
651.131	-235
651.188	-184
651.246	817
651.303	275
651.360	155
651.418	307
651.475	612
651.532	-85
651.590	627
651.647	-248
651.704	464
651.762	-603
651.819	748
651.876	1048
651.933	329
651.990	1131
652.048	-1602
652.105	-85
652.162	610
652.219	452
652.276	606
652.333	697
652.390	245
652.448	488
652.505	-308
652.562	-427
652.619	217
652.676	673
652.733	1991
652.790	249
652.847	-940
652.904	1089
652.961	-1353
653.017	-213
653.074	798
653.131	-107
653.188	-900
653.245	344
653.302	-294
653.359	241
653.415	477
653.472	-687
653.529	729
653.586	-250
653.642	65
653.699	1171
653.756	-615
653.813	-497
653.869	789
653.926	-736
653.983	-236
654.039	421
654.096	415
654.152	1595
654.209	-1168
654.266	-114
654.322	-839
654.379	-535
654.435	247
654.492	9
654.548	-83
654.605	-524
654.661	757
654.717	-294
654.774	-22
654.830	283
654.887	592
654.943	13
655.000	337
655.056	-507
655.112	-352
655.168	-1272
655.225	-127
655.281	449
655.337	-373
655.394	-760
655.450	-39
655.506	478
655.562	-512
655.618	882
655.675	-1447
655.731	543
655.787	-232
655.843	560
655.899	-1184
655.955	-308
656.011	-74
656.067	-1094
656.123	178
656.179	-500
656.235	767
656.291	-1864
656.347	741
656.403	-654
656.459	222
656.515	-206
656.571	-353
656.627	-328
656.683	96
656.739	366
656.795	574
656.850	-158
656.906	491
656.962	448
657.018	-618
657.074	-342
657.129	793
657.185	2853
657.241	6894
657.297	2447
657.352	-170
657.408	-89
657.464	331
657.519	-459
657.575	-1035
657.630	-222
657.686	234
657.742	-1292
657.797	-817
657.853	-651
657.908	314
657.964	-930
658.019	-194
658.075	431
658.130	-27
658.186	-1185
658.241	76
658.297	-1760
658.352	-455
658.407	140
658.463	-1140
658.518	-523
658.573	-317
658.629	-908
658.684	-564
658.739	140
658.795	-1364
658.850	-454
658.905	-577
658.960	-748
659.016	-543
659.071	-236
659.126	-224
659.181	-1080
659.236	431
659.291	186
659.346	-873
659.401	-34
659.457	721
659.512	-520
659.567	804
659.622	-1173
659.677	-396
659.732	-1195
659.787	-1489
659.842	-781
659.897	-1017
659.952	-514
660.007	-772
660.061	39
660.116	-955
660.171	-1241
660.226	-443
660.281	386
660.336	-1344
660.391	-462
660.445	-1519
660.500	247
660.555	-519
660.610	-1316
660.664	-245
660.719	-578
660.774	-736
660.828	-645
660.883	-860
660.938	-120
660.992	-1696
661.047	-634
661.101	-1080
661.156	-934
661.211	-1629
661.265	-563
661.320	-685
661.374	-392
661.429	-1396
661.483	-228
661.538	-1185
661.592	-664
661.647	327
661.701	-532
661.755	-353
661.810	-318
661.864	-982
661.919	-1336
661.973	-576
662.027	-235
662.081	-1896
662.136	-929
662.190	467
662.244	-451
662.299	-810
662.353	121
662.407	-457
662.461	-1112
662.515	-379
662.569	-660
662.624	-321
662.678	-844
662.732	-1171
662.786	-255
662.840	333
662.894	-828
662.948	-101
663.002	-1124
663.056	-414
663.110	-966
663.164	-562
663.218	-320
663.272	-694
663.326	-1182
663.380	-816
663.434	-440
663.488	-927
663.542	-231
663.595	-530
663.649	-343
663.703	-270
663.757	-1220
663.811	-1147
663.864	-524
663.918	-469
663.972	-1283
664.026	-1137
664.079	-1012
664.133	-168
664.187	-552
664.240	-778
664.294	-776
664.348	-1168
664.401	-293
664.455	-500
664.508	-769
664.562	-914
664.615	-721
664.669	-1377
664.722	-722
664.776	-1012
664.829	-239
664.883	-963
664.936	-1077
664.990	-1326
665.043	-667
665.097	-1033
665.150	189
665.203	-841
665.257	-860
665.310	-361
665.363	-938
665.417	-1082
665.470	-435
665.523	-688
665.576	-246
665.630	-670
665.683	-386
665.736	-815
665.789	-1066
665.842	-430
665.895	-1093
665.949	-179
666.002	-665
666.055	-1117
666.108	-538
666.161	-1181
666.214	215
666.267	-426
666.320	-574
666.373	-468
666.426	344
666.479	-742
666.532	-1066
666.585	20
666.638	-453
666.691	-1026
666.744	191
666.796	-1847
666.849	-581
666.902	481
666.955	-931
667.008	-1330
667.060	-1289
667.113	-911
667.166	-468
667.219	-162
667.271	-244
667.324	-718
667.377	-923
667.430	-608
667.482	-28
667.535	-21
667.587	-801
667.640	-474
667.693	-1261
667.745	-622
667.798	-650
667.850	-1378
667.903	-964
667.955	-542
668.008	-1132
668.060	-1154
668.113	-865
668.165	-473
668.218	-651
668.270	-182
668.322	-291
668.375	-1127
668.427	-262
668.479	-836
668.532	-800
668.584	-698
668.636	-103
668.689	-374
668.741	-2
668.793	-760
668.845	-1111
668.898	-1143
668.950	-705
669.002	-659
669.054	-249
669.106	-942
669.158	81
669.211	-290
669.263	-996
669.315	71
669.367	-744
669.419	-1243
669.471	-769
669.523	-1132
669.575	-303
669.627	-705
669.679	-1344
669.731	-974
669.783	-396
669.835	-942
669.886	-1097
669.938	-141
669.990	-748
670.042	-1371
670.094	-568
670.146	-1118
670.197	-447
670.249	-705
670.301	-569
670.353	-817
670.404	-121
670.456	-432
670.508	761
670.560	2617
670.611	5173
670.663	9322
670.715	25899
670.766	36092
670.818	7367
670.869	-145
670.921	394
670.972	-202
671.024	-882
671.075	395
671.127	-309
671.178	-980
671.230	-692
671.281	-814
671.333	-517
671.384	367
671.436	-64
671.487	1498
671.538	2119
671.590	4865
671.641	9639
671.692	18180
671.744	34214
671.795	20985
671.846	5765
671.897	1531
671.949	1130
672.000	-216
672.051	-703
672.102	-13
672.153	-958
672.204	-491
672.256	-776
672.307	-748
672.358	-1502
672.409	-1205
672.460	-1068
672.511	-759
672.562	-563
672.613	-1017
672.664	-801
672.715	-711
672.766	-444
672.817	-1249
672.868	-1368
672.919	-498
672.970	-1454
673.021	-327
673.071	-978
673.122	-843
673.173	-501
673.224	-637
673.275	-1595
673.326	-808
673.376	-1686
673.427	-1330
673.478	-1260
673.528	-783
673.579	-313
673.630	-219
673.680	-497
673.731	-1443
673.782	-1309
673.832	-1852
673.883	-538
673.934	-1078
673.984	-628
674.035	-978
674.085	-1536
674.136	-441
674.186	-1237
674.237	-963
674.287	-1457
674.338	-863
674.388	-1359
674.438	-1203
674.489	-552
674.539	-1287
674.589	-1279
674.640	-397
674.690	-828
674.740	-1047
674.791	-1233
674.841	-544
674.891	-429
674.942	-799
674.992	-968
675.042	-1715
675.092	-1165
675.142	-1566
675.193	-1111
675.243	-913
675.293	-1504
675.343	-1349
675.393	-1515
675.443	-1426
675.493	-781
675.543	-1632
675.593	-738
675.643	-1620
675.693	-1531
675.743	-975
675.793	-906
675.843	-1564
675.893	-1227
675.943	-1054
675.993	-685
676.043	-1404
676.093	-931
676.142	-1560
676.192	-1741
676.242	-1726
676.292	-945
676.341	-1252
676.391	-1651
676.441	-1382
676.491	-1377
676.540	-1270
676.590	-249
676.640	-1127
676.689	-519
676.739	-1339
676.789	-1430
676.838	-1039
676.888	-1935
676.937	-899
676.987	-899
677.037	-1780
677.086	-1188
677.136	-1493
677.185	-1980
677.235	-1137
677.284	-1482
677.333	-1031
677.383	-1636
677.432	-691
677.482	-1400
677.531	-1669
677.580	-1458
677.630	-1515
677.679	-1086
677.728	-1352
677.778	-334
677.827	-1112
677.876	-1480
677.925	-1200
677.975	-891
678.024	-1453
678.073	-1117
678.122	-1115
678.171	-1104
678.220	-1232
678.269	-1355
678.319	-1559
678.368	-732
678.417	-873
678.466	-854
678.515	-1497
678.564	-1338
678.613	-1353
678.662	-1770
678.711	-923
678.760	-1208
678.809	-2074
678.857	-1466
678.906	-1444
678.955	-1697
679.004	-322
679.053	-1550
679.102	-1097
679.151	-1598
679.199	-2388
679.248	-950
679.297	-1125
679.346	-2573
679.394	-1551
679.443	-619
679.492	-792
679.540	-1380
679.589	-541
679.638	-1302
679.686	-967
679.735	-1030
679.784	-1597
679.832	-684
679.881	-2180
679.929	-1206
679.978	-1560
680.026	-1450
680.075	-1614
680.123	-987
680.172	-1404
680.220	-1365
680.268	-954
680.317	-2066
680.365	-2207
680.414	-1786
680.462	-1887
680.510	-585
680.559	-1835
680.607	-628
680.655	-1440
680.703	-1601
680.752	-1647
680.800	-1314
680.848	-1229
680.896	-1582
680.945	-1330
680.993	-1504
681.041	-1410
681.089	-707
681.137	-1228
681.185	-1246
681.233	-1388
681.258	-1134
681.281	-904
681.329	-2084
681.377	-1473
681.380	-1428
681.425	-795
681.473	-1082
681.502	-1405
681.521	-1657
681.569	-1578
681.617	-1509
681.624	-1382
681.665	-643
681.713	-989
681.745	-1327
681.761	-1502
681.809	-1739
681.857	-753
681.867	-646
681.904	-340
681.952	-1025
681.989	-525
682.000	-384
682.048	-1171
682.096	-703
682.111	-780
682.143	-993
682.191	-1006
682.233	-510
682.239	-450
682.286	-1109
682.334	-1273
682.354	-1230
682.382	-1173
682.430	-973
682.476	-1270
682.477	-1288
682.525	-597
682.572	-1488
682.598	-1341
682.620	-1211
682.667	-130
682.715	-1070
682.720	-1022
682.763	-733
682.810	-707
682.841	-418
682.857	-276
682.905	-561
682.952	-552
682.963	-557
683.000	-606
683.047	-389
683.085	543
683.095	775
683.142	-557
683.190	-319
683.206	-371
683.237	-478
683.284	-401
683.328	-592
683.332	-622
683.379	146
683.426	-453
683.449	-661
683.473	-863
683.521	-587
683.568	-445
683.571	-420
683.615	-183
683.662	-11
683.693	-415
683.709	-670
683.757	-2
683.804	128
683.814	-113
683.851	-988
683.898	107
683.936	-258
683.945	-338
683.992	-10
684.039	24
684.057	-91
684.086	-343
684.133	-456
684.179	265
684.180	283
684.227	272
684.274	-97
684.300	144
684.321	346
684.368	77
684.415	876
684.422	765
684.462	53
684.509	-207
684.543	-58
684.556	-43
684.603	20
684.649	437
684.665	349
684.696	245
684.743	78
684.786	913
684.790	972
684.837	585
684.883	264
684.908	324
684.930	366
684.977	57
685.023	1170
685.029	1121
685.070	665
685.117	154
685.150	498
685.164	621
685.210	156
685.257	273
685.272	315
685.303	469
685.350	704
685.393	544
685.396	526
685.443	430
685.490	562
685.514	623
685.536	590
685.583	1262
685.629	196
685.636	200
685.675	387
685.722	473
685.757	817
685.768	892
685.815	752
685.861	853
685.878	799
685.908	787
685.954	560
686.000	1060
686.000	1061
686.047	843
686.093	608
686.121	583
686.139	681
686.185	1017
686.232	903
686.242	985
686.278	1108
686.324	715
686.363	1226
686.370	1331
686.416	1169
686.463	1140
686.484	1273
686.509	1382
686.555	485
686.601	1009
686.606	1041
686.647	1297
686.693	1395
686.727	1201
686.739	1144
686.785	1174
686.831	1376
686.848	1310
686.877	1160
686.923	1523
686.969	1233
686.969	1232
687.015	1196
687.061	1608
687.090	1809
687.107	1848
687.153	1512
687.199	2048
687.211	1834
687.245	1171
687.291	1218
687.332	1232
687.336	1271
687.382	1331
687.428	1805
687.453	1877
687.474	1773
687.520	1904
687.565	2082
687.574	1870
687.611	1193
687.657	1697
687.695	2136
687.702	2234
687.748	2254
687.794	2631
687.816	2507
687.839	2160
687.885	1937
687.931	1534
687.937	1486
687.976	1446
688.022	1762
688.058	2000
688.067	2074
688.113	2219
688.158	1801
688.179	2038
688.204	2229
688.249	2193
688.295	1832
688.300	1823
688.340	1838
688.386	1935
688.421	1908
688.431	1912
688.477	1720
688.522	1867
688.542	2234
688.567	2781
688.613	2600
688.658	2704
688.663	2705
688.703	2410
688.749	2284
688.784	1960
688.794	1917
688.839	2309
688.884	2401
688.905	2425
688.930	2460
688.975	2282
689.020	2573
689.026	2546
689.065	2324
689.110	2430
689.146	2128
689.155	2083
689.201	2706
689.246	2249
689.267	2311
689.291	2412
689.336	2315
689.381	2416
689.388	2496
689.426	2837
689.471	2615
689.509	2534
689.516	2521
689.561	2567
689.606	2545
689.630	2359
689.651	2217
689.696	2524
689.741	2558
689.750	2633
689.785	3020
689.830	3087
689.871	2775
689.875	2722
689.920	2877
689.965	2256
689.992	2407
690.010	2622
690.054	2029
690.099	2134
690.112	2223
690.144	2518
690.189	2625
690.233	2903
690.233	2911
690.278	3052
690.323	3174
690.354	3260
690.367	3296
690.412	3410
690.457	3366
690.474	3445
690.501	3459
690.546	3277
690.590	3398
690.595	3350
690.635	3704
690.680	4212
690.716	4493
690.724	4540
690.769	5725
690.813	6485
690.836	6540
690.857	7556
690.902	10129
690.946	13047
690.957	13612
690.991	19234
691.035	27366
691.077	34362
691.080	34211
691.124	29319
691.168	25226
691.198	22329
691.213	20439
691.257	15090
691.301	9366
691.318	7220
691.346	6878
691.390	6295
691.434	5267
691.439	5191
691.478	4972
691.522	4923
691.559	4266
691.567	4215
691.611	4502
691.655	4430
691.680	4473
691.699	4389
691.743	3823
691.787	3367
691.800	3276
691.831	3463
691.875	3507
691.919	3768
691.921	3758
691.964	3554
692.008	3991
692.041	3718
692.052	3687
692.096	3997
692.139	4565
692.162	4271
692.183	3767
692.227	3815
692.271	3493
692.282	3411
692.315	3613
692.359	3588
692.402	4035
692.403	4047
692.447	3637
692.490	3891
692.523	3750
692.534	3749
692.578	3839
692.622	3592
692.643	3813
692.666	3971
692.709	3709
692.753	3729
692.763	3647
692.797	3709
692.840	4070
692.884	4219
692.884	4230
692.928	4370
692.971	3976
693.004	4014
693.015	4107
693.059	4185
693.102	4099
693.124	4303
693.146	4596
693.189	4727
693.233	4904
693.245	4975
693.276	5370
693.320	6099
693.363	6330
693.365	6335
693.407	7071
693.450	7582
693.485	8243
693.493	8642
693.537	10342
693.580	12097
693.605	13144
693.624	15700
693.667	21824
693.710	27658
693.725	29792
693.753	41353
693.797	59306
693.840	77606
693.845	79537
693.883	70285
693.926	59387
693.966	50158
693.970	49005
694.013	35934
694.056	22561
694.086	13409
694.099	12811
694.142	10774
694.185	8472
694.206	7554
694.229	7325
694.272	6789
694.315	6332
694.326	6122
694.358	5857
694.401	5364
694.444	5115
694.446	5090
694.487	5216
694.530	5292
694.566	5209
694.573	5200
694.616	5044
694.659	4850
694.686	4951
694.702	5017
694.745	4723
694.787	4784
694.806	4784
694.830	4801
694.873	4591
694.916	4332
694.926	4329
694.959	4502
695.002	4366
695.044	4150
695.046	4151
695.087	4526
695.130	4288
695.166	4467
695.172	4541
695.215	4507
695.258	4846
695.286	4871
695.301	4845
695.343	4663
695.386	4849
695.406	4817
695.428	5047
695.471	5665
695.514	5919
695.526	6039
695.556	6316
695.599	6706
695.641	6944
695.646	6963
695.684	6727
695.726	6234
695.766	6005
695.769	6024
695.811	5991
695.854	5911
695.886	5799
695.896	5878
695.938	6034
695.981	6222
696.005	6384
696.023	6423
696.065	6447
696.108	6576
696.125	6521
696.150	6657
696.192	6995
696.235	7199
696.245	7229
696.277	7469
696.319	7769
696.361	8220
696.365	8232
696.404	8371
696.446	8310
696.485	8336
696.488	8329
696.530	7883
696.572	7446
696.604	7090
696.614	7136
696.656	7168
696.698	7342
696.724	7272
696.740	7167
696.783	7089
696.825	7057
696.844	6922
696.867	7019
696.909	7215
696.951	7434
696.964	7495
696.992	7581
697.034	7616
697.076	7542
697.083	7535
697.118	7668
697.160	7766
697.202	7827
697.203	7802
697.244	7582
697.286	7607
697.323	7392
697.327	7408
697.369	7396
697.411	7358
697.442	7383
697.453	7456
697.494	7560
697.536	7755
697.562	7807
697.578	7832
697.620	7947
697.661	7928
697.682	7905
697.703	8005
697.744	8110
697.786	8377
697.801	8394
697.828	8300
697.869	8172
697.911	7994
697.921	7936
697.952	8170
697.994	8407
698.035	8698
698.040	8703
698.077	8655
698.118	8597
698.160	8498
698.160	8471
698.201	8350
698.243	8192
698.279	8053
698.284	8151
698.325	8786
698.367	9519
698.399	9962
698.408	9956
698.449	9850
698.491	9751
698.518	9646
698.532	9628
698.573	9501
698.614	9323
698.638	9229
698.656	9310
698.697	9396
698.738	9486
698.757	9504
698.779	9573
698.820	9640
698.862	9718
698.877	9720
698.903	9911
698.944	10160
698.985	10413
698.996	10454
699.026	10443
699.067	10384
699.116	10284
699.235	9286
699.354	9238
699.474	8031
699.593	8818
699.713	9382
699.832	9101
699.951	10012
700.070	9298
700.190	8664
700.309	8559
700.428	8651
700.547	8018
700.667	7961
700.786	8055
700.905	7993
701.024	8836
701.143	7211
701.262	8465
701.381	8710
701.500	8185
701.619	8674
701.738	8201
701.857	9193
701.976	7674
702.095	7503
702.214	9110
702.333	7766
702.452	7940
702.571	7952
702.690	8534
702.809	8035
702.928	7811
703.047	7323
703.165	7742
703.284	7700
703.403	7722
703.522	7861
703.640	7721
703.759	7520
703.878	7486
703.997	7310
704.115	7760
704.234	7705
704.353	6637
704.471	6536
704.590	6874
704.708	6424
704.827	7511
704.946	7096
705.064	6523
705.183	7228
705.301	6938
705.420	6745
705.538	7299
705.656	6455
705.775	8091
705.893	15669
706.012	17267
706.130	7027
706.249	7263
706.367	6778
706.485	5847
706.604	6333
706.722	6094
706.840	6381
706.958	7379
707.077	6832
707.195	6111
707.313	5857
707.431	5639
707.549	5366
707.668	6609
707.786	5961
707.904	5546
708.022	6238
708.140	5743
708.258	5257
708.376	6116
708.494	5756
708.612	6534
708.730	6142
708.848	5544
708.966	5765
709.084	5916
709.202	6512
709.320	6064
709.438	5182
709.556	5468
709.674	4902
709.791	5028
709.909	5262
710.027	5525
710.145	4547
710.263	6266
710.380	4230
710.498	5496
710.616	4833
710.733	4808
710.851	4613
710.969	5240
711.086	4689
711.204	4857
711.322	5282
711.439	4970
711.557	4249
711.674	4852
711.792	4922
711.909	5781
712.027	6606
712.144	4706
712.262	4130
712.379	3860
712.497	5492
712.614	4383
712.732	5419
712.849	3668
712.966	4673
713.084	4277
713.201	4731
713.318	4802
713.436	5313
713.553	5023
713.670	4669
713.787	5666
713.905	5044
714.022	5515
714.139	5504
714.256	7480
714.373	10186
714.490	20284
714.608	63724
714.725	258570
714.842	218879
714.959	19258
715.076	8090
715.193	6713
715.310	6295
715.427	3982
715.544	4644
715.661	4944
715.778	4225
715.895	4499
716.011	4716
716.128	4362
716.245	4041
716.362	4635
716.479	3795
716.596	4448
716.713	3736
716.829	3858
716.946	3779
717.063	3512
717.180	3500
717.296	4242
717.413	4015
717.530	3536
717.646	3272
717.763	3406
717.880	3399
717.996	2770
718.113	4091
718.229	2963
718.346	2921
718.462	3335
718.579	2846
718.695	3767
718.812	3240
718.928	3277
719.045	3057
719.161	3293
719.277	3191
719.394	4325
719.510	3683
719.626	4114
719.743	5512
719.859	9201
719.975	21157
720.092	88714
720.208	178626
720.324	17295
720.440	5409
720.557	4424
720.673	3857
720.789	3102
720.905	4067
721.021	3228
721.137	2431
721.253	2466
721.369	2991
721.486	3643
721.602	3412
721.718	3037
721.834	2256
721.950	3192
722.066	2068
722.181	3123
722.297	2807
722.413	2426
722.529	2749
722.645	3406
722.761	2321
722.877	2238
722.993	3001
723.108	4024
723.224	3254
723.340	2811
723.456	2881
723.571	3177
723.687	2923
723.803	2893
723.918	2243
724.034	2286
724.150	2206
724.265	3186
724.381	2819
724.497	2958
724.612	2241
724.728	1807
724.843	2205
724.959	2640
725.074	2572
725.190	3125
725.305	3035
725.421	2453
725.536	3315
725.651	2949
725.767	2590
725.882	2976
725.997	2521
726.113	2435
726.228	2690
726.343	2822
726.459	1780
726.574	2093
726.689	1573
726.804	2213
726.920	2543
727.035	3014
727.150	2497
727.265	2456
727.380	2433
727.495	1995
727.610	2049
727.725	2334
727.841	3489
727.956	7861
728.071	4598
728.186	2434
728.301	2121
728.416	2801
728.531	2824
728.645	1691
728.760	1678
728.875	1937
728.990	2283
729.105	1723
729.220	2467
729.335	1783
729.449	1966
729.564	2453
729.679	1862
729.794	2417
729.908	1683
730.023	1682
730.138	2539
730.253	2101
730.367	1990
730.482	2844
730.596	2062
730.711	3173
730.826	3348
730.940	3523
731.055	2198
731.169	2644
731.284	2441
731.398	2879
731.513	2684
731.627	2499
731.742	3712
731.856	4760
731.970	4847
732.085	5912
732.199	9575
732.313	16863
732.428	47182
732.542	138258
732.656	68550
732.771	12248
732.885	7122
732.999	6379
733.113	6151
733.227	6461
733.342	5014
733.456	5759
733.570	5071
733.684	4430
733.798	5256
733.912	4651
734.026	4580
734.140	4850
734.254	4347
734.368	5226
734.482	4910
734.596	4434
734.710	3781
734.824	4944
734.938	4694
735.052	4503
735.166	4641
735.280	4738
735.393	4612
735.507	3837
735.621	4109
735.735	4661
735.849	4455
735.962	4118
736.076	4370
736.190	4098
736.303	4187
736.417	4478
736.531	3388
736.644	4140
736.758	3496
736.872	3878
736.985	3724
737.099	3585
737.212	3463
737.326	3212
737.439	4918
737.553	3862
737.666	3665
737.780	3558
737.893	3743
738.007	3938
738.120	2895
738.233	3159
738.347	3468
738.460	3357
738.573	4205
738.687	3007
738.800	3457
738.913	3406
739.026	3902
739.140	3299
739.253	4082
739.366	3510
739.479	3922
739.592	2909
739.705	2799
739.818	4116
739.932	3107
740.045	4317
740.158	3199
740.271	3352
740.384	2927
740.497	3299
740.610	4007
740.723	3332
740.836	3098
740.949	3330
741.062	3526
741.174	3351
741.287	3036
741.400	2841
741.513	2673
741.626	3336
741.739	3166
741.851	3190
741.964	2279
742.077	3187
742.189	2827
742.302	3558
742.415	2486
742.527	2858
742.640	4323
742.753	3865
742.865	3058
742.978	3016
743.090	3133
743.203	2949
743.316	3603
743.428	2763
743.541	2896
743.653	3533
743.766	2822
743.878	3003
743.990	2132
744.103	4230
744.215	2745
744.327	1693
744.440	3027
744.552	2935
744.664	2743
744.777	3023
744.889	1659
745.001	2821
745.113	2857
745.226	2701
745.338	2628
745.450	2409
745.562	2446
745.674	2679
745.786	2611
745.898	3022
746.010	2063
746.122	1386
746.234	3025
746.347	2093
746.459	2899
746.570	1678
746.682	3430
746.794	3611
746.906	2243
747.018	1780
747.130	3056
747.242	1906
747.354	2660
747.466	3234
747.577	2240
747.689	3188
747.801	2443
747.913	1882
748.024	2959
748.136	2743
748.248	2612
748.359	1758
748.471	2550
748.583	2237
748.694	2505
748.806	3054
748.918	1813
749.029	2677
749.141	2021
749.252	3158
749.364	1441
749.475	1622
749.587	2441
749.698	2303
749.809	1896
749.921	1532
750.032	1890
750.144	2118
750.255	1637
750.366	1746
750.478	1901
750.589	3402
750.700	1536
750.811	2119
750.923	2505
751.034	1935
751.145	2431
751.256	2440
751.367	2398
751.479	1838
751.590	2545
751.701	2051
751.812	2132
751.923	2783
752.034	3093
752.145	2312
752.256	1928
752.367	2499
752.478	2051
752.589	1838
752.700	2917
752.811	1794
752.922	1865
753.032	2295
753.143	2870
753.254	1922
753.365	2579
753.476	2463
753.586	2322
753.697	2449
753.808	1977
753.919	1749
754.029	1075
754.140	2195
754.251	2314
754.361	2520
754.472	2514
754.582	1602
754.693	2595
754.804	2512
754.914	2029
755.025	2104
755.135	1518
755.246	2523
755.356	1751
755.466	2132
755.577	2434
755.687	2533
755.798	1756
755.908	1949
756.018	2170
756.129	3074
756.239	2336
756.349	2365
756.460	2344
756.570	3220
756.680	2859
756.790	1667
756.900	1843
757.011	2506
757.121	2289
757.231	2140
757.341	3141
757.451	2725
757.561	1718
757.671	2476
757.781	2263
757.891	2906
758.001	2127
758.111	2846
758.221	3442
758.331	2435
758.441	2469
758.551	1636
758.661	2723
758.771	3101
758.880	2644
758.990	2344
759.100	2984
759.210	2971
759.320	3485
759.429	3149
759.539	3154
759.649	3291
759.758	3723
759.868	4954
759.978	3812
760.087	3823
760.197	4372
760.307	4494
760.416	3439
760.526	3175
760.635	3934
760.745	4102
760.854	4215
760.964	4930
761.073	5546
761.182	4636
761.292	4794
761.401	4259
761.511	4397
761.620	4341
761.729	4163
761.839	4391
761.948	4801
762.057	4946
762.166	4236
762.276	3958
762.385	5135
762.494	4952
762.603	4378
762.712	5308
762.822	5320
762.931	5427
763.040	5464
763.149	6599
763.258	6532
763.367	6528
763.476	6890
763.585	8463
763.694	7904
763.803	8385
763.912	9465
764.021	9757
764.130	8980
764.238	10998
764.347	11314
764.456	12207
764.565	13199
764.674	14213
764.783	14757
764.891	18124
765.000	20182
765.109	23185
765.217	26592
765.326	30945
765.435	36234
765.543	44371
765.652	56175
765.761	72528
765.869	97563
765.978	133545
766.086	189004
766.195	261507
766.303	311158
766.412	231117
766.520	225587
766.629	300919
766.737	242831
766.846	172139
766.954	122843
767.062	92103
767.171	71358
767.279	55301
767.387	44065
767.496	35658
767.604	30570
767.712	27757
767.820	23289
767.928	22117
768.037	20288
768.145	19986
768.253	18392
768.361	17440
768.469	17738
768.577	17392
768.685	19777
768.793	19305
768.901	21754
769.009	26293
769.117	31726
769.225	40650
769.333	55082
769.441	82626
769.549	129503
769.657	210420
769.765	277416
769.873	211004
769.981	258691
770.088	195892
770.196	122333
770.304	81529
770.412	57413
770.519	44471
770.627	35905
770.735	28118
770.842	24098
770.950	21152
771.058	17047
771.165	16525
771.273	14698
771.380	13808
771.488	13297
771.595	12328
771.703	11167
771.810	10194
771.918	10197
772.025	9596
772.133	10216
772.240	8665
772.348	9579
772.455	9798
772.562	8597
772.670	7114
772.777	8245
772.884	7324
772.991	7058
773.099	7129
773.206	5301
773.313	6399
773.420	6425
773.528	6143
773.635	6012
773.742	6357
773.849	5690
773.956	4872
774.063	5447
774.170	5621
774.277	5629
774.384	5441
774.491	4088
774.598	5006
774.705	4577
774.812	5224
774.919	5228
775.026	4677
775.133	4025
775.239	4409
775.346	4204
775.453	4816
775.560	3495
775.667	4099
775.773	3908
775.880	4562
775.987	3699
776.093	4474
776.200	3949
776.307	2974
776.413	3908
776.520	3633
776.627	4249
776.733	3198
776.840	2439
776.946	5075
777.053	4612
777.159	4834
777.266	2628
777.372	3994
777.478	2791
777.585	3837
777.691	3239
777.798	3243
777.904	3190
778.010	3125
778.117	3860
778.223	2335
778.329	2838
778.435	2582
778.542	3755
778.648	2943
778.754	2252
778.860	2652
778.966	2877
779.072	3064
779.178	2866
779.284	2456
779.391	2244
779.497	1927
779.603	4195
779.708	3002
779.815	6915
779.920	22585
780.026	40111
780.132	5556
780.238	3281
780.344	2166
780.450	3145
780.556	1473
780.661	1337
780.767	2660
780.873	1866
780.979	2735
781.085	1358
781.190	2183
781.296	1896
781.402	2274
781.507	1914
781.613	2393
781.719	1382
781.824	1467
781.930	2009
782.035	2062
782.141	2378
782.246	1004
782.352	1557
782.457	1647
782.563	1338
782.668	1777
782.773	1509
782.879	1070
782.984	1773
783.090	1785
783.195	2107
783.300	924
783.405	1948
783.511	1011
783.616	1361
783.721	824
783.826	613
783.932	1555
784.037	1894
784.142	1555
784.247	656
784.352	836
784.457	845
784.562	1725
784.667	1797
784.772	791
784.877	504
784.982	1948
785.087	866
785.192	2272
785.297	1290
785.402	1004
785.507	963
785.611	2033
785.716	1759
785.821	1714
785.926	549
786.031	1604
786.135	780
786.240	2158
786.345	-510
786.450	2262
786.554	1085
786.659	672
786.763	-172
786.868	2141
786.973	1493
787.077	1476
787.182	487
787.286	1207
787.391	1205
787.495	364
787.600	378
787.704	200
787.809	1503
787.913	461
788.017	869
788.122	1377
788.226	1232
788.330	71
788.435	504
788.539	1727
788.643	208
788.747	420
788.852	301
788.956	202
789.060	1886
789.164	1204
789.268	349
789.372	1066
789.476	518
789.580	186
789.684	545
789.788	1271
789.892	845
789.996	745
790.100	579
790.204	13
790.308	1059
790.412	394
790.516	641
790.620	262
790.724	779
790.828	-201
790.931	-501
791.035	2188
791.139	-66
791.242	-348
791.346	992
791.450	-35
791.554	605
791.657	-750
791.761	498
791.864	2017
791.968	881
792.072	913
792.175	935
792.279	-434
792.382	798
792.486	158
792.589	416
792.693	881
792.796	-672
792.899	1559
793.003	989
793.106	-834
793.209	-341
793.313	935
793.416	-991
793.519	1647
793.623	972
793.726	-323
793.829	505
793.932	130
794.035	-889
794.138	548
794.242	1157
794.345	383
794.448	1336
794.551	1695
794.654	11739
794.757	21681
794.860	2910
794.963	929
795.066	-598
795.169	1189
795.272	-548
795.375	632
795.477	52
795.580	116
795.683	-689
795.786	982
795.889	-333
795.991	700
796.094	1164
796.197	-1036
796.300	1434
796.402	-383
796.505	-161
796.608	566
796.710	656
796.813	738
796.915	380
797.018	275
797.120	213
797.223	-1200
797.326	943
797.428	-445
797.530	-11
797.633	194
797.735	1299
797.838	-738
797.940	809
798.042	-50
798.145	-509
798.247	1015
798.349	-1518
798.452	1125
798.554	-326
798.656	117
798.758	1321
798.860	-56
798.962	179
799.065	-651
799.167	-850
799.269	523
799.371	993
799.473	972
799.575	-766
799.677	358
799.779	845
799.881	-1819
799.983	544
800.085	1045
800.187	453
800.289	-975
800.390	-923
800.492	-100
800.594	814
800.696	-1642
800.798	227
800.899	273
801.001	-490
801.103	-42
801.205	-468
801.306	910
801.408	-678
801.509	38
801.611	-374
801.713	-502
801.814	-959
801.916	293
802.017	9
802.119	-333
802.220	-106
802.322	-1844
802.423	1654
802.525	-1785
802.626	-578
802.727	105
802.829	1121
802.930	-1883
803.031	421
803.133	-309
803.234	102
803.335	753
803.436	-805
803.538	264
803.639	-1352
803.740	220
803.841	-976
803.942	510
804.043	341
804.144	-537
804.245	-221
804.346	-836
804.447	-105
804.548	-383
804.649	383
804.750	-649
804.851	-304
804.952	-181
805.053	-228
805.154	-1495
805.255	594
805.355	-326
805.456	-317
805.557	-1160
805.658	-1188
805.758	350
805.859	-571
805.960	175
806.061	222
806.161	-1346
806.262	-235
806.362	-271
806.463	-315
806.564	81
806.664	-500
806.765	-484
806.865	-277
806.966	-554
807.066	-281
807.166	-158
807.267	799
807.367	-353
807.468	461
807.568	-846
807.668	858
807.769	394
807.869	-1146
807.969	-519
808.069	-453
808.170	-487
808.270	-1064
808.370	-147
808.470	52
808.570	-1267
808.670	-463
808.770	-992
808.870	-99
808.970	103
809.070	-1084
809.170	-980
809.271	-421
809.370	515
809.470	-163
809.570	-766
809.670	-841
809.770	-707
809.870	643
809.970	-37
810.070	-532
810.169	521
810.269	-1799
810.369	729
810.469	-1327
810.568	-604
810.668	-1095
810.768	-625
810.867	-1234
810.967	-548
811.066	-552
811.166	-574
811.265	-288
811.365	-885
811.464	-642
811.564	7
811.663	207
811.763	-1485
811.862	-266
811.962	44
812.061	-913
812.160	-320
812.260	-439
812.359	316
812.458	-1308
812.557	433
812.657	-222
812.756	-115
812.855	234
812.954	-408
813.053	184
813.153	-309
813.252	-1365
813.351	102
813.450	-308
813.549	-1317
813.648	342
813.747	-1387
813.846	-84
813.945	-1237
814.044	-705
814.143	15
814.242	178
814.341	-996
814.439	-643
814.538	223
814.637	-600
814.736	-650
814.835	382
814.933	-565
815.032	-79
815.131	300
815.229	1389
815.328	1991
815.427	1273
815.525	1044
815.624	245
815.722	408
815.821	1406
815.919	1049
816.018	257
816.116	1479
816.215	474
816.313	1493
816.412	361
816.510	1695
816.609	2532
816.707	1347
816.805	2114
816.904	653
817.002	1665
817.100	2165
817.198	2113
817.296	1036
817.395	1938
817.493	2508
817.591	255
817.689	1783
817.787	764
817.885	1623
817.983	1594
818.081	3258
818.179	5215
818.277	11635
818.375	8235
818.473	2770
818.571	1390
818.669	2157
818.767	2143
818.865	2478
818.963	1197
819.061	1549
819.158	1934
819.256	6431
819.354	8596
819.452	22239
819.549	10349
819.647	3511
819.745	1561
819.842	1161
819.940	1064
820.038	914
820.135	807
820.233	2142
820.330	1054
820.428	1075
820.525	2093
820.623	763
820.720	95
820.818	726
820.915	1389
821.012	960
821.110	-234
821.207	2216
821.304	-68
821.402	506
821.499	1859
821.596	1373
821.693	622
821.791	1391
821.888	808
821.985	1834
822.082	-943
822.179	755
822.276	1434
822.373	1082
822.470	370
822.567	1076
822.664	601
822.761	1081
822.858	190
822.955	1083
823.052	198
823.149	81
823.246	342
823.343	949
823.440	1290
823.536	170
823.633	-217
823.730	-195
823.827	508
823.923	960
824.020	1389
824.117	498
824.213	-618
824.310	817
824.407	844
824.503	1189
824.600	-121
824.696	20
824.793	747
824.889	701
824.986	464
825.082	-168
825.179	1373
825.275	15
825.371	303
825.468	591
825.564	-953
825.660	814
825.757	1198
825.853	961
825.949	200
826.045	-271
826.142	-300
826.238	430
826.334	640
826.430	-240
826.526	1286
826.622	-203
826.718	962
826.814	638
826.910	1036
827.006	-908
827.102	46
827.198	1245
827.294	436
827.390	741
827.486	281
827.582	-772
827.678	-696
827.774	1083
827.869	-475
827.965	1190
828.061	-186
828.157	1011
828.252	607
828.348	132
828.444	1015
828.539	-1030
828.635	620
828.731	289
828.826	-234
828.922	494
829.017	331
829.113	1220
829.208	-430
829.304	-687
829.399	1410
829.495	-209
829.590	798
829.685	-586
829.781	215
829.876	270
829.971	47
830.066	-484
830.162	-65
830.257	454
830.352	-385
830.447	718
830.543	66
830.638	-475
830.733	714
830.828	-530
830.923	228
831.018	-480
831.113	-264
831.208	-884
831.303	-538
831.398	-732
831.493	-560
831.588	815
831.683	-1315
831.778	-608
831.873	-588
831.967	1066
832.062	-201
832.157	-1273
832.252	275
832.346	-653
832.441	1093
832.536	-877
832.631	288
832.725	-542
832.820	-586
832.914	12
833.009	-1079
833.104	-672
833.198	172
833.293	-988
833.387	-316
833.482	-666
833.576	366
833.670	209
833.765	-865
833.859	-404
833.954	533
834.048	-537
834.142	-433
834.237	-663
834.331	-817
834.425	1052
834.519	-930
834.613	84
834.708	-653
834.802	-653
834.896	-1103
834.990	-292
835.084	-467
835.178	-484
835.272	-468
835.366	283
835.460	10
835.554	144
835.648	-296
835.742	-751
835.836	-669
835.930	-1532
836.024	96
836.117	224
836.211	-653
836.305	116
836.399	-252
836.493	-1463
836.586	-147
836.680	-1189
836.774	-785
836.867	847
836.961	-1069
837.055	-669
837.148	-342
837.242	-541
837.335	-804
837.429	-494
837.522	-1312
837.616	-324
837.709	137
837.803	-1255
837.896	-161
837.989	-302
838.083	-747
838.176	-289
838.269	-1249
838.363	-32
838.456	-1498
838.549	-470
838.642	-1059
838.735	65
838.829	-322
838.922	-520
839.015	-94
839.108	-764
839.201	5
839.294	-286
839.387	333
839.480	-1466
839.573	-503
839.666	-610
839.759	11
839.852	-1173
839.945	-117
840.038	-1033
840.131	-1136
840.223	-266
840.316	-69
840.409	-1113
840.502	-1261
840.594	339
840.687	-1931
840.780	-443
840.873	-1104
840.965	-1093
841.058	-581
841.150	-658
841.243	-2027
841.336	304
841.428	-649
841.521	-1457
841.613	-1295
841.706	-847
841.798	-355
841.890	-846
841.983	-785
842.075	796
842.167	-577
842.260	-623
842.352	-502
842.444	-375
842.537	-845
842.629	-194
842.721	-1216
842.813	-1078
842.905	-2149
842.997	-970
843.090	-1220
843.182	-540
843.274	-1386
843.366	-637
843.458	-801
843.550	90
843.642	-1945
843.734	-834
843.826	-1344
843.918	-333
844.009	-630
844.101	-1539
844.193	-1459
844.285	-292
844.377	-878
844.469	206
844.560	-792
844.652	-530
844.744	-575
844.835	-805
844.927	-77
845.019	-850
845.110	-816
845.202	-209
845.293	-1150
845.385	-1103
845.476	-417
845.568	-214
845.659	-1492
845.751	-497
845.842	-480
845.934	-1302
846.025	-1120
846.116	-79
846.208	-898
846.299	-1660
846.390	49
846.482	-541
846.573	-1020
846.664	-1260
846.755	-1481
846.846	-47
846.937	-1939
847.029	-843
847.120	-1397
847.211	-1998
847.302	98
847.393	-1799
847.484	-148
847.575	-752
847.666	-919
847.757	-646
847.847	-732
847.938	426
848.029	-1589
848.120	-1531
848.211	-370
848.302	-332
848.392	-1154
848.483	-389
848.574	-1296
848.664	-1255
848.755	-1408
848.846	-971
848.936	-1655
849.027	-696
849.118	-712
849.208	-1307
849.299	271
849.389	10
849.480	1294
849.570	3390
849.661	8068
849.751	13546
849.841	3606
849.932	59
850.022	-955
850.112	-1305
850.203	-980
850.293	-653
850.383	-1091
850.474	-1115
850.564	-1548
850.654	-623
850.744	-1043
850.834	-693
850.924	-554
851.014	-540
851.104	-1241
851.194	-688
851.284	-1517
851.374	-1608
851.464	-1823
851.554	-531
851.644	-1592
851.734	260
851.824	-1510
851.914	-735
852.004	-687
852.094	-803
852.183	-859
852.273	-1286
852.363	-1330
852.452	-705
852.542	-1171
852.632	-1218
852.721	-708
852.811	-1453
852.901	-1011
852.990	-1399
853.080	-694
853.169	-852
853.259	-891
853.348	-1843
853.438	-151
853.527	318
853.617	378
853.706	2003
853.795	4179
853.885	12011
853.974	21951
854.063	42803
854.152	61232
854.242	20509
854.331	2859
854.420	494
854.509	739
854.598	190
854.687	-185
854.777	-908
854.866	-787
854.955	-535
855.044	-1207
855.133	-831
855.222	-1630
855.311	-1403
855.400	-1155
855.488	-1319
855.577	-841
855.666	-1396
855.755	-85
855.844	-811
855.933	-1044
856.021	-548
856.110	-1139
856.199	-1594
856.288	-1660
856.376	-1008
856.465	-2044
856.554	-851
856.642	-703
856.731	-37
856.819	-1059
856.908	-1042
856.996	-1679
857.085	-1364
857.173	-921
857.262	-1792
857.350	-600
857.438	-1291
857.527	-1202
857.615	-823
857.703	-916
857.792	-1304
857.880	-1194
857.968	-1897
858.056	-812
858.145	-838
858.233	-1018
858.321	-1577
858.409	-462
858.497	-1013
858.585	-1899
858.673	-243
858.761	-1014
858.849	-1007
858.937	-960
859.025	-1057
859.113	-575
859.201	-1515
859.289	-720
859.377	-850
859.465	-494
859.552	-2039
859.640	-1039
859.728	-850
859.816	-1745
859.903	-1023
859.991	-1096
860.079	-516
860.166	-1745
860.254	-1381
860.342	-898
860.429	-1359
860.517	-1422
860.604	-1121
860.692	-863
860.779	-1272
860.867	-1357
860.954	-957
861.042	-1194
861.129	-1495
861.216	-1045
861.304	-1067
861.391	-1653
861.478	-1421
861.565	-897
861.653	-1200
861.740	-1244
861.827	-1028
861.914	-1000
862.001	-1637
862.089	-966
862.176	-1093
862.263	-1250
862.350	-1488
862.437	-1553
862.524	-1159
862.611	-1098
862.698	-412
862.785	-1068
862.871	-1054
862.958	-1062
863.045	-900
863.132	-488
863.219	-905
863.306	-1758
863.392	-52
863.479	-430
863.566	-509
863.652	-513
863.739	-707
863.826	-254
863.912	-447
863.999	-1602
864.086	-1133
864.172	-1071
864.259	-1394
864.345	-1412
864.432	-187
864.518	-1128
864.604	41
864.691	-223
864.777	-1048
864.863	-296
864.950	-470
865.036	-264
865.122	1463
865.209	2176
865.295	894
865.381	1169
865.467	1367
865.553	1931
865.639	1643
865.726	3465
865.812	6712
865.898	12489
865.984	18965
866.070	34776
866.156	33668
866.242	9631
866.328	2520
866.414	1796
866.499	1311
866.585	628
866.671	1668
866.757	881
866.843	877
866.928	594
867.014	127
867.100	1386
867.186	578
867.271	298
867.357	991
867.442	29
867.528	832
867.614	1022
867.699	453
867.785	386
867.870	666
867.956	264
868.041	871
868.127	772
868.212	614
868.297	508
868.383	954
868.468	910
868.553	464
868.639	168
868.724	-43
868.809	1080
868.894	654
868.979	631
869.065	1176
869.150	-235
869.235	559
869.320	243
869.405	-238
869.490	93
869.575	136
869.660	54
869.745	714
869.830	405
869.915	-259
870.000	112
870.085	596
870.169	603
870.254	1294
870.339	76
870.424	-232
870.509	450
870.593	435
870.678	662
870.763	-12
870.847	26
870.932	164
871.016	387
871.101	-712
871.186	-45
871.270	635
871.355	-268
871.439	175
871.523	244
871.608	63
871.692	-275
871.777	173
871.861	-216
871.945	-879
872.030	564
872.114	94
872.198	-760
872.282	425
872.367	186
872.451	161
872.535	-572
872.619	666
872.703	-657
872.787	108
872.871	13
872.955	-324
873.039	-417
873.123	-54
873.207	1014
873.291	-862
873.375	-45
873.459	-239
873.543	-870
873.627	-199
873.711	-465
873.794	-74
873.878	-383
873.962	-604
874.045	-391
874.129	-395
874.137	-415
874.213	-615
874.245	-512
874.296	-344
874.352	-433
874.380	-480
874.460	-230
874.464	-221
874.547	-352
874.568	-170
874.631	370
874.676	-231
874.714	-728
874.784	575
874.798	822
874.881	1104
874.892	859
874.965	-747
874.999	-514
875.048	-236
875.107	-336
875.131	-372
875.215	-480
875.215	-479
875.298	-378
875.323	-389
875.381	-353
875.430	585
875.465	1237
875.538	45
875.548	-132
875.631	-930
875.646	-946
875.714	-963
875.753	-681
875.798	-308
875.861	207
875.881	338
875.964	-144
875.968	-197
876.047	-1062
876.076	-779
876.130	-263
876.183	-76
876.213	46
876.291	262
876.296	264
876.379	-49
876.398	-52
876.462	81
876.506	-412
876.545	-891
876.613	-160
876.628	24
876.711	-493
876.721	-385
876.794	219
876.828	175
876.877	173
876.935	-62
876.960	-156
877.043	-461
877.043	-458
877.125	285
877.150	52
877.208	-478
877.258	-306
877.291	-199
877.365	-320
877.374	-342
877.456	-393
877.472	-389
877.539	-326
877.579	-94
877.622	164
877.687	321
877.704	393
877.787	6
877.794	-0
877.869	-346
877.901	-179
877.952	202
878.008	12
878.034	-95
878.115	-225
878.117	-226
878.199	28
878.222	12
878.282	-14
878.329	141
878.364	305
878.437	308
878.447	283
878.529	-495
878.544	-449
878.611	-87
878.651	61
878.694	265
878.758	160
878.776	91
878.858	131
878.865	144
878.941	360
878.972	118
879.023	-364
879.078	-423
879.105	-349
879.185	72
879.187	81
879.269	219
879.292	321
879.351	522
879.399	190
879.433	-68
879.506	297
879.516	350
879.598	-110
879.613	-156
879.680	-240
879.720	240
879.762	626
879.827	107
879.844	18
879.926	-148
879.933	-94
880.007	363
880.040	248
880.089	234
880.147	515
880.171	607
880.253	1693
880.254	1689
880.335	1038
880.360	1220
880.417	2165
880.467	3061
880.499	3856
880.574	5560
880.580	5509
880.662	1545
880.680	1153
880.744	296
880.787	-112
880.825	-80
880.893	18
880.907	32
880.989	-174
881.000	-130
881.070	84
881.106	14
881.152	-4
881.213	-53
881.233	-73
881.315	254
881.319	242
881.396	332
881.426	404
881.478	234
881.532	253
881.559	411
881.639	203
881.641	188
881.722	213
881.745	-131
881.803	-278
881.852	417
881.885	521
881.958	85
881.966	74
882.047	34
882.064	-6
882.129	-112
882.171	-81
882.210	12
882.277	255
882.291	336
882.372	570
882.383	618
882.454	821
882.489	819
882.535	658
882.596	165
882.616	49
882.697	294
882.702	311
882.778	862
882.808	869
882.859	589
882.914	417
882.940	441
883.020	335
883.021	341
883.102	460
883.127	640
883.183	557
883.233	429
883.264	383
883.339	-46
883.345	-44
883.426	-164
883.445	10
883.507	948
883.551	1211
883.587	986
883.657	689
883.668	749
883.749	929
883.763	957
883.830	426
883.869	405
883.910	580
883.975	578
883.991	666
884.072	789
884.081	807
884.152	780
884.187	896
884.233	1181
884.292	1041
884.314	848
884.394	588
884.398	572
884.475	93
884.504	-137
884.555	398
884.610	1047
884.636	985
884.716	485
884.716	489
884.797	511
884.821	661
884.877	728
884.927	487
884.958	499
885.033	712
885.038	700
885.118	306
885.139	137
885.199	-33
885.244	238
885.279	412
885.350	316
885.359	355
885.439	796
885.456	894
885.520	936
885.561	698
885.600	330
885.667	240
885.680	301
885.760	508
885.773	464
885.840	491
885.878	694
885.920	623
885.984	289
886.000	271
886.080	364
886.089	385
886.160	560
886.195	525
886.240	671
886.300	790
886.320	699
886.400	667
886.406	636
886.480	577
886.511	623
886.560	830
886.616	1005
886.640	1074
886.720	1441
886.722	1436
886.800	411
886.827	116
886.879	220
886.932	226
886.959	582
887.038	1897
887.039	1901
887.119	1295
887.143	1112
887.198	1120
887.248	1178
887.278	1074
887.354	741
887.358	758
887.437	836
887.459	955
887.517	1318
887.564	1384
887.596	1142
887.669	684
887.676	701
887.755	966
887.774	969
887.835	317
887.880	-28
887.914	382
887.985	1012
887.994	1064
888.073	1579
888.090	1674
888.153	1531
888.195	1362
888.232	1238
888.300	1158
888.311	1168
888.391	1060
888.405	1034
888.470	1070
888.510	1113
888.549	1037
888.615	890
888.628	842
888.708	524
888.720	463
888.787	860
888.825	1086
888.866	791
888.930	321
888.945	493
889.024	1412
889.035	1531
889.103	1442
889.140	1354
889.182	1188
889.245	972
889.261	1087
889.340	1586
889.349	1643
889.419	1778
889.454	1807
889.498	1362
889.559	768
889.577	808
889.656	959
889.664	974
889.735	1637
889.768	1943
889.814	1990
889.873	2041
889.978	623
890.083	2109
890.187	1406
890.292	1026
890.397	1196
890.501	1216
890.606	410
890.710	1417
890.815	1220
890.919	1115
891.024	602
891.128	1550
891.233	385
891.337	1692
891.442	1039
891.546	641
891.650	835
891.755	756
891.859	2058
891.963	1006
892.068	1393
892.172	1243
892.276	130
892.380	757
892.484	1267
892.589	1525
892.693	979
892.797	734
892.901	866
893.005	623
893.109	1112
893.213	1651
893.317	865
893.421	1322
893.525	962
893.629	290
893.733	385
893.837	1026
893.941	95
894.045	805
894.148	63
894.252	13
894.356	575
894.460	1689
894.564	228
894.667	872
894.771	1074
894.875	1191
894.978	882
895.082	649
895.186	1431
895.289	1442
895.393	670
895.496	1497
895.600	1472
895.703	570
895.807	1009
895.910	851
896.014	859
896.117	740
896.221	503
896.324	978
896.427	703
896.531	580
896.634	240
896.737	848
896.840	867
896.944	1351
897.047	1681
897.150	531
897.253	144
897.356	1235
897.460	-176
897.563	502
897.666	1533
897.769	164
897.872	-186
897.975	384
898.078	584
898.181	461
898.284	-81
898.387	1589
898.490	1252
898.593	2023
898.695	567
898.798	1501
898.901	1170
899.004	1331
899.107	661
899.209	661
899.312	769
899.415	1128
899.518	675
899.620	-8
899.723	951
899.826	1146
899.928	850
900.031	-56
900.133	134
900.236	961
900.338	240
900.441	1079
900.543	253
900.646	689
900.748	453
900.851	864
900.953	1128
901.055	1233
901.158	677
901.260	508
901.362	404
901.465	307
901.567	1006
901.669	1405
901.771	168
901.873	983
901.976	-65
902.078	777
902.180	496
902.282	765
902.384	224
902.486	1365
902.588	386
902.690	559
902.792	-188
902.894	991
902.996	788
903.098	519
903.200	549
903.302	890
903.404	167
903.505	626
903.607	723
903.709	1144
903.811	-12
903.913	1237
904.014	633
904.116	587
904.218	-622
904.319	-219
904.421	1671
904.523	1440
904.624	729
904.726	1127
904.827	-385
904.929	817
905.030	697
905.132	879
905.233	745
905.335	683
905.436	58
905.537	588
905.639	536
905.740	1057
905.841	877
905.943	895
906.044	430
906.145	552
906.247	-33
906.348	1653
906.449	1371
906.550	652
906.651	1190
906.752	826
906.854	-92
906.955	-860
907.056	435
907.157	782
907.258	696
907.359	1012
907.460	56
907.561	-166
907.662	-239
907.762	-411
907.863	919
907.964	1213
908.065	875
908.166	501
908.267	379
908.367	13
908.468	-180
908.569	81
908.670	353
908.770	1059
908.871	891
908.971	297
909.072	168
909.173	444
909.273	163
909.374	494
909.474	268
909.575	1199
909.675	318
909.776	970
909.876	-55
909.977	319
910.077	349
910.177	892
910.278	396
910.378	472
910.478	252
910.579	608
910.679	451
910.779	878
910.879	548
910.980	1121
911.080	96
911.180	484
911.280	161
911.380	1105
911.480	516
911.580	346
911.680	288
911.780	1418
911.880	112
911.980	-46
912.080	-188
912.180	185
912.280	799
912.380	1203
912.480	157
912.580	831
912.679	348
912.779	806
912.879	477
912.979	-140
913.078	768
913.178	-330
913.278	-82
913.377	368
913.477	-644
913.577	697
913.676	500
913.776	1017
913.875	405
913.975	542
914.074	494
914.174	442
914.273	-36
914.373	973
914.472	591
914.572	499
914.671	742
914.770	1240
914.870	149
914.969	273
915.068	146
915.167	974
915.267	-474
915.366	501
915.465	702
915.564	910
915.663	344
915.763	1257
915.862	220
915.961	615
916.060	-138
916.159	1288
916.258	-277
916.357	-61
916.456	864
916.555	811
916.654	429
916.752	807
916.851	-465
916.950	363
917.049	282
917.148	-873
917.247	510
917.345	179
917.444	63
917.543	391
917.642	1002
917.740	1022
917.839	155
917.937	381
918.036	1004
918.135	377
918.233	607
918.332	234
918.430	-544
918.529	471
918.627	-132
918.726	790
918.824	292
918.923	329
919.021	564
919.119	112
919.218	-635
919.316	312
919.414	-505
919.512	1075
919.611	1042
919.709	1345
919.807	243
919.905	1035
920.003	798
920.102	919
920.200	-374
920.298	1840
920.396	696
920.494	824
920.592	129
920.690	1388
920.788	124
920.886	170
920.984	913
921.082	1055
921.180	1598
921.277	1398
921.375	926
921.473	1582
921.571	2213
921.669	1650
921.766	1134
921.864	2642
921.962	1372
922.060	1361
922.157	2129
922.255	1348
922.352	1305
922.450	2316
922.548	2203
922.645	2804
922.743	2843
922.840	4158
922.938	4766
923.035	4753
923.133	4357
923.230	5305
923.327	6718
923.425	5089
923.522	5291
923.619	5168
923.717	4483
923.814	4520
923.911	3810
924.008	4833
924.106	4162
924.203	4835
924.300	4959
924.397	3704
924.494	4458
924.591	5161
924.688	3555
924.786	4153
924.883	4277
924.979	4507
925.077	3862
925.173	4446
925.270	4443
925.367	4759
925.464	3901
925.561	4942
925.658	5214
925.755	3974
925.852	4366
925.948	4593
926.045	3540
926.142	4386
926.239	5008
926.335	3933
926.432	4192
926.529	4884
926.625	5673
926.722	3978
926.818	4249
926.915	4161
927.011	4556
927.108	4002
927.204	3303
927.301	4359
927.397	4028
927.494	4829
927.590	3209
927.687	3629
927.783	4063
927.879	4899
927.976	3518
928.072	3359
928.168	3662
928.264	4620
928.361	3329
928.457	4441
928.553	3800
928.649	3570
928.745	4198
928.841	3544
928.937	2921
929.033	2984
929.129	2750
929.225	4607
929.321	3680
929.417	2059
929.513	3498
929.609	3838
929.705	3218
929.801	3637
929.897	2698
929.993	3354
930.089	3383
930.184	4544
930.280	3215
930.376	3652
930.471	2314
930.567	3035
930.663	2832
930.758	2329
930.854	2397
930.950	2028
931.045	2927
931.141	3070
931.236	3942
931.332	3386
931.427	1328
931.523	4153
931.618	3839
931.714	2858
931.809	2219
931.905	3603
932.000	1938
932.095	1660
932.191	3932
932.286	4002
932.381	3821
932.476	2157
932.572	1920
932.667	2936
932.762	1982
932.857	2177
932.952	2956
933.047	2712
933.142	2246
933.237	3099
933.332	2376
933.427	3665
933.522	2328
933.617	1983
933.712	1897
933.807	2782
933.902	3202
933.997	4504
934.092	1936
934.187	2621
934.282	2981
934.376	3092
934.471	2601
934.566	1797
934.661	1940
934.755	2871
934.850	2649
934.945	2623
935.039	2022
935.134	1336
935.228	1431
935.323	4335
935.417	1950
935.512	1663
935.606	1031
935.701	2483
935.795	2426
935.890	2290
935.984	2569
936.079	1769
936.173	2144
936.267	2075
936.362	1009
936.456	2494
936.550	2324
936.644	3314
936.738	1800
936.833	1884
936.927	1146
937.021	2775
937.115	1211
937.209	1681
937.303	3032
937.397	1949
937.491	1552
937.585	2754
937.679	2476
937.773	1451
937.867	1115
937.961	1551
938.055	2158
938.149	2363
938.243	636
938.337	1096
938.430	1452
938.524	3102
938.618	1927
938.712	1807
938.805	1706
938.899	2238
938.993	2290
939.086	1813
939.180	353
939.274	1705
939.367	1797
939.461	2192
939.554	1699
939.648	1364
939.741	919
939.835	2223
939.928	2481
940.022	2043
940.115	1953
940.208	1836
940.302	2281
940.395	2894
940.488	1909
940.582	1618
940.675	933
940.768	1033
940.861	1832
940.954	3277
941.048	1029
941.141	1501
941.234	1385
941.327	1649
941.420	2060
941.513	2703
941.606	1436
941.699	1837
941.792	1741
941.885	1532
941.978	2021
942.071	2122
942.164	116
942.257	1693
942.349	860
942.442	2637
942.535	327
942.628	961
942.721	1281
942.813	868
942.906	1770
942.999	1608
943.091	1126
943.184	939
943.277	1206
943.369	1432
943.462	557
943.554	1164
943.647	1073
943.739	1821
943.832	1702
943.924	88
944.017	340
944.109	541
944.201	1576
944.294	1090
944.386	1778
944.478	561
944.571	1020
944.663	1507
944.755	1684
944.847	1345
944.940	869
945.032	-65
945.124	494
945.216	1829
945.308	1000
945.400	1268
945.492	912
945.584	1724
945.676	1305
945.768	1886
945.860	2164
945.952	2127
946.044	1689
946.136	959
946.228	1226
946.320	72
946.412	1039
946.503	1339
946.595	1560
946.687	1187
946.779	21
946.870	1313
946.962	812
947.054	1045
947.145	409
947.237	838
947.329	653
947.420	1548
947.512	971
947.603	582
947.695	289
947.786	1230
947.878	432
947.969	1114
948.061	967
948.152	733
948.243	749
948.335	279
948.426	-880
948.517	543
948.609	1354
948.700	1646
948.791	748
948.882	633
948.973	-269
949.065	592
949.156	1260
949.247	-124
949.338	746
949.429	347
949.520	37
949.611	219
949.702	1805
949.793	191
949.884	922
949.975	539
950.066	-93
950.157	671
950.247	191
950.338	-318
950.429	593
950.520	354
950.611	473
950.701	348
950.792	863
950.883	1697
950.973	911
951.064	1068
951.155	969
951.245	1347
951.336	862
951.427	903
951.517	1365
951.608	2003
951.698	28
951.788	394
951.879	891
951.969	-460
952.060	900
952.150	547
952.240	1098
952.331	-535
952.421	1784
952.511	371
952.602	-25
952.692	119
952.782	-809
952.872	156
952.962	935
953.052	409
953.143	-364
953.233	886
953.323	1058
953.413	874
953.503	1320
953.593	1079
953.683	103
953.773	-115
953.863	-228
953.953	130
954.042	306
954.132	178
954.222	750
954.312	961
954.402	103
954.492	645
954.581	518
954.671	221
954.761	780
954.850	1733
954.940	-392
955.030	584
955.119	46
955.209	1163
955.298	-91
955.388	876
955.477	1268
955.567	351
955.656	601
955.746	825
955.835	945
955.925	-61
956.014	-103
956.103	664
956.193	400
956.282	895
956.371	669
956.461	213
956.550	3
956.639	668
956.728	-461
956.817	1047
956.906	107
956.995	380
957.085	-31
957.174	339
957.263	-17
957.352	-92
957.441	131
957.530	468
957.619	529
957.708	1007
957.796	182
957.885	622
957.974	-16
958.063	1123
958.152	-827
958.241	-96
958.329	-261
958.418	299
958.507	-32
958.596	2161
958.684	-912
958.773	1130
958.861	-665
958.950	787
959.039	402
959.127	642
959.216	1255
959.304	403
959.393	434
959.481	841
959.570	993
959.658	1078
959.746	414
959.835	435
959.923	355
960.011	91
960.100	1103
960.188	596
960.276	-486
960.365	948
960.453	-610
960.541	-410
960.629	-285
960.717	518
960.805	94
960.893	469
960.981	162
961.069	1327
961.158	1036
961.245	1147
961.333	-396
961.421	418
961.509	166
961.597	386
961.685	67
961.773	-116
961.861	613
961.949	785
962.036	-60
962.124	473
962.212	-175
962.299	275
962.387	166
962.475	492
962.562	-115
962.650	248
962.738	-574
962.825	-328
962.913	482
963.000	383
963.088	1217
963.175	65
963.263	-81
963.350	152
963.438	479
963.525	-784
963.612	503
963.700	72
963.787	1049
963.874	-758
963.962	-610
964.049	550
964.136	-418
964.223	-1265
964.310	-111
964.398	-457
964.485	-1164
964.572	170
964.659	-668
964.746	457
964.833	-200
964.920	-81
965.007	499
965.094	19
965.181	-510
965.268	543
965.355	60
965.441	177
965.528	-513
965.615	1451
965.702	-199
965.789	-365
965.875	-26
965.962	399
966.049	-624
966.136	247
966.222	43
966.309	265
966.395	661
966.482	407
966.569	-459
966.655	319
966.742	82
966.828	-691
966.915	70
967.001	-113
967.087	-1437
967.174	404
967.260	103
967.347	-135
967.433	112
967.519	963
967.605	-1382
967.692	-314
967.778	-63
967.864	-684
967.950	53
968.036	-255
968.123	188
968.209	157
968.295	-1398
968.381	960
968.467	516
968.553	-1378
968.639	785
968.725	-796
968.811	631
968.897	1089
968.983	-256
969.069	-1120
969.154	-364
969.240	300
969.326	-1284
969.412	-682
969.497	-597
969.583	-660
969.669	628
969.755	340
969.840	-785
969.926	886
970.012	1142
970.097	2538
970.183	989
970.268	710
970.354	-469
970.439	-586
970.525	1023
970.610	-1120
970.696	-119
970.781	536
970.866	-910
970.952	845
971.037	-485
971.122	-22
971.208	-314
971.293	-164
971.378	-1461
971.463	-504
971.549	-124
971.634	-493
971.719	-643
971.804	-114
971.889	86
971.974	203
972.059	-1391
972.144	-416
972.229	-463
972.314	-395
972.399	-185
972.484	-231
972.569	211
972.654	-1381
972.739	482
972.824	-986
972.908	-477
972.993	-650
973.078	109
973.163	-609
973.247	-307
973.332	-1766
973.417	1388
973.501	-182
973.586	-397
973.671	-454
973.755	-255
973.840	476
973.924	-105
974.009	608
974.093	-310
974.178	1262
974.262	-271
974.346	86
974.431	-1004
974.515	-844
974.600	-449
974.684	-17
974.768	-784
974.852	426
974.937	-1023
975.021	-12
975.105	397
975.189	-705
975.273	-383
975.358	-463
975.442	-1075
975.526	1418
975.610	-1319
975.694	-1047
975.778	185
975.862	-1215
975.946	-1314
976.030	1147
976.114	-287
976.198	12
976.281	-38
976.365	421
976.449	-683
976.533	297
976.617	-518
976.700	-659
976.784	-86
976.868	-822
976.951	247
977.035	-568
977.119	-99
977.202	34
977.286	-268
977.369	597
977.453	608
977.536	922
977.620	61
977.703	1348
977.787	-561
977.870	806
977.953	356
978.037	-1246
978.120	-1
978.203	-390
978.287	-119
978.370	-181
978.453	-7
978.536	-496
978.620	195
978.703	24
978.786	-708
978.869	-1038
978.952	-1277
979.035	1731
979.118	188
979.201	-436
979.284	262
979.367	-292
979.450	238
979.533	-362
979.616	-459
979.699	-301
979.782	476
979.865	261
979.948	-435
980.030	-532
980.113	-683
980.196	-372
980.279	537
980.361	-231
980.444	-1176
980.526	111
980.609	468
980.692	861
980.774	497
980.857	-31
980.939	1126
981.022	775
981.104	95
981.187	-70
981.269	366
981.352	382
981.434	-767
981.516	-283
981.599	742
981.681	644
981.763	-476
981.846	294
981.928	-642
982.010	-199
982.092	-785
982.174	1358
982.256	-462
982.339	-290
982.421	-191
982.503	995
982.585	-306
982.667	-125
982.749	-829
982.831	6
982.913	-792
982.995	814
983.077	25
983.158	1461
983.240	-779
983.322	497
983.404	1722
983.486	341
983.568	735
983.649	582
983.731	894
983.813	-25
983.894	-237
983.976	82
984.058	93
984.139	1013
984.221	-961
984.302	937
984.384	70
984.465	-352
984.547	414
984.628	-616
984.710	125
984.791	355
984.872	269
984.954	435
985.035	343
985.116	-548
985.198	-133
985.279	830
985.360	-856
985.441	518
985.522	603
985.604	394
985.685	-1395
985.766	1960
985.847	778
985.928	264
986.009	-257
986.090	-474
986.171	-241
986.252	-959
986.333	-71
986.414	284
986.495	383
986.576	845
986.656	-21
986.737	454
986.818	880
986.899	-221
986.980	416
987.060	1479
987.141	252
987.222	43
987.302	545
987.383	806
987.464	391
987.544	1125
987.625	252
987.705	1505
987.786	819
987.866	1314
987.947	225
988.027	362
988.108	403
988.188	1007
988.268	812
988.349	1116
988.429	805
988.509	-267
988.589	-165
988.670	-802
988.750	1902
988.830	-77
988.910	373
988.990	965
989.070	110
989.151	18
989.231	-874
989.311	754
989.391	32
989.471	608
989.551	-312
989.631	230
989.711	1176
989.791	1015
989.870	-479
989.950	1262
990.030	-486
990.110	-95
990.190	-806
990.269	133
990.349	413
990.429	653
990.509	745
990.588	-772
990.668	813
990.747	535
990.827	227
990.907	99
990.986	-251
991.066	366
991.145	-948
991.225	864
991.304	110
991.383	894
991.463	-322
991.542	809
991.622	-847
991.701	-504
991.780	127
991.859	-96
991.939	-102
992.018	213
992.097	60
992.176	177
992.256	-728
992.335	-589
992.414	786
992.493	-110
992.572	-935
992.651	290
992.730	-440
992.809	193
992.888	-1331
992.967	505
993.046	-520
993.125	-1072
993.203	-496
993.282	367
993.361	-681
993.440	-860
993.519	-940
993.597	-279
993.676	-1004
993.755	1092
993.834	-726
993.912	-1109
993.991	803
994.069	-1119
994.148	-185
994.226	-12
994.305	276
994.384	92
994.462	-166
994.540	-1516
994.619	-1097
994.697	375
994.776	-899
994.854	473
994.932	-541
995.011	-371
995.089	-1155
995.167	-686
995.245	-663
995.324	-482
995.402	40
995.480	-846
995.558	-615
995.636	-435
995.714	-453
995.792	375
995.870	-1104
995.948	59
996.026	-1085
996.104	-1153
996.182	-880
996.260	-1596
996.338	-337
996.416	-1287
996.494	-363
996.572	498
996.649	-836
996.727	-1372
996.805	50
996.883	-441
996.960	-782
997.038	-115
997.116	-148
997.193	-1289
997.271	-1185
997.348	-637
997.426	-797
997.504	-1382
997.581	53
997.658	4
997.736	-1778
997.813	-1409
997.891	-253
997.968	-807
998.046	-1260
998.123	-573
998.200	-185
998.277	-893
998.355	-195
998.432	-1861
998.509	-1080
998.586	-171
998.663	-186
998.741	-203
998.818	-851
998.895	-1035
998.972	-1200
999.049	-807
999.126	-1530
999.203	-227
999.280	-968
999.357	-1207
999.434	-1694
999.511	-512
999.587	-17
999.664	-1345
999.741	-825
999.818	-772
999.895	-1408
999.971	-881
1000.048	-772
1000.125	-558
1000.202	-1927
1000.278	-672
1000.355	-997
1000.431	-465
1000.508	-1046
1000.584	-1101
1000.661	-1009
1000.738	-1292
1000.814	-1883
1000.890	115
1000.967	-695
1001.043	-767
1001.120	-2107
1001.196	-1018
1001.272	-1740
1001.349	-885
1001.425	-1157
1001.501	-429
1001.577	-2355
1001.654	-708
1001.730	-1994
1001.806	-1186
1001.882	-2010
1001.958	-970
1002.034	-761
1002.110	-692
1002.186	-806
1002.262	-1666
1002.338	-1310
1002.414	-480
1002.490	-1260
1002.566	-1298
1002.642	-2133
1002.718	234
1002.794	-1304
1002.870	-803
1002.945	-1443
1003.021	-1378
1003.097	-1059
1003.173	-803
1003.248	-1846
1003.324	-1163
1003.400	-719
1003.475	-1761
1003.551	-1858
1003.626	-1042
1003.702	-1869
1003.777	-1256
1003.853	-1292
1003.928	-1795
1004.004	-2078
1004.079	-740
1004.155	-1396
1004.230	-1244
1004.305	-229
1004.381	-1542
1004.456	-1958
1004.531	-1002
1004.607	-1139
1004.682	-1118
1004.757	-1688
1004.832	-908
1004.907	-1876
1004.982	-726
1005.057	-146
1005.133	-945
1005.208	-1233
1005.283	-1293
1005.358	-932
1005.433	-1592
1005.508	-1324
1005.583	-1978
1005.657	-1526
1005.732	-788
1005.807	-1739
1005.882	-1130
1005.957	-1571
1006.032	-840
1006.106	-1046
1006.181	-1111
1006.256	-1629
1006.331	-1736
1006.405	-2064
1006.480	-849
1006.554	-1720
1006.629	-1762
1006.704	-1882
1006.778	-1191
1006.853	-1435
1006.927	-1539
1007.002	-1605
1007.076	-963
1007.150	-1347
1007.225	-1222
1007.299	-760
1007.373	-1706
1007.448	-1371
1007.522	-1966
1007.596	-1435
1007.671	-1749
1007.745	-1310
1007.819	-2578
1007.893	-1355
1007.967	-738
1008.041	-2309
1008.115	-1120
1008.190	-1682
1008.264	-868
1008.338	-2565
1008.412	-1119
1008.486	-1063
1008.560	-975
1008.633	-1428
1008.707	-696
1008.781	-1572
1008.855	-949
1008.929	-1629
1009.003	-2245
1009.076	-2187
1009.150	-1686
1009.224	-1649
1009.298	-1236
1009.371	-2552
1009.445	-787
1009.519	-1212
1009.592	-1870
1009.666	-1817
1009.739	-1551
1009.813	-2032
1009.886	-565
1009.960	-2107
1010.033	-1169
1010.107	-2089
1010.180	-1020
1010.253	-1447
1010.327	-1855
1010.400	-1563
1010.473	-2049
1010.547	-313
1010.620	-2037
1010.693	-1574
1010.766	-1735
1010.840	-1782
1010.913	-1403
1010.986	-1770
1011.059	-2388
1011.132	-1696
1011.205	-734
1011.278	-1970
1011.351	-1643
1011.424	-1166
1011.497	-1368
1011.570	-1600
1011.643	-1617
1011.716	-2072
1011.789	-2219
1011.862	-1690
1011.934	-918
1012.007	-2981
1012.080	-1784
1012.153	-1604
1012.225	-666
1012.298	-2547
1012.371	-2632
1012.443	-1089
1012.516	-2375
1012.588	-941
1012.661	-1258
1012.733	-2605
1012.806	-1112
1012.879	-2684
1012.951	-1535
1013.023	-1782
1013.096	-1376
1013.168	-1983
1013.241	-1759
1013.313	-2020
1013.385	-1827
1013.458	-1319
1013.530	-1170
1013.602	-3094
1013.674	-1316
1013.746	-2284
1013.819	-1531
1013.891	-1213
1013.963	-2266
1014.035	-1093
1014.107	-1026
1014.179	-1753
1014.251	-2047
1014.323	-1324
1014.395	-1013
1014.467	-2890
1014.539	-1852
1014.611	-2094
1014.683	-1540
1014.754	-1588
1014.826	-1155
1014.898	-2198
1014.970	-1924
1015.042	-1102
1015.113	-1178
1015.185	-1937
1015.257	-2025
1015.328	-1506
1015.400	-2677
1015.471	-1951
1015.543	-2132
1015.615	-2522
1015.686	-1149
1015.757	-1471
1015.829	-1446
1015.901	-1972
1015.972	-1454
1016.043	-2163
1016.115	-916
1016.186	-1587
1016.257	-1658
1016.328	-1366
1016.400	-615
1016.471	-2666
1016.542	-1254
1016.613	-1977
1016.685	-1790
1016.756	-1989
1016.827	-1575
1016.898	-2270
1016.969	-1132
1017.040	-2074
1017.111	-1518
1017.182	-2075
1017.253	-1826
1017.324	-2113
1017.395	-1826
1017.466	-1837
1017.537	-1683
1017.608	-1189
1017.678	-1286
1017.749	-1511
1017.820	-2203
1017.891	-2252
1017.961	-1736
1018.032	-1460
1018.103	-874
1018.173	-1898
1018.244	-1926
1018.315	-805
1018.385	-1196
1018.456	-2346
1018.526	-1813
1018.597	-1755
1018.667	-1794
1018.738	-1913
1018.808	-1906
1018.878	-1291
1018.949	-2153
1019.019	-1465
1019.089	-1394
1019.160	-2295
1019.230	-2109
1019.300	-1996
1019.371	-1290
1019.441	-1824
1019.511	-1073
1019.581	-1627
1019.651	-1674
1019.721	-1628
1019.791	-2084
1019.861	-1773
1019.931	-1200
1020.001	-1614
1020.071	-1650
1020.141	-2565
1020.211	-2134
1020.281	-2356
1020.351	-2709
1020.421	-1271
1020.491	-764
1020.560	-2805
1020.630	-901
1020.700	-1830
1020.770	-1942
1020.839	-2148
1020.909	-1359
1020.979	-2231
1021.048	-1273
1021.118	-1625
1021.187	-1778
1021.257	-1851
1021.326	-1173
1021.396	-2149
1021.465	-512
1021.535	-2992
1021.604	-2045
1021.674	-1697
1021.743	-1704
1021.812	-2230
1021.882	-1808
1021.951	-2547
1022.020	-1298
1022.089	-560
1022.159	-1786
1022.228	-1794
1022.297	-1779
1022.366	-1615
1022.435	-1957
1022.504	-1531
1022.573	-1917
1022.642	-1438
1022.711	-2207
1022.781	-1598
1022.849	-1072
1022.918	-2489
1022.987	-1607
1023.056	-1937
1023.125	-2390
1023.194	-2453
1023.263	-1254
1023.331	-1289
1023.400	-2163
1023.469	-1977
1023.538	-1610
1023.606	-2210
1023.675	-1579
1023.744	-2056
1023.812	-1655
1023.881	-1911
1023.949	-2015
1024.018	-2482
1024.086	-1104
1024.155	-1757
1024.223	-2326
1024.292	-1971
1024.360	-1462
1024.429	-1874
1024.497	-2139
1024.565	-2613
1024.634	-1975
1024.702	-1156
1024.770	-1419
1024.838	-1781
1024.907	-1938
1024.975	-2037
1025.043	-1699
1025.111	-2105
1025.179	-2928
1025.247	-2276
1025.315	-1523
1025.383	-1862
1025.451	-2297
1025.519	-1973
1025.587	-1475
1025.655	-1578
1025.723	-1474
1025.791	-2165
1025.859	-1539
1025.927	-1888
1025.995	-2102
1026.062	-2275
1026.130	-2323
1026.198	-2329
1026.266	-1506
1026.333	-2402
1026.401	-1774
1026.469	-1862
1026.536	-1870
1026.604	-2541
1026.671	-2245
1026.739	-1791
1026.806	-1610
1026.874	-1686
1026.941	-2743
1027.009	-1728
1027.076	-2057
1027.144	-1725
1027.211	-2281
1027.278	-2150
1027.345	-1701
1027.413	-1552
1027.480	-1643
1027.547	-1994
1027.614	-1871
1027.682	-1203
1027.749	-1537
1027.816	-2327
1027.883	-2363
1027.950	-2252
1028.017	-2258
1028.084	-1687
1028.151	-2257
1028.218	-2167
1028.285	-2159
1028.352	-1937
1028.419	-2338
1028.486	-1700
1028.553	-2053
1028.619	-1770
1028.686	-2391
1028.753	-2867
1028.820	-2738
1028.886	-2067
1028.953	-2293
1029.020	-1693
1029.086	-2053
1029.153	-1216
1029.220	-2103
1029.286	-1758
1029.353	-2564
1029.419	-1889
1029.486	-1455
1029.552	-2188
1029.619	-2495
1029.685	-1925
1029.751	-1620
1029.818	-1080
1029.884	-1647
1029.951	-1295
1030.017	-1976
1030.083	-2096
1030.149	-1807
1030.216	-2964
1030.282	-1900
1030.348	-2026
1030.414	-1344
1030.480	-1921
1030.546	-2024
1030.612	-1953
1030.678	-2170
1030.744	-2141
1030.810	-1540
1030.876	-2414
1030.942	-1983
1031.008	-1920
1031.074	-1820
1031.140	-2250
1031.206	-704
1031.272	-2677
1031.337	-1724
1031.403	-2041
1031.469	-1762
1031.534	-1711
1031.600	-826
1031.666	-2680
1031.731	-1400
1031.797	-2565
1031.863	-2290
1031.928	-2209
1031.994	-2120
1032.059	-2163
1032.125	-2083
1032.190	-2057
1032.256	-1893
1032.321	-2226
1032.386	-3154
1032.452	-1538
1032.517	-1574
1032.582	-3079
1032.647	-1608
1032.713	-2271
1032.778	-1196
1032.843	-2849
1032.908	-1945
1032.974	-1433
1033.039	-2611
1033.104	-1508
1033.169	-1623
1033.234	-2493
1033.299	-1228
1033.364	-1945
1033.429	-1513
1033.494	-1957
1033.559	-2672
1033.624	-1963
1033.688	-1396
1033.753	-2483
1033.818	-2033
1033.883	-1797
1033.948	-1962
1034.013	-1235
1034.077	-658
1034.142	-659
1034.207	-1257
1034.271	-245
1034.336	336
1034.400	111
1034.465	-1568
1034.530	-1815
1034.594	-1352
1034.658	-1778
1034.723	-1932
1034.787	-2516
1034.852	-1666
1034.916	-1327
1034.981	-2397
1035.045	-2184
1035.109	-1797
1035.173	-1885
1035.238	-1528
1035.302	-1473
1035.366	-1559
1035.430	-1944
1035.495	-1403
1035.559	-2155
1035.623	-1456
1035.687	-2275
1035.751	-1479
1035.815	-2858
1035.879	-1857
1035.943	-2331
1036.007	-2075
1036.071	-1736
1036.135	-1135
1036.198	-2316
1036.262	-2136
1036.326	-2323
1036.390	-1199
1036.454	-2344
1036.517	-1634
1036.581	-1944
1036.645	-1878
1036.709	-1350
1036.772	-1656
1036.836	-2468
1036.900	-1330
1036.963	-2384
1037.026	-1766
1037.090	-2136
1037.154	-2454
1037.217	-2078
1037.280	-2514
1037.344	-2074
1037.407	-2093
1037.471	-1883
1037.534	-1914
1037.597	-1111
1037.661	-2554
1037.724	-1734
1037.787	-1895
1037.850	-2572
1037.913	-2523
1037.977	-1967
1038.040	-1716
1038.103	-2418
1038.166	-1670
1038.229	-1996
1038.292	-1910
1038.355	-2402
1038.418	-1528
1038.481	-1628
1038.544	-2218
1038.607	-2816
1038.670	-2122
1038.732	-1450
1038.795	-2725
1038.858	-2403
1038.921	-1958
1038.984	-1994
1039.046	-2105
1039.109	-2234
1039.172	-1726
1039.234	-2126
1039.297	-2013
1039.360	-2186
1039.422	-2110
1039.485	-2273
1039.547	-2701
1039.610	-1152
1039.672	-2478
1039.734	-2034
1039.797	-1976
1039.859	-2154
1039.922	-2068
1039.984	-2264
1040.046	-2184
1040.109	-1566
1040.171	-2857
1040.233	-2575
1040.295	-2382
1040.358	-1979
1040.420	-2022
1040.482	-2550
1040.544	-1860
1040.606	-1481
1040.668	-1439
1040.730	-2102
1040.792	-1826
1040.854	-1840
1040.916	-1913
1040.978	-2156
1041.040	-1811
1041.102	-1863
1041.164	-2358
1041.225	-2954
1041.287	-2568
1041.349	-2374
1041.411	-1812
1041.472	-1810
1041.534	-1703
1041.596	-2435
1041.657	-1664
1041.719	-2046
1041.781	-2033
1041.842	-1498
1041.904	-2225
1041.965	-2233
1042.027	-2341
1042.088	-2214
1042.150	-1933
1042.211	-1823
1042.272	-1915
1042.334	-2144
1042.395	-1963
1042.456	-1998
1042.518	-1674
1042.579	-2359
1042.640	-2489
1042.701	-1812
1042.763	-2174
1042.824	-1628
1042.885	-2993
1042.946	-2025
1043.007	-1876
1043.068	-2397
1043.129	-1854
1043.190	-2412
1043.251	-1621
1043.312	-1724
1043.373	-1599
1043.434	-1589
1043.495	-2724
1043.556	-2360
1043.616	-1493
1043.677	-2641
1043.738	-1224
1043.799	-2337
1043.859	-1390
1043.920	-1974
1043.981	-1783
1044.041	-1284
1044.102	-1887
1044.162	-1251
1044.223	-1709
1044.284	-2303
1044.344	-2426
1044.405	-3144
1044.465	-1835
1044.525	-1340
1044.586	-1814
1044.646	-1758
1044.707	-2041
1044.767	-1736
1044.827	-1222
1044.887	-1573
1044.948	-1720
1045.008	-2217
1045.068	-1556
1045.128	-1628
1045.188	-1967
1045.249	-1354
1045.309	-2172
1045.369	-1742
1045.429	-1923
1045.489	-1912
1045.549	-1189
1045.609	-1262
1045.669	-1349
1045.729	-2031
1045.789	-1776
1045.848	-2830
1045.908	-1254
1045.968	-1969
1046.028	-1707
1046.088	-1854
1046.147	-1296
1046.207	-1728
1046.267	-1368
1046.326	-1409
1046.386	-919
1046.446	-1442
1046.505	-482
1046.565	-1046
1046.624	-902
1046.684	-653
1046.743	-749
1046.803	-892
1046.862	-55
1046.922	0
